%OpenBCI Raw EEG Data
%Number of channels = 8
%Sample Rate = 250 Hz
%Board = OpenBCI_GUI$BoardCytonSerial
Sample Index, EXG Channel 0, EXG Channel 1, EXG Channel 2, EXG Channel 3, EXG Channel 4, EXG Channel 5, EXG Channel 6, EXG Channel 7, Accel Channel 0, Accel Channel 1, Accel Channel 2, Other, Other, Other, Other, Other, Other, Other, Analog Channel 0, Analog Channel 1, Analog Channel 2, Timestamp, Other, Timestamp (Formatted)
0.0, 0.0, 0.0, 0.0, 0.0, 0.0, 0.0, 0.0, 0.0, 0.0, 0.0, 0.0, 192.0, 0.0, 0.0, 0.0, 0.0, 0.0, 0.0, 0.0, 0.0, 0.0, 1.6541558127202702E9, 0.0, 2022-06-02 09:43:32.720
1.0, 27195.72510668339, -4123.24865141495, -60782.193932794806, -36705.8112270607, -11339.44229357747, -35215.799238181025, -5080.126831546644, -26531.922999849678, -0.046, 0.912, 0.47000000000000003, 192.0, 254.0, 144.0, 28.0, 128.0, 14.0, 176.0, 0.0, 0.0, 0.0, 1.654155813202947E9, 0.0, 2022-06-02 09:43:33.202
2.0, 27202.944720142452, -4110.061122186318, -60764.223130252736, -36689.09212220814, -11329.987505672874, -35198.23076703915, -5066.961654062468, -26490.52756911845, -0.046, 0.912, 0.47000000000000003, 192.0, 0.0, 0.0, 0.0, 0.0, 0.0, 0.0, 0.0, 0.0, 0.0, 1.654155813202954E9, 0.0, 2022-06-02 09:43:33.202
3.0, 27214.05353713674, -4096.270095857393, -60744.64300210989, -36670.11549116558, -11314.453043276435, -35180.081150541446, -5062.044270282301, -26482.995031237013, -0.046, 0.912, 0.47000000000000003, 192.0, 0.0, 0.0, 0.0, 0.0, 0.0, 0.0, 0.0, 0.0, 0.0, 1.6541558132029593E9, 0.0, 2022-06-02 09:43:33.202
4.0, 27210.656071979534, -4097.655904013623, -60747.28050795561, -36671.92598246646, -11315.10124386564, -35183.232746509646, -5064.659424383572, -26498.194217466622, -0.046, 0.912, 0.47000000000000003, 192.0, 0.0, 0.0, 0.0, 0.0, 0.0, 0.0, 0.0, 0.0, 0.0, 1.6541558132029657E9, 0.0, 2022-06-02 09:43:33.202
5.0, 27207.19155158896, -4105.680180273078, -60755.841226082, -36684.21944191688, -11317.71639796691, -35196.375572249366, -5058.535046402818, -26516.58970315334, -0.046, 0.912, 0.47000000000000003, 192.0, 0.0, 0.0, 0.0, 0.0, 0.0, 0.0, 0.0, 0.0, 0.0, 1.6541558132029707E9, 0.0, 2022-06-02 09:43:33.202
6.0, 27203.48116200938, -4116.118444933706, -60764.424295952835, -36696.40114264502, -11328.66875275001, -35207.37263052138, -5069.286235485821, -26500.272929700965, -0.046, 0.912, 0.47000000000000003, 192.0, 0.0, 0.0, 0.0, 0.0, 0.0, 0.0, 0.0, 0.0, 0.0, 1.654155813202976E9, 0.0, 2022-06-02 09:43:33.202
7.0, 27199.81547591871, -4111.804558253832, -60760.669202884346, -36688.019238474284, -11330.523947539801, -35200.33183101795, -5069.845029097203, -26498.52949363345, -0.046, 0.912, 0.47000000000000003, 192.0, 0.0, 0.0, 0.0, 0.0, 0.0, 0.0, 0.0, 0.0, 0.0, 1.654155813202981E9, 0.0, 2022-06-02 09:43:33.202
8.0, 27199.927234640985, -4105.322552361793, -60754.47776967022, -36678.787968014236, -11323.371389314103, -35193.73806640364, -5058.915026058558, -26508.297205960418, -0.044, 0.9, 0.47400000000000003, 192.0, 254.0, 160.0, 28.0, 32.0, 14.0, 208.0, 0.0, 0.0, 0.0, 1.654155813202986E9, 0.0, 2022-06-02 09:43:33.202
9.0, 27213.606502247632, -4095.3760260791814, -60746.811121322055, -36670.92015396597, -11310.899115908041, -35186.16082503329, -5052.52242714434, -26485.409019638184, -0.044, 0.9, 0.47400000000000003, 192.0, 0.0, 0.0, 0.0, 0.0, 0.0, 0.0, 0.0, 0.0, 0.0, 1.6541558132029912E9, 0.0, 2022-06-02 09:43:33.202
10.0, 27209.158505101026, -4106.551898306835, -60761.295051729096, -36685.49349135083, -11324.53368002578, -35201.09179032943, -5073.8236396102475, -26494.01444125348, -0.044, 0.9, 0.47400000000000003, 192.0, 0.0, 0.0, 0.0, 0.0, 0.0, 0.0, 0.0, 0.0, 0.0, 1.6541558132029965E9, 0.0, 2022-06-02 09:43:33.202
11.0, 27209.136153356572, -4112.206889654028, -60772.180351278825, -36693.607174588105, -11339.19642438846, -35209.40663926681, -5100.556325978795, -26521.10475553331, -0.044, 0.9, 0.47400000000000003, 192.0, 0.0, 0.0, 0.0, 0.0, 0.0, 0.0, 0.0, 0.0, 0.0, 1.6541558132030015E9, 0.0, 2022-06-02 09:43:33.203
12.0, 27214.455868536934, -4104.584944794768, -60768.6934791438, -36686.901651251515, -11340.984563944885, -35206.81383690999, -5109.631134227649, -26531.945351594135, -0.044, 0.9, 0.47400000000000003, 192.0, 0.0, 0.0, 0.0, 0.0, 0.0, 0.0, 0.0, 0.0, 0.0, 1.6541558132030065E9, 0.0, 2022-06-02 09:43:33.203
13.0, 27209.650243479045, -4099.868726714698, -60761.920900573845, -36681.60428781561, -11333.139101641073, -35206.81383690999, -5075.298854744298, -26502.083421001844, -0.044, 0.9, 0.47400000000000003, 192.0, 0.0, 0.0, 0.0, 0.0, 0.0, 0.0, 0.0, 0.0, 0.0, 1.6541558132030115E9, 0.0, 2022-06-02 09:43:33.203
14.0, 27210.879589424087, -4097.678255758078, -60754.142493503394, -36676.329276124154, -11318.543412511757, -35204.86923514238, -5071.05202329779, -26488.515912117473, -0.044, 0.9, 0.47400000000000003, 192.0, 0.0, 0.0, 0.0, 0.0, 0.0, 0.0, 0.0, 0.0, 0.0, 1.6541558132030165E9, 0.0, 2022-06-02 09:43:33.203
15.0, 27205.917502155007, -4112.184537909572, -60772.6944414013, -36689.74032279734, -11333.943764441463, -35218.6155579824, -5123.243346600932, -26521.261217744497, -0.044, 0.9, 0.47400000000000003, 192.0, 0.0, 0.0, 0.0, 0.0, 0.0, 0.0, 0.0, 0.0, 0.0, 1.6541558132030215E9, 0.0, 2022-06-02 09:43:33.203
16.0, 27210.320795812702, -4114.084436188274, -60779.6458339269, -36690.96966874238, -11346.684258780988, -35221.27541557258, -5142.823474743781, -26516.902627575713, -0.044, 0.9, 0.47400000000000003, 192.0, 0.0, 0.0, 0.0, 0.0, 0.0, 0.0, 0.0, 0.0, 0.0, 1.6541558132030268E9, 0.0, 2022-06-02 09:43:33.203
17.0, 27211.52779001329, -4102.2380116269605, -60760.8927203289, -36674.2058604009, -11331.149796384549, -35206.92559563227, -5077.802250123293, -26491.421638896663, -0.044, 0.9, 0.47400000000000003, 192.0, 0.0, 0.0, 0.0, 0.0, 0.0, 0.0, 0.0, 0.0, 0.0, 1.654155813203032E9, 0.0, 2022-06-02 09:43:33.203
18.0, 27212.064231880217, -4092.291485344349, -60740.39617066338, -36659.81133697168, -11304.707682693921, -35198.36487750588, -5020.939412228991, -26503.133952991244, -0.04, 0.902, 0.47600000000000003, 192.0, 254.0, 192.0, 28.0, 48.0, 14.0, 224.0, 0.0, 0.0, 0.0, 1.6541558132030368E9, 0.0, 2022-06-02 09:43:33.203
19.0, 27218.076851138696, -4090.5033457879244, -60740.32911543002, -36661.532421294745, -11300.28203729177, -35202.56700546348, -5042.128865972622, -26500.76466807898, -0.04, 0.902, 0.47600000000000003, 192.0, 0.0, 0.0, 0.0, 0.0, 0.0, 0.0, 0.0, 0.0, 0.0, 1.654155813203042E9, 0.0, 2022-06-02 09:43:33.203
20.0, 27217.38394706058, -4100.315761603804, -60752.622574880435, -36674.16115691199, -11312.19551708645, -35217.07328761498, -5062.759526104871, -26512.566389151383, -0.04, 0.902, 0.47600000000000003, 192.0, 0.0, 0.0, 0.0, 0.0, 0.0, 0.0, 0.0, 0.0, 0.0, 1.6541558132030473E9, 0.0, 2022-06-02 09:43:33.203
21.0, 27217.38394706058, -4102.57328779379, -60755.10361851497, -36676.619848802075, -11320.130386368082, -35217.45326727072, -5075.38826172212, -26521.372976466773, -0.04, 0.902, 0.47600000000000003, 192.0, 0.0, 0.0, 0.0, 0.0, 0.0, 0.0, 0.0, 0.0, 0.0, 1.654155813203052E9, 0.0, 2022-06-02 09:43:33.203
22.0, 27200.463676507912, -4116.274907144893, -60763.1949500078, -36686.67813380696, -11336.000124931352, -35225.32108131899, -5083.367834492664, -26518.221380498577, -0.04, 0.902, 0.47600000000000003, 192.0, 0.0, 0.0, 0.0, 0.0, 0.0, 0.0, 0.0, 0.0, 0.0, 1.6541558132030652E9, 0.0, 2022-06-02 09:43:33.203
23.0, 27201.067173608208, -4110.016418697407, -60753.5389964031, -36675.77048251277, -11325.226584103893, -35212.9605666352, -5071.923741331547, -26497.00957501049, -0.04, 0.902, 0.47600000000000003, 192.0, 0.0, 0.0, 0.0, 0.0, 0.0, 0.0, 0.0, 0.0, 0.0, 1.6541558132030704E9, 0.0, 2022-06-02 09:43:33.203
24.0, 27205.96220564392, -4108.205927396528, -60750.521510901635, -36671.88127897755, -11318.521060767302, -35206.92559563227, -5063.05009878279, -26493.232130197543, -0.04, 0.902, 0.47600000000000003, 192.0, 0.0, 0.0, 0.0, 0.0, 0.0, 0.0, 0.0, 0.0, 0.0, 1.6541558132030752E9, 0.0, 2022-06-02 09:43:33.203
25.0, 27226.257589609337, -4095.7336539904663, -60739.54680437408, -36662.31473235068, -11307.412243773013, -35197.31434551649, -5055.003470778879, -26484.626708582247, -0.04, 0.902, 0.47600000000000003, 192.0, 0.0, 0.0, 0.0, 0.0, 0.0, 0.0, 0.0, 0.0, 0.0, 1.6541558132030804E9, 0.0, 2022-06-02 09:43:33.203
26.0, 27221.80959246273, -4104.741407005955, -60753.516644658645, -36673.825880745164, -11321.069159635206, -35207.35027877692, -5073.778936121337, -26501.63638611274, -0.04, 0.902, 0.47600000000000003, 192.0, 0.0, 0.0, 0.0, 0.0, 0.0, 0.0, 0.0, 0.0, 0.0, 1.6541558132030857E9, 0.0, 2022-06-02 09:43:33.203
27.0, 27204.75521144333, -4113.078607687785, -60762.7926186076, -36682.699523293915, -11335.396627831058, -35212.20060732372, -5087.413500239075, -26515.896799075224, -0.03, 0.904, 0.482, 192.0, 255.0, 16.0, 28.0, 64.0, 15.0, 16.0, 0.0, 0.0, 0.0, 1.6541558132030904E9, 0.0, 2022-06-02 09:43:33.203
28.0, 27211.214865590915, -4101.790976737854, -60748.621612622934, -36668.61792428707, -11318.14108111156, -35195.7050199157, -5056.657499868572, -26488.47120862856, -0.03, 0.904, 0.482, 192.0, 0.0, 0.0, 0.0, 0.0, 0.0, 0.0, 0.0, 0.0, 0.0, 1.6541558132030957E9, 0.0, 2022-06-02 09:43:33.203
29.0, 27211.237217335372, -4103.400302338637, -60750.655621368365, -36670.808395243694, -11314.341284554159, -35197.202586794214, -5043.224101450933, -26480.066952713365, -0.03, 0.904, 0.482, 192.0, 0.0, 0.0, 0.0, 0.0, 0.0, 0.0, 0.0, 0.0, 0.0, 1.6541558132031016E9, 0.0, 2022-06-02 09:43:33.203
30.0, 27218.747403472353, -4101.992142437952, -60753.13666500291, -36671.83657548864, -11311.815537430708, -35195.235633282144, -5048.253243953377, -26472.28854564292, -0.03, 0.904, 0.482, 192.0, 0.0, 0.0, 0.0, 0.0, 0.0, 0.0, 0.0, 0.0, 0.0, 1.654155813203107E9, 0.0, 2022-06-02 09:43:33.203
31.0, 27223.933008185984, -4103.400302338637, -60757.517606916146, -36673.24473538932, -11318.275191578292, -35198.58839495044, -5059.004433036379, -26488.515912117473, -0.03, 0.904, 0.482, 192.0, 0.0, 0.0, 0.0, 0.0, 0.0, 0.0, 0.0, 0.0, 0.0, 1.6541558132031121E9, 0.0, 2022-06-02 09:43:33.203
32.0, 27210.879589424087, -4110.284639630871, -60759.8421883395, -36677.26804939128, -11330.456892306434, -35202.231729296655, -5068.794497107804, -26510.979415295056, -0.03, 0.904, 0.482, 192.0, 0.0, 0.0, 0.0, 0.0, 0.0, 0.0, 0.0, 0.0, 0.0, 1.6541558132031171E9, 0.0, 2022-06-02 09:43:33.203
33.0, 27200.754249185833, -4115.537299577868, -60757.584662149515, -36675.993999957325, -11331.462720806923, -35195.168578048775, -5069.085069785723, -26501.0552407569, -0.03, 0.904, 0.482, 192.0, 0.0, 0.0, 0.0, 0.0, 0.0, 0.0, 0.0, 0.0, 0.0, 1.6541558132031224E9, 0.0, 2022-06-02 09:43:33.203
34.0, 27208.555008000734, -4106.618953540201, -60751.92967080232, -36669.06495917618, -11321.38208405758, -35191.03350532454, -5054.422325423041, -26499.177694222653, -0.03, 0.904, 0.482, 192.0, 0.0, 0.0, 0.0, 0.0, 0.0, 0.0, 0.0, 0.0, 0.0, 1.6541558132031274E9, 0.0, 2022-06-02 09:43:33.203
35.0, 27209.203208589937, -4108.34003786326, -60758.009345294166, -36672.708293522395, -11319.303371823236, -35196.308517016, -5058.5573981472735, -26481.564519591873, -0.03, 0.904, 0.482, 192.0, 0.0, 0.0, 0.0, 0.0, 0.0, 0.0, 0.0, 0.0, 0.0, 1.654155813203133E9, 0.0, 2022-06-02 09:43:33.203
36.0, 27193.758153171322, -4127.33902065027, -60779.28820601562, -36692.154311198516, -11344.158511657539, -35213.25113931312, -5089.9615991069795, -26499.177694222653, -0.03, 0.904, 0.482, 192.0, 0.0, 0.0, 0.0, 0.0, 0.0, 0.0, 0.0, 0.0, 0.0, 1.654155813203138E9, 0.0, 2022-06-02 09:43:33.203
37.0, 27187.991403101852, -4125.439122371569, -60780.2493310272, -36695.55177635572, -11353.00980246184, -35217.29680505953, -5101.495099245918, -26537.44388073014, -0.024, 0.9, 0.48, 192.0, 255.0, 64.0, 28.0, 32.0, 15.0, 0.0, 0.0, 0.0, 0.0, 1.6541558132031436E9, 0.0, 2022-06-02 09:43:33.203
38.0, 27196.462714250414, -4111.245764642449, -60763.93255757482, -36677.513918580284, -11336.983601687385, -35195.660316426794, -5086.8547066276915, -26506.86669431528, -0.024, 0.9, 0.48, 192.0, 0.0, 0.0, 0.0, 0.0, 0.0, 0.0, 0.0, 0.0, 0.0, 1.6541558132031488E9, 0.0, 2022-06-02 09:43:33.203
39.0, 27203.7717346873, -4106.9989331959405, -60757.49525517169, -36668.997903942814, -11313.804842687232, -35186.47374945566, -5052.053040510779, -26486.43719988313, -0.024, 0.9, 0.48, 192.0, 0.0, 0.0, 0.0, 0.0, 0.0, 0.0, 0.0, 0.0, 0.0, 1.6541558132031538E9, 0.0, 2022-06-02 09:43:33.203
40.0, 27212.220694091404, -4107.378912851681, -60763.239653496705, -36676.329276124154, -11306.741691439354, -35195.950889104715, -5057.886845813614, -26513.795735096424, -0.024, 0.9, 0.48, 192.0, 0.0, 0.0, 0.0, 0.0, 0.0, 0.0, 0.0, 0.0, 0.0, 1.6541558132031589E9, 0.0, 2022-06-02 09:43:33.203
41.0, 27200.03899336326, -4122.801616525843, -60782.90918861738, -36695.50707286681, -11325.85243294864, -35215.9109969033, -5082.987854836923, -26525.64215965774, -0.024, 0.9, 0.48, 192.0, 0.0, 0.0, 0.0, 0.0, 0.0, 0.0, 0.0, 0.0, 0.0, 1.654155813203164E9, 0.0, 2022-06-02 09:43:33.203
42.0, 27191.925310125986, -4123.360410137226, -60785.546694463104, -36694.90357576652, -11339.017610432818, -35218.459095771206, -5095.281314287343, -26525.843325357837, -0.024, 0.9, 0.48, 192.0, 0.0, 0.0, 0.0, 0.0, 0.0, 0.0, 0.0, 0.0, 0.0, 1.654155813203169E9, 0.0, 2022-06-02 09:43:33.203
43.0, 27203.14588584255, -4102.863860471709, -60766.43595295381, -36673.08827317814, -11324.690142236966, -35198.99072635063, -5078.9868925794235, -26508.34190944933, -0.024, 0.9, 0.48, 192.0, 0.0, 0.0, 0.0, 0.0, 0.0, 0.0, 0.0, 0.0, 0.0, 1.6541558132031767E9, 0.0, 2022-06-02 09:43:33.203
44.0, 27213.04770863625, -4094.616066767701, -60756.668240626845, -36663.2535056178, -11308.865107162608, -35191.97227859167, -5059.071488269745, -26476.736542789527, -0.024, 0.9, 0.48, 192.0, 0.0, 0.0, 0.0, 0.0, 0.0, 0.0, 0.0, 0.0, 0.0, 1.6541558132031817E9, 0.0, 2022-06-02 09:43:33.203
45.0, 27209.404374290036, -4105.456662828525, -60769.29697624409, -36677.513918580284, -11321.627953246589, -35208.13258983286, -5090.073357829257, -26517.930807820656, -0.024, 0.9, 0.48, 192.0, 0.0, 0.0, 0.0, 0.0, 0.0, 0.0, 0.0, 0.0, 0.0, 1.6541558132031868E9, 0.0, 2022-06-02 09:43:33.203
46.0, 27209.650243479045, -4112.341000120759, -60777.12008680345, -36684.800587272715, -11335.15075864205, -35217.49797075963, -5102.076244601756, -26532.101813805322, -0.024, 0.9, 0.48, 192.0, 0.0, 0.0, 0.0, 0.0, 0.0, 0.0, 0.0, 0.0, 0.0, 1.654155813203192E9, 0.0, 2022-06-02 09:43:33.203
47.0, 27201.737725941864, -4116.319610633804, -60773.96849083525, -36684.01827621678, -11333.317915596714, -35217.43091552626, -5068.749793618893, -26518.44489794313, -0.03, 0.904, 0.47600000000000003, 192.0, 255.0, 16.0, 28.0, 64.0, 14.0, 224.0, 0.0, 0.0, 0.0, 1.654155813203197E9, 0.0, 2022-06-02 09:43:33.203
48.0, 27199.502551496334, -4107.043636684852, -60760.19981625078, -36668.68497952044, -11323.438444547468, -35196.93436586075, -5070.470877941952, -26519.92011307718, -0.03, 0.904, 0.47600000000000003, 192.0, 0.0, 0.0, 0.0, 0.0, 0.0, 0.0, 0.0, 0.0, 0.0, 1.654155813203202E9, 0.0, 2022-06-02 09:43:33.203
49.0, 27213.18181910298, -4094.7278254899775, -60747.68283935581, -36657.71027299288, -11303.366578026602, -35182.36102847588, -5058.222121980443, -26493.09801973081, -0.03, 0.904, 0.47600000000000003, 192.0, 0.0, 0.0, 0.0, 0.0, 0.0, 0.0, 0.0, 0.0, 0.0, 1.6541558132032073E9, 0.0, 2022-06-02 09:43:33.203
50.0, 27210.29844406825, -4100.807499981821, -60756.601185393476, -36669.17671789846, -11304.90884839402, -35193.26867977007, -5054.757601589871, -26465.515967072963, -0.03, 0.904, 0.47600000000000003, 192.0, 0.0, 0.0, 0.0, 0.0, 0.0, 0.0, 0.0, 0.0, 0.0, 1.6541558132032123E9, 0.0, 2022-06-02 09:43:33.203
51.0, 27203.615272476112, -4111.0445989423515, -60765.9442145758, -36677.379808113554, -11317.33641831117, -35201.896453129826, -5068.90625583008, -26487.554787105895, -0.03, 0.904, 0.47600000000000003, 192.0, 0.0, 0.0, 0.0, 0.0, 0.0, 0.0, 0.0, 0.0, 0.0, 1.6541558132032173E9, 0.0, 2022-06-02 09:43:33.203
52.0, 27206.47629576639, -4105.9931046954525, -60757.83053133852, -36665.68984576343, -11319.728054967887, -35192.08403731394, -5068.90625583008, -26500.09411574532, -0.03, 0.904, 0.47600000000000003, 192.0, 0.0, 0.0, 0.0, 0.0, 0.0, 0.0, 0.0, 0.0, 0.0, 1.6541558132032225E9, 0.0, 2022-06-02 09:43:33.203
53.0, 27205.38106028808, -4101.902735460131, -60752.6896301138, -36658.514935793275, -11317.112900866618, -35182.69630464272, -5064.972348805946, -26490.795790051914, -0.03, 0.904, 0.47600000000000003, 192.0, 0.0, 0.0, 0.0, 0.0, 0.0, 0.0, 0.0, 0.0, 0.0, 1.6541558132032275E9, 0.0, 2022-06-02 09:43:33.203
54.0, 27209.89611266805, -4100.136947648161, -60753.36018244746, -36660.23602011633, -11309.379197285081, -35185.42321746626, -5065.4864389284185, -26516.38853745324, -0.03, 0.904, 0.47600000000000003, 192.0, 0.0, 0.0, 0.0, 0.0, 0.0, 0.0, 0.0, 0.0, 0.0, 1.6541558132032325E9, 0.0, 2022-06-02 09:43:33.203
55.0, 27210.790182446264, -4108.496500074447, -60764.60310990848, -36672.17185165547, -11307.747519939843, -35199.19189205073, -5064.949997061491, -26511.605264139806, -0.03, 0.904, 0.47600000000000003, 192.0, 0.0, 0.0, 0.0, 0.0, 0.0, 0.0, 0.0, 0.0, 0.0, 1.6541558132032375E9, 0.0, 2022-06-02 09:43:33.203
56.0, 27202.609443975623, -4122.086360703273, -60779.89170311591, -36683.28066864976, -11325.159528870527, -35209.60780496691, -5088.396976995108, -26476.982411978533, -0.03, 0.904, 0.47600000000000003, 192.0, 0.0, 0.0, 0.0, 0.0, 0.0, 0.0, 0.0, 0.0, 0.0, 1.6541558132032433E9, 0.0, 2022-06-02 09:43:33.203
57.0, 27203.81643817621, -4108.898831474642, -60763.28435698561, -36667.612095786586, -11322.656133491533, -35198.16371180579, -5088.508735717384, -26505.659700114695, -0.026000000000000002, 0.914, 0.482, 192.0, 255.0, 48.0, 28.0, 144.0, 15.0, 16.0, 0.0, 0.0, 0.0, 1.6541558132032485E9, 0.0, 2022-06-02 09:43:33.203
58.0, 27211.52779001329, -4095.3760260791814, -60745.04533351008, -36652.92699967945, -11300.594961714145, -35181.77988312005, -5042.620604350639, -26512.365223451285, -0.026000000000000002, 0.914, 0.482, 192.0, 0.0, 0.0, 0.0, 0.0, 0.0, 0.0, 0.0, 0.0, 0.0, 1.6541558132032535E9, 0.0, 2022-06-02 09:43:33.203
59.0, 27218.00979590533, -4091.062139399307, -60740.57498461902, -36646.95908390988, -11288.65913017501, -35172.97329580466, -5033.635203079606, -26456.82113847985, -0.026000000000000002, 0.914, 0.482, 192.0, 0.0, 0.0, 0.0, 0.0, 0.0, 0.0, 0.0, 0.0, 0.0, 1.6541558132032588E9, 0.0, 2022-06-02 09:43:33.203
60.0, 27214.880551681585, -4099.8910784591535, -60752.86844406944, -36654.178697368945, -11295.94579886744, -35179.83528135244, -5042.754714817371, -26467.594679307305, -0.026000000000000002, 0.914, 0.482, 192.0, 0.0, 0.0, 0.0, 0.0, 0.0, 0.0, 0.0, 0.0, 0.0, 1.654155813203264E9, 0.0, 2022-06-02 09:43:33.203
61.0, 27208.555008000734, -4113.927973977086, -60768.78288612162, -36670.22724988786, -11315.414168288013, -35195.190929793236, -5067.8333720962255, -26500.407040167695, -0.026000000000000002, 0.914, 0.482, 192.0, 0.0, 0.0, 0.0, 0.0, 0.0, 0.0, 0.0, 0.0, 0.0, 1.6541558132032695E9, 0.0, 2022-06-02 09:43:33.203
62.0, 27204.107010854128, -4114.285601888371, -60767.21826400975, -36670.42841558796, -11317.537584011268, -35195.41444723779, -5064.48061042793, -26505.793810581425, -0.026000000000000002, 0.914, 0.482, 192.0, 0.0, 0.0, 0.0, 0.0, 0.0, 0.0, 0.0, 0.0, 0.0, 1.6541558132032745E9, 0.0, 2022-06-02 09:43:33.203
63.0, 27208.018566133807, -4100.33811334826, -60754.723638859236, -36656.21270611438, -11302.919543137497, -35181.84693835342, -5045.883959041114, -26487.778304550448, -0.026000000000000002, 0.914, 0.482, 192.0, 0.0, 0.0, 0.0, 0.0, 0.0, 0.0, 0.0, 0.0, 0.0, 1.65415581320328E9, 0.0, 2022-06-02 09:43:33.203
64.0, 27202.832961420176, -4105.9931046954525, -60765.43012445333, -36664.192278884926, -11303.746557682343, -35186.89843260031, -5049.370831176142, -26502.932787291145, -0.026000000000000002, 0.914, 0.482, 192.0, 0.0, 0.0, 0.0, 0.0, 0.0, 0.0, 0.0, 0.0, 0.0, 1.654155813203288E9, 0.0, 2022-06-02 09:43:33.203
65.0, 27198.60848171812, -4119.091226946262, -60786.28430203013, -36683.43713086094, -11318.006970644828, -35202.365839763384, -5072.638997154117, -26533.48762196155, -0.026000000000000002, 0.914, 0.482, 192.0, 0.0, 0.0, 0.0, 0.0, 0.0, 0.0, 0.0, 0.0, 0.0, 1.654155813203293E9, 0.0, 2022-06-02 09:43:33.203
66.0, 27196.127438083582, -4127.6742968171, -60797.773098680154, -36695.35061065562, -11329.026380661295, -35217.1626945928, -5077.891657101114, -26524.569275923885, -0.026000000000000002, 0.914, 0.482, 192.0, 0.0, 0.0, 0.0, 0.0, 0.0, 0.0, 0.0, 0.0, 0.0, 1.654155813203298E9, 0.0, 2022-06-02 09:43:33.203
67.0, 27196.127438083582, -4119.828834513287, -60789.391194509415, -36685.851119262115, -11326.38887481557, -35206.277395043064, -5075.7011861444935, -26489.43233364014, -0.02, 0.904, 0.482, 192.0, 255.0, 96.0, 28.0, 64.0, 15.0, 16.0, 0.0, 0.0, 0.0, 1.654155813203303E9, 0.0, 2022-06-02 09:43:33.203
68.0, 27202.587092231166, -4107.155395407128, -60775.6448716694, -36668.68497952044, -11315.19065084346, -35189.11125530139, -5073.108383787678, -26505.391479181228, -0.02, 0.904, 0.482, 192.0, 0.0, 0.0, 0.0, 0.0, 0.0, 0.0, 0.0, 0.0, 0.0, 1.654155813203308E9, 0.0, 2022-06-02 09:43:33.203
69.0, 27206.230426577382, -4106.015456439907, -60774.773153635644, -36666.80743298619, -11306.09349085015, -35189.67004891277, -5065.374680206141, -26495.48965638753, -0.02, 0.904, 0.482, 192.0, 0.0, 0.0, 0.0, 0.0, 0.0, 0.0, 0.0, 0.0, 0.0, 1.654155813203313E9, 0.0, 2022-06-02 09:43:33.203
70.0, 27208.733821956375, -4110.172880908594, -60778.617653681955, -36671.32248536617, -11299.164450069005, -35194.96741234868, -5061.0831452707225, -26476.937708489622, -0.02, 0.904, 0.482, 192.0, 0.0, 0.0, 0.0, 0.0, 0.0, 0.0, 0.0, 0.0, 0.0, 1.6541558132033186E9, 0.0, 2022-06-02 09:43:33.203
71.0, 27201.91653989751, -4122.242822914461, -60792.07340384405, -36683.03479946075, -11316.487052021868, -35201.71763917418, -5089.045177584312, -26525.731566635557, -0.02, 0.904, 0.482, 192.0, 0.0, 0.0, 0.0, 0.0, 0.0, 0.0, 0.0, 0.0, 0.0, 1.6541558132033236E9, 0.0, 2022-06-02 09:43:33.203
72.0, 27203.503513753836, -4116.3866658671695, -60788.16184856437, -36681.11254943759, -11325.539508526268, -35196.7555519051, -5086.228857782943, -26534.404043484217, -0.02, 0.904, 0.482, 192.0, 0.0, 0.0, 0.0, 0.0, 0.0, 0.0, 0.0, 0.0, 0.0, 1.6541558132033288E9, 0.0, 2022-06-02 09:43:33.203
73.0, 27210.209037090426, -4103.042674427352, -60770.14634253339, -36666.51686030828, -11307.836926917664, -35184.79736862151, -5055.942244046002, -26508.855999571802, -0.02, 0.904, 0.482, 192.0, 0.0, 0.0, 0.0, 0.0, 0.0, 0.0, 0.0, 0.0, 0.0, 1.6541558132033339E9, 0.0, 2022-06-02 09:43:33.203
74.0, 27204.19641783195, -4108.943534963552, -60772.02388906764, -36669.713159765386, -11302.76308092631, -35186.496101200115, -5050.846046310192, -26453.870708211747, -0.02, 0.904, 0.482, 192.0, 0.0, 0.0, 0.0, 0.0, 0.0, 0.0, 0.0, 0.0, 0.0, 1.6541558132033389E9, 0.0, 2022-06-02 09:43:33.203
75.0, 27204.934025398976, -4114.0397326993625, -60775.77898213613, -36677.22334590237, -11304.595923971645, -35195.81677863798, -5058.0880115137115, -26481.609223080784, -0.02, 0.904, 0.482, 192.0, 0.0, 0.0, 0.0, 0.0, 0.0, 0.0, 0.0, 0.0, 0.0, 1.654155813203344E9, 0.0, 2022-06-02 09:43:33.203
76.0, 27201.08952535266, -4125.10384620474, -60787.55835146408, -36690.813206531195, -11320.95740091293, -35210.52422648957, -5084.664235671072, -26523.40698521221, -0.02, 0.904, 0.482, 192.0, 0.0, 0.0, 0.0, 0.0, 0.0, 0.0, 0.0, 0.0, 0.0, 1.654155813203349E9, 0.0, 2022-06-02 09:43:33.203
77.0, 27203.369403287103, -4115.827872255787, -60776.114258302965, -36679.771444770275, -11320.71153172392, -35199.41540949528, -5084.105442059689, -26508.58777863834, -0.016, 0.902, 0.486, 192.0, 255.0, 128.0, 28.0, 48.0, 15.0, 48.0, 0.0, 0.0, 0.0, 1.654155813203354E9, 0.0, 2022-06-02 09:43:33.203
78.0, 27203.81643817621, -4104.495537816946, -60765.69834538679, -36667.053302175205, -11311.100281608138, -35187.39017097833, -5054.221159722943, -26508.81129608289, -0.016, 0.902, 0.486, 192.0, 0.0, 0.0, 0.0, 0.0, 0.0, 0.0, 0.0, 0.0, 0.0, 1.6541558132033591E9, 0.0, 2022-06-02 09:43:33.203
79.0, 27206.61040623312, -4102.014494182407, -60764.35724071947, -36663.655837018, -11302.070176848196, -35183.858595354395, -5044.453447395975, -26503.536284391437, -0.016, 0.902, 0.486, 192.0, 0.0, 0.0, 0.0, 0.0, 0.0, 0.0, 0.0, 0.0, 0.0, 1.6541558132033641E9, 0.0, 2022-06-02 09:43:33.203
80.0, 27204.934025398976, -4113.950325721541, -60774.46022921327, -36675.34579936812, -11305.847621661142, -35200.5106449736, -5061.61958713765, -26495.24378719852, -0.016, 0.902, 0.486, 192.0, 0.0, 0.0, 0.0, 0.0, 0.0, 0.0, 0.0, 0.0, 0.0, 1.6541558132033691E9, 0.0, 2022-06-02 09:43:33.203
81.0, 27198.80964741822, -4127.853110772742, -60789.57000846506, -36689.82972977516, -11325.450101548446, -35216.44743877023, -5086.0276920828455, -26508.498371660517, -0.016, 0.902, 0.486, 192.0, 0.0, 0.0, 0.0, 0.0, 0.0, 0.0, 0.0, 0.0, 0.0, 1.6541558132033744E9, 0.0, 2022-06-02 09:43:33.203
82.0, 27192.417048504, -4124.7238665489995, -60789.43589799832, -36688.578032085665, -11330.702761495444, -35215.44161026974, -5087.882886872636, -26539.053206330922, -0.016, 0.902, 0.486, 192.0, 0.0, 0.0, 0.0, 0.0, 0.0, 0.0, 0.0, 0.0, 0.0, 1.6541558132033794E9, 0.0, 2022-06-02 09:43:33.203
83.0, 27199.033164862773, -4110.1058256752285, -60774.75080189119, -36673.22238364487, -11314.184822342972, -35197.11317981639, -5065.508790672874, -26505.592644881326, -0.016, 0.902, 0.486, 192.0, 0.0, 0.0, 0.0, 0.0, 0.0, 0.0, 0.0, 0.0, 0.0, 1.6541558132033844E9, 0.0, 2022-06-02 09:43:33.203
84.0, 27213.897074925553, -4102.2380116269605, -60763.61963315245, -36661.82299397266, -11304.104185593627, -35184.21622326568, -5057.28334871332, -26458.743388503004, -0.016, 0.902, 0.486, 192.0, 0.0, 0.0, 0.0, 0.0, 0.0, 0.0, 0.0, 0.0, 0.0, 1.6541558132033896E9, 0.0, 2022-06-02 09:43:33.203
85.0, 27213.42768829199, -4108.541203563357, -60771.286281500616, -36669.06495917618, -11309.893287407553, -35192.240499525135, -5074.248322754899, -26487.554787105895, -0.016, 0.902, 0.486, 192.0, 0.0, 0.0, 0.0, 0.0, 0.0, 0.0, 0.0, 0.0, 0.0, 1.6541558132033944E9, 0.0, 2022-06-02 09:43:33.203
86.0, 27200.553083485735, -4128.970697995508, -60797.19195332432, -36691.59551758713, -11335.95542144244, -35213.96639513569, -5107.083035359745, -26520.68007238866, -0.016, 0.902, 0.486, 192.0, 0.0, 0.0, 0.0, 0.0, 0.0, 0.0, 0.0, 0.0, 0.0, 1.6541558132034016E9, 0.0, 2022-06-02 09:43:33.203
87.0, 27200.083696852173, -4123.203947926038, -60791.067575343564, -36685.62760181756, -11332.177976629493, -35208.22199681068, -5085.066567071267, -26508.185447238142, -0.016, 0.908, 0.49, 192.0, 255.0, 128.0, 28.0, 96.0, 15.0, 80.0, 0.0, 0.0, 0.0, 1.6541558132034068E9, 0.0, 2022-06-02 09:43:33.203
88.0, 27213.941778414464, -4100.092244159251, -60765.92186283134, -36659.61017127158, -11306.831098417175, -35182.025752309055, -5059.138543503112, -26477.34003988982, -0.016, 0.908, 0.49, 192.0, 0.0, 0.0, 0.0, 0.0, 0.0, 0.0, 0.0, 0.0, 0.0, 1.6541558132034116E9, 0.0, 2022-06-02 09:43:33.203
89.0, 27204.53169399878, -4106.104863417729, -60770.95100533379, -36665.712197507884, -11307.792223428754, -35189.33477274594, -5070.537933175317, -26483.33030740384, -0.016, 0.908, 0.49, 192.0, 0.0, 0.0, 0.0, 0.0, 0.0, 0.0, 0.0, 0.0, 0.0, 1.6541558132034168E9, 0.0, 2022-06-02 09:43:33.203
90.0, 27203.011775375817, -4114.307953632826, -60776.15896179187, -36675.010523201294, -11302.360749526115, -35201.807046152004, -5070.359119219675, -26516.410889197698, -0.016, 0.908, 0.49, 192.0, 0.0, 0.0, 0.0, 0.0, 0.0, 0.0, 0.0, 0.0, 0.0, 1.654155813203422E9, 0.0, 2022-06-02 09:43:33.203
91.0, 27189.399563002535, -4136.279718432394, -60800.589418481526, -36700.469160135886, -11319.973924156897, -35224.896398174336, -5087.86053512818, -26530.604246926814, -0.016, 0.908, 0.49, 192.0, 0.0, 0.0, 0.0, 0.0, 0.0, 0.0, 0.0, 0.0, 0.0, 1.654155813203427E9, 0.0, 2022-06-02 09:43:33.203
92.0, 27184.884510622564, -4136.883215532686, -60797.5495812356, -36692.981325743356, -11319.728054967887, -35214.2122643247, -5079.009244323879, -26514.39923219672, -0.016, 0.908, 0.49, 192.0, 0.0, 0.0, 0.0, 0.0, 0.0, 0.0, 0.0, 0.0, 0.0, 1.654155813203432E9, 0.0, 2022-06-02 09:43:33.203
93.0, 27196.462714250414, -4120.164110680117, -60777.83534262602, -36671.97068595537, -11302.964246626407, -35194.58743269294, -5065.732308117426, -26484.850226026803, -0.016, 0.908, 0.49, 192.0, 0.0, 0.0, 0.0, 0.0, 0.0, 0.0, 0.0, 0.0, 0.0, 1.654155813203437E9, 0.0, 2022-06-02 09:43:33.203
94.0, 27214.209999347928, -4102.95326744953, -60767.10650528748, -36661.91240095048, -11289.776717397775, -35188.954793090204, -5048.297947442287, -26476.557728833883, -0.016, 0.908, 0.49, 192.0, 0.0, 0.0, 0.0, 0.0, 0.0, 0.0, 0.0, 0.0, 0.0, 1.654155813203442E9, 0.0, 2022-06-02 09:43:33.203
95.0, 27206.453944021934, -4117.124273434195, -60785.70315667429, -36677.469215091376, -11302.450156503935, -35206.836188654444, -5079.970369335458, -26487.644194083714, -0.016, 0.908, 0.49, 192.0, 0.0, 0.0, 0.0, 0.0, 0.0, 0.0, 0.0, 0.0, 0.0, 1.654155813203452E9, 0.0, 2022-06-02 09:43:33.203
96.0, 27194.29459503825, -4129.507139862435, -60800.7011772038, -36687.661610562995, -11321.180918357482, -35213.67582245777, -5103.149128335611, -26505.570293136872, -0.016, 0.908, 0.49, 192.0, 0.0, 0.0, 0.0, 0.0, 0.0, 0.0, 0.0, 0.0, 0.0, 1.6541558132034588E9, 0.0, 2022-06-02 09:43:33.203
97.0, 27193.132304326573, -4127.897814261653, -60800.18708708133, -36685.918174495484, -11329.987505672874, -35210.99361312314, -5098.7681864223705, -26516.299130475418, -0.012, 0.904, 0.492, 192.0, 255.0, 160.0, 28.0, 64.0, 15.0, 96.0, 0.0, 0.0, 0.0, 1.6541558132034683E9, 0.0, 2022-06-02 09:43:33.203
98.0, 27206.543350999757, -4108.2282791409825, -60782.7974298951, -36667.187412641935, -11311.659075219522, -35193.805121637, -5059.362060947664, -26517.260255487, -0.012, 0.904, 0.492, 192.0, 0.0, 0.0, 0.0, 0.0, 0.0, 0.0, 0.0, 0.0, 0.0, 1.654155813203476E9, 0.0, 2022-06-02 09:43:33.203
99.0, 27222.547200029756, -4087.5529155198237, -60767.66529889886, -36651.96587466787, -11287.541542952245, -35182.42808370925, -5039.781932804815, -26488.24769118401, -0.012, 0.904, 0.492, 192.0, 0.0, 0.0, 0.0, 0.0, 0.0, 0.0, 0.0, 0.0, 0.0, 1.6541558132034853E9, 0.0, 2022-06-02 09:43:33.203
100.0, 27217.316891827213, -4101.969790693497, -60784.25029328469, -36667.053302175205, -11300.729072180877, -35194.98976409314, -5074.71770938846, -26482.883272514737, -0.012, 0.904, 0.492, 192.0, 0.0, 0.0, 0.0, 0.0, 0.0, 0.0, 0.0, 0.0, 0.0, 1.6541558132034943E9, 0.0, 2022-06-02 09:43:33.203
101.0, 27212.667728980512, -4113.771511765899, -60795.78379342363, -36678.31858138068, -11319.213964845416, -35202.11997057438, -5093.761395664382, -26514.175714752164, -0.012, 0.904, 0.492, 192.0, 0.0, 0.0, 0.0, 0.0, 0.0, 0.0, 0.0, 0.0, 0.0, 1.6541558132035022E9, 0.0, 2022-06-02 09:43:33.203
102.0, 27203.078830609185, -4114.375008866192, -60792.2969212886, -36675.301095879215, -11325.897136437552, -35200.5106449736, -5089.760433406882, -26514.82391534137, -0.012, 0.904, 0.492, 192.0, 0.0, 0.0, 0.0, 0.0, 0.0, 0.0, 0.0, 0.0, 0.0, 1.6541558132035117E9, 0.0, 2022-06-02 09:43:33.203
103.0, 27210.209037090426, -4092.738520233455, -60767.35237447648, -36651.943522923415, -11303.94772338244, -35178.82945285195, -5067.967482562957, -26483.754990548492, -0.012, 0.904, 0.492, 192.0, 0.0, 0.0, 0.0, 0.0, 0.0, 0.0, 0.0, 0.0, 0.0, 1.6541558132035196E9, 0.0, 2022-06-02 09:43:33.203
104.0, 27201.91653989751, -4101.925087204586, -60771.39804022289, -36659.073729404656, -11300.796127414242, -35188.77597913456, -5069.62151165265, -26496.115505232276, -0.012, 0.904, 0.492, 192.0, 0.0, 0.0, 0.0, 0.0, 0.0, 0.0, 0.0, 0.0, 0.0, 1.654155813203528E9, 0.0, 2022-06-02 09:43:33.203
105.0, 27195.52394098329, -4119.6723723021, -60788.16184856437, -36677.89389823603, -11311.90494440853, -35207.618499710385, -5084.306607759787, -26523.854020101313, -0.012, 0.904, 0.492, 192.0, 0.0, 0.0, 0.0, 0.0, 0.0, 0.0, 0.0, 0.0, 0.0, 1.6541558132035391E9, 0.0, 2022-06-02 09:43:33.203
106.0, 27197.669708451, -4124.38859038217, -60794.68855794532, -36689.44975011942, -11325.04777014825, -35218.0120608821, -5095.907163132091, -26528.883162603757, -0.018000000000000002, 0.902, 0.492, 192.0, 255.0, 112.0, 28.0, 48.0, 15.0, 96.0, 0.0, 0.0, 0.0, 1.654155813203546E9, 0.0, 2022-06-02 09:43:33.203
107.0, 27199.591958474157, -4120.409979869125, -60788.40771775338, -36688.46627336339, -11333.76495048582, -35216.916825403794, -5107.507718504396, -26489.208816195587, -0.018000000000000002, 0.902, 0.492, 192.0, 0.0, 0.0, 0.0, 0.0, 0.0, 0.0, 0.0, 0.0, 0.0, 1.6541558132035556E9, 0.0, 2022-06-02 09:43:33.203
108.0, 27201.134228841573, -4111.491633831458, -60772.71679314576, -36675.41285460149, -11318.945743911952, -35204.1092758309, -5100.109291089689, -26496.361374421285, -0.018000000000000002, 0.902, 0.492, 192.0, 0.0, 0.0, 0.0, 0.0, 0.0, 0.0, 0.0, 0.0, 0.0, 1.6541558132035613E9, 0.0, 2022-06-02 09:43:33.203
109.0, 27214.992310403864, -4103.579116294279, -60756.75764760467, -36662.53824979523, -11301.041996603251, -35193.53690070354, -5074.695357644005, -26505.167961736675, -0.018000000000000002, 0.902, 0.492, 192.0, 0.0, 0.0, 0.0, 0.0, 0.0, 0.0, 0.0, 0.0, 0.0, 1.6541558132035663E9, 0.0, 2022-06-02 09:43:33.203
110.0, 27214.031185392283, -4115.693761789055, -60763.75374361918, -36671.814223744186, -11301.220810558892, -35204.82453165347, -5066.626377895639, -26505.86086581479, -0.018000000000000002, 0.902, 0.492, 192.0, 0.0, 0.0, 0.0, 0.0, 0.0, 0.0, 0.0, 0.0, 0.0, 1.6541558132035716E9, 0.0, 2022-06-02 09:43:33.203
111.0, 27194.316946782703, -4132.099942219251, -60780.27168277165, -36687.57220358517, -11321.695008479956, -35215.48631375865, -5102.277410301854, -26504.989147781034, -0.018000000000000002, 0.902, 0.492, 192.0, 0.0, 0.0, 0.0, 0.0, 0.0, 0.0, 0.0, 0.0, 0.0, 1.6541558132035768E9, 0.0, 2022-06-02 09:43:33.203
112.0, 27190.56185371421, -4127.160206694628, -60775.26489201366, -36682.61011631609, -11326.85826144913, -35214.458133513705, -5103.596163224717, -26542.29420927694, -0.018000000000000002, 0.902, 0.492, 192.0, 0.0, 0.0, 0.0, 0.0, 0.0, 0.0, 0.0, 0.0, 0.0, 1.6541558132035818E9, 0.0, 2022-06-02 09:43:33.203
113.0, 27206.297481810747, -4102.707398260522, -60749.627441123426, -36658.13495613753, -11301.578438470178, -35191.86051986939, -5075.075337299745, -26508.319557704875, -0.018000000000000002, 0.902, 0.492, 192.0, 0.0, 0.0, 0.0, 0.0, 0.0, 0.0, 0.0, 0.0, 0.0, 1.6541558132035868E9, 0.0, 2022-06-02 09:43:33.203
114.0, 27216.378118560093, -4092.291485344349, -60743.86069105395, -36647.67433973245, -11293.688272677455, -35176.929554573246, -5067.743965118404, -26452.10492039978, -0.018000000000000002, 0.902, 0.492, 192.0, 0.0, 0.0, 0.0, 0.0, 0.0, 0.0, 0.0, 0.0, 0.0, 1.6541558132035923E9, 0.0, 2022-06-02 09:43:33.203
115.0, 27209.873760923598, -4108.831776241276, -60760.78096160662, -36662.13591839503, -11301.533734981267, -35190.38530473534, -5066.402860451086, -26501.949310535114, -0.018000000000000002, 0.902, 0.492, 192.0, 0.0, 0.0, 0.0, 0.0, 0.0, 0.0, 0.0, 0.0, 0.0, 1.6541558132035973E9, 0.0, 2022-06-02 09:43:33.203
116.0, 27197.96028112892, -4123.427465370592, -60775.756630391676, -36680.196127914925, -11313.24604907585, -35208.44551425523, -5072.884866343125, -26530.134860293256, -0.014, 0.904, 0.488, 192.0, 255.0, 144.0, 28.0, 64.0, 15.0, 64.0, 0.0, 0.0, 0.0, 1.6541558132036023E9, 0.0, 2022-06-02 09:43:33.203
117.0, 27194.227539804884, -4122.131064192184, -60775.53311294712, -36678.96678196988, -11320.733883468376, -35208.02083111058, -5081.847915869703, -26524.993959068535, -0.014, 0.904, 0.488, 192.0, 0.0, 0.0, 0.0, 0.0, 0.0, 0.0, 0.0, 0.0, 0.0, 1.6541558132036076E9, 0.0, 2022-06-02 09:43:33.203
118.0, 27201.693022452953, -4106.261325628916, -60753.382534191915, -36660.03485441623, -11301.243162303348, -35187.2560605116, -5052.544778888796, -26504.184484980644, -0.014, 0.904, 0.488, 192.0, 0.0, 0.0, 0.0, 0.0, 0.0, 0.0, 0.0, 0.0, 0.0, 1.6541558132036128E9, 0.0, 2022-06-02 09:43:33.203
119.0, 27207.549179500245, -4101.701569760033, -60750.29799345708, -36657.41970031497, -11293.688272677455, -35182.15986277579, -5052.075392255234, -26481.765685291968, -0.014, 0.904, 0.488, 192.0, 0.0, 0.0, 0.0, 0.0, 0.0, 0.0, 0.0, 0.0, 0.0, 1.654155813203618E9, 0.0, 2022-06-02 09:43:33.203
120.0, 27210.43255453498, -4108.854127985732, -60764.781923864124, -36667.85796497559, -11304.104185593627, -35193.291031514535, -5070.470877941952, -26466.72296127355, -0.014, 0.904, 0.488, 192.0, 0.0, 0.0, 0.0, 0.0, 0.0, 0.0, 0.0, 0.0, 0.0, 1.6541558132036235E9, 0.0, 2022-06-02 09:43:33.203
121.0, 27202.29651955325, -4120.074703702296, -60780.18227579383, -36679.68203779245, -11324.019589903306, -35202.90228163031, -5093.493174730918, -26505.123258247764, -0.014, 0.904, 0.488, 192.0, 0.0, 0.0, 0.0, 0.0, 0.0, 0.0, 0.0, 0.0, 0.0, 1.6541558136821432E9, 0.0, 2022-06-02 09:43:33.682
122.0, 27186.605594945624, -4125.729695049488, -60784.04912758459, -36684.42060761698, -11338.48116856589, -35204.310441531, -5106.546593492817, -26545.95989536761, -0.014, 0.904, 0.488, 192.0, 0.0, 0.0, 0.0, 0.0, 0.0, 0.0, 0.0, 0.0, 0.0, 1.6541558136822088E9, 0.0, 2022-06-02 09:43:33.682
123.0, 27202.877664909087, -4101.120424404196, -60757.562310405054, -36661.42066257246, -11314.363636298614, -35185.40086572181, -5075.611779166673, -26519.62954039926, -0.014, 0.904, 0.488, 192.0, 0.0, 0.0, 0.0, 0.0, 0.0, 0.0, 0.0, 0.0, 0.0, 1.6541558136823637E9, 0.0, 2022-06-02 09:43:33.682
124.0, 27206.968034144407, -4095.8230609682873, -60754.924804559334, -36657.039720659224, -11306.942857139453, -35180.550537175004, -5079.344520490708, -26459.43629258112, -0.014, 0.904, 0.488, 192.0, 0.0, 0.0, 0.0, 0.0, 0.0, 0.0, 0.0, 0.0, 0.0, 1.654155813682372E9, 0.0, 2022-06-02 09:43:33.682
125.0, 27203.168237587004, -4109.345866363748, -60768.067630299054, -36669.89197372102, -11318.47635727839, -35192.799293136515, -5081.713805402971, -26486.57131034986, -0.014, 0.904, 0.488, 192.0, 0.0, 0.0, 0.0, 0.0, 0.0, 0.0, 0.0, 0.0, 0.0, 1.6541558136823833E9, 0.0, 2022-06-02 09:43:33.682
126.0, 27192.327641526183, -4125.707343305033, -60783.75855490668, -36688.17570068547, -11333.116749896617, -35211.82062766798, -5076.4611454559745, -26521.95412182261, -0.012, 0.902, 0.48, 192.0, 255.0, 160.0, 28.0, 48.0, 15.0, 0.0, 0.0, 0.0, 0.0, 1.6541558136823936E9, 0.0, 2022-06-02 09:43:33.682
127.0, 27193.62404270459, -4116.81134901182, -60772.51562744566, -36678.49739533632, -11325.271287592805, -35201.22590079616, -5079.009244323879, -26506.397307681716, -0.012, 0.902, 0.48, 192.0, 0.0, 0.0, 0.0, 0.0, 0.0, 0.0, 0.0, 0.0, 0.0, 1.6541558136824064E9, 0.0, 2022-06-02 09:43:33.682
128.0, 27204.352880043138, -4107.065988429307, -60758.009345294166, -36664.99694168531, -11318.632819489578, -35183.992705821125, -5088.598142695206, -26491.823970296857, -0.012, 0.902, 0.48, 192.0, 0.0, 0.0, 0.0, 0.0, 0.0, 0.0, 0.0, 0.0, 0.0, 1.654155813682432E9, 0.0, 2022-06-02 09:43:33.682
129.0, 27214.209999347928, -4106.663657029111, -60756.22120573774, -36666.60626728609, -11314.497746765346, -35189.75945589059, -5087.033520583334, -26527.58676142535, -0.012, 0.902, 0.48, 192.0, 0.0, 0.0, 0.0, 0.0, 0.0, 0.0, 0.0, 0.0, 0.0, 1.6541558136824377E9, 0.0, 2022-06-02 09:43:33.682
130.0, 27209.00204288984, -4111.111654175717, -60760.06570578405, -36673.87058423407, -11311.971999641895, -35199.661278684296, -5061.910159815569, -26501.882255301745, -0.012, 0.902, 0.48, 192.0, 0.0, 0.0, 0.0, 0.0, 0.0, 0.0, 0.0, 0.0, 0.0, 1.654155813682443E9, 0.0, 2022-06-02 09:43:33.682
131.0, 27208.465601022912, -4109.122348919195, -60755.50594991517, -36665.06399691868, -11310.787357185765, -35189.223014023664, -5049.504941642874, -26481.0504294694, -0.012, 0.902, 0.48, 192.0, 0.0, 0.0, 0.0, 0.0, 0.0, 0.0, 0.0, 0.0, 0.0, 1.6541558136824484E9, 0.0, 2022-06-02 09:43:33.682
132.0, 27204.95637714343, -4107.602430296234, -60751.59439463549, -36658.33612183763, -11315.414168288013, -35185.78084537755, -5062.536008660318, -26492.38276390824, -0.012, 0.902, 0.48, 192.0, 0.0, 0.0, 0.0, 0.0, 0.0, 0.0, 0.0, 0.0, 0.0, 1.6541558136824539E9, 0.0, 2022-06-02 09:43:33.682
133.0, 27200.262510807814, -4104.38377909467, -60740.954964274766, -36651.58589501213, -11306.786394928266, -35178.114197029376, -5057.372755691142, -26481.028077724946, -0.012, 0.902, 0.48, 192.0, 0.0, 0.0, 0.0, 0.0, 0.0, 0.0, 0.0, 0.0, 0.0, 1.654155813682459E9, 0.0, 2022-06-02 09:43:33.682
134.0, 27195.389830516557, -4109.412921597114, -60745.02298176563, -36658.514935793275, -11307.94868563994, -35183.568022676474, -5066.224046495444, -26483.218548681565, -0.012, 0.902, 0.48, 192.0, 0.0, 0.0, 0.0, 0.0, 0.0, 0.0, 0.0, 0.0, 0.0, 1.6541558136824663E9, 0.0, 2022-06-02 09:43:33.682
135.0, 27202.229464319884, -4110.619915797701, -60748.621612622934, -36659.54311603822, -11307.94868563994, -35183.34450523192, -5071.364947720164, -26492.2039499526, -0.012, 0.902, 0.48, 192.0, 0.0, 0.0, 0.0, 0.0, 0.0, 0.0, 0.0, 0.0, 0.0, 1.6541558136824715E9, 0.0, 2022-06-02 09:43:33.682
136.0, 27200.24015906336, -4117.236032156472, -60758.1881592498, -36669.86962197657, -11318.118729367105, -35192.62047918087, -5082.831392625737, -26517.0590897869, -0.018000000000000002, 0.906, 0.47400000000000003, 192.0, 255.0, 112.0, 28.0, 80.0, 14.0, 208.0, 0.0, 0.0, 0.0, 1.654155813682477E9, 0.0, 2022-06-02 09:43:33.682
137.0, 27201.91653989751, -4106.931877962575, -60750.34269694599, -36664.88518296304, -11316.397645044046, -35185.82554886646, -5079.612741424173, -26504.29624370292, -0.018000000000000002, 0.906, 0.47400000000000003, 192.0, 0.0, 0.0, 0.0, 0.0, 0.0, 0.0, 0.0, 0.0, 0.0, 1.6541558136824825E9, 0.0, 2022-06-02 09:43:33.682
138.0, 27207.19155158896, -4090.2798283433713, -60728.39328389088, -36645.88620017603, -11299.343264024648, -35165.93249630123, -5051.650709110583, -26466.633554295728, -0.018000000000000002, 0.906, 0.47400000000000003, 192.0, 0.0, 0.0, 0.0, 0.0, 0.0, 0.0, 0.0, 0.0, 0.0, 1.654155813682488E9, 0.0, 2022-06-02 09:43:33.682
139.0, 27208.130324856083, -4090.346883576737, -60726.58279259, -36647.29436007671, -11294.068252333194, -35169.91110681428, -5050.130790487622, -26478.256461412486, -0.018000000000000002, 0.906, 0.47400000000000003, 192.0, 0.0, 0.0, 0.0, 0.0, 0.0, 0.0, 0.0, 0.0, 0.0, 1.6541558136824937E9, 0.0, 2022-06-02 09:43:33.682
140.0, 27213.226522591893, -4096.828889468777, -60733.55653686006, -36658.33612183763, -11295.319950022693, -35183.992705821125, -5057.95390104698, -26499.91530178968, -0.018000000000000002, 0.906, 0.47400000000000003, 192.0, 0.0, 0.0, 0.0, 0.0, 0.0, 0.0, 0.0, 0.0, 0.0, 1.6541558136824996E9, 0.0, 2022-06-02 09:43:33.682
141.0, 27196.90974913952, -4121.125235691695, -60754.366010947946, -36681.60428781561, -11317.805804944732, -35208.84784565542, -5088.285218272832, -26508.610130382793, -0.018000000000000002, 0.906, 0.47400000000000003, 192.0, 0.0, 0.0, 0.0, 0.0, 0.0, 0.0, 0.0, 0.0, 0.0, 1.654155813682505E9, 0.0, 2022-06-02 09:43:33.682
142.0, 27191.23240604787, -4123.427465370592, -60755.97533654873, -36678.653857547506, -11329.786339972776, -35201.13649381835, -5110.592259239228, -26478.256461412486, -0.018000000000000002, 0.906, 0.47400000000000003, 192.0, 0.0, 0.0, 0.0, 0.0, 0.0, 0.0, 0.0, 0.0, 0.0, 1.6541558136825109E9, 0.0, 2022-06-02 09:43:33.682
143.0, 27202.028298619785, -4104.875517472687, -60731.38841764789, -36653.93282817994, -11308.373368784592, -35176.795444106516, -5062.692470871505, -26470.85803399778, -0.018000000000000002, 0.906, 0.47400000000000003, 192.0, 0.0, 0.0, 0.0, 0.0, 0.0, 0.0, 0.0, 0.0, 0.0, 1.654155813682516E9, 0.0, 2022-06-02 09:43:33.682
144.0, 27210.633720235077, -4094.6831220010667, -60719.09495819747, -36641.57231349615, -11294.448231988936, -35166.91597305727, -5043.04528749529, -26458.408112336176, -0.018000000000000002, 0.906, 0.47400000000000003, 192.0, 0.0, 0.0, 0.0, 0.0, 0.0, 0.0, 0.0, 0.0, 0.0, 1.6541558136825216E9, 0.0, 2022-06-02 09:43:33.682
145.0, 27212.064231880217, -4096.6053720242235, -60726.40397863436, -36647.13789786553, -11294.470583733391, -35176.214298750674, -5068.19100000751, -26484.984336493533, -0.018000000000000002, 0.906, 0.47400000000000003, 192.0, 0.0, 0.0, 0.0, 0.0, 0.0, 0.0, 0.0, 0.0, 0.0, 1.654155813682527E9, 0.0, 2022-06-02 09:43:33.682
146.0, 27211.125458613096, -4101.343941848748, -60739.65856309635, -36656.123299136554, -11307.792223428754, -35189.31242100149, -5095.1025003317, -26511.828781584358, -0.018000000000000002, 0.918, 0.47400000000000003, 192.0, 255.0, 112.0, 28.0, 176.0, 14.0, 208.0, 0.0, 0.0, 0.0, 1.6541558136825323E9, 0.0, 2022-06-02 09:43:33.682
147.0, 27210.164333601515, -4101.81332848231, -60741.24553695268, -36657.24088635932, -11321.873822435597, -35188.172482034264, -5093.448471242007, -26489.968775507066, -0.018000000000000002, 0.918, 0.47400000000000003, 192.0, 0.0, 0.0, 0.0, 0.0, 0.0, 0.0, 0.0, 0.0, 0.0, 1.6541558136825378E9, 0.0, 2022-06-02 09:43:33.682
148.0, 27209.53848475677, -4090.7492149769328, -60728.59444959098, -36641.63936872952, -11313.693083964954, -35169.19585099171, -5074.985930321924, -26466.633554295728, -0.018000000000000002, 0.918, 0.47400000000000003, 192.0, 0.0, 0.0, 0.0, 0.0, 0.0, 0.0, 0.0, 0.0, 0.0, 1.6541558136825435E9, 0.0, 2022-06-02 09:43:33.682
149.0, 27196.90974913952, -4099.399340081137, -60738.80919680705, -36648.72487172185, -11314.81067118772, -35177.10836852889, -5075.075337299745, -26498.842418055825, -0.018000000000000002, 0.918, 0.47400000000000003, 192.0, 0.0, 0.0, 0.0, 0.0, 0.0, 0.0, 0.0, 0.0, 0.0, 1.6541558136825497E9, 0.0, 2022-06-02 09:43:33.682
150.0, 27194.920443883, -4107.893002974153, -60752.622574880435, -36661.26420036128, -11321.180918357482, -35194.900357115315, -5064.324148216742, -26511.694671117624, -0.018000000000000002, 0.918, 0.47400000000000003, 192.0, 0.0, 0.0, 0.0, 0.0, 0.0, 0.0, 0.0, 0.0, 0.0, 1.6541558136825576E9, 0.0, 2022-06-02 09:43:33.682
151.0, 27196.015679361306, -4111.8716134871975, -60761.898548829384, -36669.82491848766, -11329.853395206143, -35205.651546198314, -5085.312436260276, -26510.778249594958, -0.018000000000000002, 0.918, 0.47400000000000003, 192.0, 0.0, 0.0, 0.0, 0.0, 0.0, 0.0, 0.0, 0.0, 0.0, 1.654155813682564E9, 0.0, 2022-06-02 09:43:33.682
152.0, 27195.456885749925, -4108.787072752366, -60759.57396740603, -36663.78994748473, -11328.556994027735, -35198.11900831688, -5089.179288051044, -26485.878406271746, -0.018000000000000002, 0.918, 0.47400000000000003, 192.0, 0.0, 0.0, 0.0, 0.0, 0.0, 0.0, 0.0, 0.0, 0.0, 1.6541558136825695E9, 0.0, 2022-06-02 09:43:33.682
153.0, 27209.694946967957, -4084.446023040536, -60731.90250777036, -36633.68214770343, -11302.696025692943, -35162.35621718839, -5050.086086998712, -26467.19234790711, -0.018000000000000002, 0.918, 0.47400000000000003, 192.0, 0.0, 0.0, 0.0, 0.0, 0.0, 0.0, 0.0, 0.0, 0.0, 1.6541558136825747E9, 0.0, 2022-06-02 09:43:33.682
154.0, 27206.029260877283, -4086.2788660858714, -60728.59444959098, -36634.397403525996, -11293.576513955179, -35161.66331311027, -5035.222176935933, -26487.308917916886, -0.018000000000000002, 0.918, 0.47400000000000003, 192.0, 0.0, 0.0, 0.0, 0.0, 0.0, 0.0, 0.0, 0.0, 0.0, 1.6541558136825805E9, 0.0, 2022-06-02 09:43:33.682
155.0, 27205.068135865706, -4092.1797266220724, -60735.67995258331, -36641.661720473974, -11292.28011277677, -35167.38535969083, -5045.928662530025, -26482.168016692165, -0.018000000000000002, 0.918, 0.47400000000000003, 192.0, 0.0, 0.0, 0.0, 0.0, 0.0, 0.0, 0.0, 0.0, 0.0, 1.6541558136825857E9, 0.0, 2022-06-02 09:43:33.682
156.0, 27190.450094991935, -4114.307953632826, -60764.82662735303, -36666.04747367471, -11317.694046222454, -35190.94409834672, -5076.617607667161, -26490.013478995977, -0.016, 0.908, 0.47200000000000003, 192.0, 255.0, 128.0, 28.0, 96.0, 14.0, 192.0, 0.0, 0.0, 0.0, 1.6541558136825912E9, 0.0, 2022-06-02 09:43:33.682
157.0, 27181.77761814328, -4121.9075467476305, -60776.22601702524, -36675.569316812675, -11329.696932994955, -35199.39305775083, -5086.8547066276915, -26516.0085577975, -0.016, 0.908, 0.47200000000000003, 192.0, 0.0, 0.0, 0.0, 0.0, 0.0, 0.0, 0.0, 0.0, 0.0, 1.6541558136825967E9, 0.0, 2022-06-02 09:43:33.682
158.0, 27184.839807133652, -4103.914392461109, -60761.898548829384, -36659.67722650495, -11316.665865977511, -35183.568022676474, -5078.025767567846, -26508.855999571802, -0.016, 0.908, 0.47200000000000003, 192.0, 0.0, 0.0, 0.0, 0.0, 0.0, 0.0, 0.0, 0.0, 0.0, 1.654155813682602E9, 0.0, 2022-06-02 09:43:33.682
159.0, 27194.67457469399, -4094.1243283896843, -60757.562310405054, -36652.703482234894, -11302.04782510374, -35177.89067958482, -5069.2415319969095, -26493.120371475266, -0.016, 0.908, 0.47200000000000003, 192.0, 0.0, 0.0, 0.0, 0.0, 0.0, 0.0, 0.0, 0.0, 0.0, 1.6541558136826074E9, 0.0, 2022-06-02 09:43:33.682
160.0, 27189.019583346795, -4113.592697810256, -60779.802296138085, -36674.049398189716, -11310.899115908041, -35199.72833391766, -5082.093785058712, -26511.940540306634, -0.016, 0.908, 0.47200000000000003, 192.0, 0.0, 0.0, 0.0, 0.0, 0.0, 0.0, 0.0, 0.0, 0.0, 1.654155813682613E9, 0.0, 2022-06-02 09:43:33.682
161.0, 27185.309193767214, -4124.589756082268, -60794.3979852674, -36689.136825697045, -11325.315991081714, -35215.799238181025, -5103.171480080066, -26541.221325543087, -0.016, 0.908, 0.47200000000000003, 192.0, 0.0, 0.0, 0.0, 0.0, 0.0, 0.0, 0.0, 0.0, 0.0, 1.6541558136826189E9, 0.0, 2022-06-02 09:43:33.682
162.0, 27182.00113558783, -4115.716113533511, -60788.78769740912, -36678.11741568058, -11328.132310883084, -35199.95185136221, -5096.935343377036, -26508.76659259398, -0.016, 0.908, 0.47200000000000003, 192.0, 0.0, 0.0, 0.0, 0.0, 0.0, 0.0, 0.0, 0.0, 0.0, 1.654155813682624E9, 0.0, 2022-06-02 09:43:33.682
163.0, 27193.91461538251, -4094.638418512156, -60769.00640356617, -36653.552848524196, -11313.33545605367, -35174.98495280564, -5061.127848759634, -26476.937708489622, -0.016, 0.908, 0.47200000000000003, 192.0, 0.0, 0.0, 0.0, 0.0, 0.0, 0.0, 0.0, 0.0, 0.0, 1.65415581368263E9, 0.0, 2022-06-02 09:43:33.682
164.0, 27195.456885749925, -4089.4975172874356, -60763.865502341454, -36644.746261208806, -11303.388929771058, -35168.86057482488, -5052.433020166519, -26453.826004722836, -0.016, 0.908, 0.47200000000000003, 192.0, 0.0, 0.0, 0.0, 0.0, 0.0, 0.0, 0.0, 0.0, 0.0, 1.6541558136826355E9, 0.0, 2022-06-02 09:43:33.682
165.0, 27196.552121228233, -4096.583020279768, -60774.639043168914, -36653.418738057466, -11307.389892028557, -35181.3551999754, -5065.285273228321, -26482.592699836816, -0.016, 0.908, 0.47200000000000003, 192.0, 0.0, 0.0, 0.0, 0.0, 0.0, 0.0, 0.0, 0.0, 0.0, 1.654155813682641E9, 0.0, 2022-06-02 09:43:33.682
166.0, 27188.460789735414, -4110.530508819879, -60792.85571489999, -36671.32248536617, -11327.014723660317, -35200.19772055122, -5089.7827851513375, -26521.752956122513, -0.026000000000000002, 0.908, 0.466, 192.0, 255.0, 48.0, 28.0, 96.0, 14.0, 144.0, 0.0, 0.0, 0.0, 1.6541558136826465E9, 0.0, 2022-06-02 09:43:33.682
167.0, 27183.43164723297, -4108.362389607714, -60789.7488224207, -36669.53434580974, -11331.127444640095, -35198.09665657242, -5086.944113605513, -26507.78311583795, -0.026000000000000002, 0.908, 0.466, 192.0, 0.0, 0.0, 0.0, 0.0, 0.0, 0.0, 0.0, 0.0, 0.0, 1.654155813682652E9, 0.0, 2022-06-02 09:43:33.682
168.0, 27179.117760553094, -4102.707398260522, -60778.349432748495, -36660.325427094154, -11326.455930048935, -35190.36295299089, -5084.887753115625, -26498.06010699989, -0.026000000000000002, 0.908, 0.466, 192.0, 0.0, 0.0, 0.0, 0.0, 0.0, 0.0, 0.0, 0.0, 0.0, 1.654155813682658E9, 0.0, 2022-06-02 09:43:33.682
169.0, 27192.215882803906, -4088.6034475092233, -60764.31253723056, -36648.85898218858, -11310.183860085472, -35179.87998484135, -5083.8595728706805, -26498.641252355726, -0.026000000000000002, 0.908, 0.466, 192.0, 0.0, 0.0, 0.0, 0.0, 0.0, 0.0, 0.0, 0.0, 0.0, 1.654155813682664E9, 0.0, 2022-06-02 09:43:33.682
170.0, 27186.47148447889, -4106.23897388446, -60779.48937171571, -36663.141746895526, -11319.638647990067, -35190.74293264663, -5086.094747316211, -26469.09224618581, -0.026000000000000002, 0.908, 0.466, 192.0, 0.0, 0.0, 0.0, 0.0, 0.0, 0.0, 0.0, 0.0, 0.0, 1.6541558136826696E9, 0.0, 2022-06-02 09:43:33.682
171.0, 27184.102199566627, -4117.638363556667, -60787.62540669744, -36671.70246502191, -11329.898098695052, -35198.09665657242, -5088.955770606491, -26487.174807450156, -0.026000000000000002, 0.908, 0.466, 192.0, 0.0, 0.0, 0.0, 0.0, 0.0, 0.0, 0.0, 0.0, 0.0, 1.6541558136826773E9, 0.0, 2022-06-02 09:43:33.682
172.0, 27172.412237216504, -4116.431369356081, -60786.55252296359, -36674.8540609901, -11335.083703408684, -35203.19285430823, -5095.013093353879, -26533.152345794722, -0.026000000000000002, 0.908, 0.466, 192.0, 0.0, 0.0, 0.0, 0.0, 0.0, 0.0, 0.0, 0.0, 0.0, 1.6541558136826825E9, 0.0, 2022-06-02 09:43:33.682
173.0, 27184.146903055538, -4095.0407499123517, -60757.07057202704, -36651.92117117896, -11308.775700184788, -35177.77892086255, -5058.289177213809, -26509.548903649917, -0.026000000000000002, 0.908, 0.466, 192.0, 0.0, 0.0, 0.0, 0.0, 0.0, 0.0, 0.0, 0.0, 0.0, 1.654155813682688E9, 0.0, 2022-06-02 09:43:33.682
174.0, 27193.8699118936, -4088.3128748313043, -60746.92288004433, -36644.99213039781, -11292.704795921421, -35169.28525796953, -5048.387354420109, -26451.143795388198, -0.026000000000000002, 0.908, 0.466, 192.0, 0.0, 0.0, 0.0, 0.0, 0.0, 0.0, 0.0, 0.0, 0.0, 1.6541558136826932E9, 0.0, 2022-06-02 09:43:33.682
175.0, 27190.315984525205, -4098.773491236388, -60758.277566227625, -36659.9007439495, -11301.690197192454, -35185.82554886646, -5061.708994115472, -26486.23603418303, -0.026000000000000002, 0.908, 0.466, 192.0, 0.0, 0.0, 0.0, 0.0, 0.0, 0.0, 0.0, 0.0, 0.0, 1.6541558136826987E9, 0.0, 2022-06-02 09:43:33.682
176.0, 27176.122626796085, -4119.471206602002, -60782.93154036183, -36685.158215184005, -11329.920450439507, -35211.35124103442, -5088.352273506198, -26509.459496672094, -0.026000000000000002, 0.908, 0.462, 192.0, 255.0, 48.0, 28.0, 96.0, 14.0, 112.0, 0.0, 0.0, 0.0, 1.6541558136827044E9, 0.0, 2022-06-02 09:43:33.682
177.0, 27176.703772151923, -4114.933802477575, -60778.751764148685, -36677.82684300266, -11339.129369155095, -35202.522301974575, -5095.326017776253, -26465.71713277306, -0.026000000000000002, 0.908, 0.462, 192.0, 0.0, 0.0, 0.0, 0.0, 0.0, 0.0, 0.0, 0.0, 0.0, 1.6541558136827097E9, 0.0, 2022-06-02 09:43:33.682
178.0, 27185.84563563414, -4096.270095857393, -60750.49915915718, -36648.00961589928, -11310.809708930221, -35172.28039172654, -5053.416496922552, -26477.787074778924, -0.026000000000000002, 0.908, 0.462, 192.0, 0.0, 0.0, 0.0, 0.0, 0.0, 0.0, 0.0, 0.0, 0.0, 1.6541558136827152E9, 0.0, 2022-06-02 09:43:33.682
179.0, 27186.42678098998, -4098.438215069558, -60749.7391998457, -36649.12720312204, -11302.76308092631, -35170.51460391458, -5049.124961987133, -26482.592699836816, -0.026000000000000002, 0.908, 0.462, 192.0, 0.0, 0.0, 0.0, 0.0, 0.0, 0.0, 0.0, 0.0, 0.0, 1.6541558136827207E9, 0.0, 2022-06-02 09:43:33.682
180.0, 27185.84563563414, -4107.647133785144, -60764.17842676383, -36666.04747367471, -11314.609505487622, -35184.79736862151, -5069.867380841659, -26498.127162233253, -0.026000000000000002, 0.908, 0.462, 192.0, 0.0, 0.0, 0.0, 0.0, 0.0, 0.0, 0.0, 0.0, 0.0, 1.654155813682726E9, 0.0, 2022-06-02 09:43:33.682
181.0, 27181.017658831795, -4120.298221146849, -60782.7974298951, -36684.82293901717, -11340.425770333502, -35204.77982816456, -5118.772997709871, -26539.34377900884, -0.026000000000000002, 0.908, 0.462, 192.0, 0.0, 0.0, 0.0, 0.0, 0.0, 0.0, 0.0, 0.0, 0.0, 1.6541558136827314E9, 0.0, 2022-06-02 09:43:33.682
182.0, 27164.47736793487, -4133.217529442016, -60795.6496829569, -36696.17762520047, -11356.228453663403, -35217.609729481905, -5124.450340801518, -26526.849153858326, -0.026000000000000002, 0.908, 0.462, 192.0, 0.0, 0.0, 0.0, 0.0, 0.0, 0.0, 0.0, 0.0, 0.0, 1.6541558136827369E9, 0.0, 2022-06-02 09:43:33.682
183.0, 27163.04685628973, -4130.512968362924, -60784.60792119598, -36686.38756112904, -11342.169206401017, -35211.10537184541, -5089.447508984507, -26493.72386857556, -0.026000000000000002, 0.908, 0.462, 192.0, 0.0, 0.0, 0.0, 0.0, 0.0, 0.0, 0.0, 0.0, 0.0, 1.6541558136827424E9, 0.0, 2022-06-02 09:43:33.682
184.0, 27175.697943651434, -4115.559651322324, -60763.105543029975, -36663.052339917704, -11321.851470691141, -35189.11125530139, -5056.501037657385, -26464.66660078366, -0.026000000000000002, 0.908, 0.462, 192.0, 0.0, 0.0, 0.0, 0.0, 0.0, 0.0, 0.0, 0.0, 0.0, 1.6541558136827478E9, 0.0, 2022-06-02 09:43:33.682
185.0, 27182.850501877132, -4114.486767588469, -60763.12789477443, -36662.04651141721, -11317.179956099983, -35188.97714483466, -5056.6798516130275, -26478.85995851278, -0.026000000000000002, 0.908, 0.462, 192.0, 0.0, 0.0, 0.0, 0.0, 0.0, 0.0, 0.0, 0.0, 0.0, 1.654155813682753E9, 0.0, 2022-06-02 09:43:33.682
186.0, 27178.581318686167, -4127.0707997168065, -60781.36691824996, -36677.178642413455, -11333.76495048582, -35202.47759848566, -5077.28816000082, -26516.612054897792, -0.026000000000000002, 0.91, 0.464, 192.0, 255.0, 48.0, 28.0, 112.0, 14.0, 128.0, 0.0, 0.0, 0.0, 1.6541558136827583E9, 0.0, 2022-06-02 09:43:33.682
187.0, 27176.94964134093, -4127.5401863503685, -60784.25029328469, -36676.46338659088, -11336.67067726501, -35200.24242404013, -5082.563171692273, -26505.190313481133, -0.026000000000000002, 0.91, 0.464, 192.0, 0.0, 0.0, 0.0, 0.0, 0.0, 0.0, 0.0, 0.0, 0.0, 1.654155813682764E9, 0.0, 2022-06-02 09:43:33.682
188.0, 27180.816493131697, -4114.620878055201, -60772.91795884585, -36664.102871907104, -11333.854357463642, -35193.20162453671, -5079.948017591002, -26515.695633375126, -0.026000000000000002, 0.91, 0.464, 192.0, 0.0, 0.0, 0.0, 0.0, 0.0, 0.0, 0.0, 0.0, 0.0, 1.6541558136827693E9, 0.0, 2022-06-02 09:43:33.682
189.0, 27190.5171502253, -4106.663657029111, -60766.27949074263, -36656.52563053675, -11324.377217814592, -35188.79833087901, -5069.800325608293, -26494.170903464666, -0.026000000000000002, 0.91, 0.464, 192.0, 0.0, 0.0, 0.0, 0.0, 0.0, 0.0, 0.0, 0.0, 0.0, 1.6541558136827745E9, 0.0, 2022-06-02 09:43:33.682
190.0, 27182.04583907674, -4124.299183404349, -60784.04912758459, -36673.1553284115, -11337.587098787679, -35201.91880487428, -5089.402805495597, -26475.57425207785, -0.026000000000000002, 0.91, 0.464, 192.0, 0.0, 0.0, 0.0, 0.0, 0.0, 0.0, 0.0, 0.0, 0.0, 1.65415581368278E9, 0.0, 2022-06-02 09:43:33.682
191.0, 27177.463731463402, -4130.758837551933, -60792.76630792217, -36684.107683194605, -11342.124502912106, -35212.222959068175, -5093.470822986463, -26525.463345702094, -0.026000000000000002, 0.91, 0.464, 192.0, 0.0, 0.0, 0.0, 0.0, 0.0, 0.0, 0.0, 0.0, 0.0, 1.6541558136827853E9, 0.0, 2022-06-02 09:43:33.682
192.0, 27179.318926253192, -4118.890061246164, -60782.663319428364, -36677.82684300266, -11335.95542144244, -35205.20451130921, -5080.372700735653, -26523.20581951211, -0.026000000000000002, 0.91, 0.464, 192.0, 0.0, 0.0, 0.0, 0.0, 0.0, 0.0, 0.0, 0.0, 0.0, 1.654155813682793E9, 0.0, 2022-06-02 09:43:33.682
193.0, 27178.80483613072, -4102.081549415773, -60766.681822142826, -36664.37109284056, -11320.465662534913, -35190.80998787999, -5067.341633718209, -26481.139836447222, -0.026000000000000002, 0.91, 0.464, 192.0, 0.0, 0.0, 0.0, 0.0, 0.0, 0.0, 0.0, 0.0, 0.0, 1.654155813682798E9, 0.0, 2022-06-02 09:43:33.682
194.0, 27186.47148447889, -4095.4430813125473, -60762.70321162978, -36659.47606080485, -11312.396682786546, -35182.36102847588, -5068.101593029689, -26479.754028290994, -0.026000000000000002, 0.91, 0.464, 192.0, 0.0, 0.0, 0.0, 0.0, 0.0, 0.0, 0.0, 0.0, 0.0, 1.6541558136828034E9, 0.0, 2022-06-02 09:43:33.682
195.0, 27190.695964180944, -4100.695741259545, -60771.01806056715, -36663.83465097364, -11319.28102007878, -35182.09280754242, -5082.227895525443, -26470.52275783095, -0.038, 0.894, 0.466, 192.0, 254.0, 208.0, 27.0, 240.0, 14.0, 144.0, 0.0, 0.0, 0.0, 1.6541558136828089E9, 0.0, 2022-06-02 09:43:33.682
196.0, 27186.359725756614, -4113.771511765899, -60791.46990674376, -36684.84529076163, -11341.29748836726, -35207.97612762167, -5109.049988871812, -26526.312711991395, -0.038, 0.894, 0.466, 192.0, 0.0, 0.0, 0.0, 0.0, 0.0, 0.0, 0.0, 0.0, 0.0, 1.654155813682814E9, 0.0, 2022-06-02 09:43:33.682
197.0, 27185.84563563414, -4110.999895453441, -60788.81004915357, -36687.28163090726, -11349.344116371169, -35214.16756083579, -5094.096671831211, -26531.140688793745, -0.038, 0.894, 0.466, 192.0, 0.0, 0.0, 0.0, 0.0, 0.0, 0.0, 0.0, 0.0, 0.0, 1.6541558136828196E9, 0.0, 2022-06-02 09:43:33.682
198.0, 27184.66099317801, -4111.424578598092, -60771.68861290081, -36675.61402030158, -11341.543357556267, -35202.25408104111, -5095.7730526653595, -26484.224377182054, -0.038, 0.894, 0.466, 192.0, 0.0, 0.0, 0.0, 0.0, 0.0, 0.0, 0.0, 0.0, 0.0, 1.6541558136828249E9, 0.0, 2022-06-02 09:43:33.682
199.0, 27189.53367346927, -4105.791938995354, -60751.639098124404, -36658.98432242683, -11324.421921303501, -35182.56219417598, -5085.044215326812, -26472.42265610965, -0.038, 0.894, 0.466, 192.0, 0.0, 0.0, 0.0, 0.0, 0.0, 0.0, 0.0, 0.0, 0.0, 1.6541558136828303E9, 0.0, 2022-06-02 09:43:33.682
200.0, 27184.102199566627, -4115.939630978064, -60759.35044996148, -36672.59653480012, -11327.931145182985, -35194.185101292744, -5078.405747223585, -26479.19523467961, -0.038, 0.894, 0.466, 192.0, 0.0, 0.0, 0.0, 0.0, 0.0, 0.0, 0.0, 0.0, 0.0, 1.6541558136828356E9, 0.0, 2022-06-02 09:43:33.682
201.0, 27173.32865873917, -4129.507139862435, -60772.85090361249, -36689.09212220814, -11341.856281978642, -35208.84784565542, -5094.431947998041, -26518.958988065602, -0.038, 0.894, 0.466, 192.0, 0.0, 0.0, 0.0, 0.0, 0.0, 0.0, 0.0, 0.0, 0.0, 1.6541558136828413E9, 0.0, 2022-06-02 09:43:33.682
202.0, 27158.28593472075, -4140.213625456528, -60780.875179871946, -36695.97645950037, -11357.368392630624, -35214.189912580245, -5101.830375412747, -26504.564464636383, -0.038, 0.894, 0.466, 192.0, 0.0, 0.0, 0.0, 0.0, 0.0, 0.0, 0.0, 0.0, 0.0, 1.6541558136828463E9, 0.0, 2022-06-02 09:43:33.682
203.0, 27171.920498838484, -4126.176729938595, -60761.429162195825, -36675.74813076832, -11341.744523256366, -35191.41348498029, -5074.449488454997, -26465.650077539693, -0.038, 0.894, 0.466, 192.0, 0.0, 0.0, 0.0, 0.0, 0.0, 0.0, 0.0, 0.0, 0.0, 1.6541558136828518E9, 0.0, 2022-06-02 09:43:33.682
204.0, 27181.12941755407, -4120.275869402393, -60753.36018244746, -36668.61792428707, -11325.159528870527, -35187.50192970061, -5061.150200504088, -26494.260310442485, -0.038, 0.894, 0.466, 192.0, 0.0, 0.0, 0.0, 0.0, 0.0, 0.0, 0.0, 0.0, 0.0, 1.6541558136828575E9, 0.0, 2022-06-02 09:43:33.682
205.0, 27173.865100606097, -4132.591680597267, -60771.95683383427, -36683.52653783876, -11332.870880707607, -35203.37166826388, -5072.460183198475, -26496.696650588114, -0.026000000000000002, 0.91, 0.47200000000000003, 192.0, 255.0, 48.0, 28.0, 112.0, 14.0, 192.0, 0.0, 0.0, 0.0, 1.654155813682863E9, 0.0, 2022-06-02 09:43:33.682
206.0, 27173.14984478353, -4135.497407376457, -60783.13270606193, -36688.153348941014, -11344.873767480109, -35210.43481951175, -5081.914971103069, -26489.633499340238, -0.026000000000000002, 0.91, 0.47200000000000003, 192.0, 0.0, 0.0, 0.0, 0.0, 0.0, 0.0, 0.0, 0.0, 0.0, 1.6541558136828685E9, 0.0, 2022-06-02 09:43:33.682
207.0, 27174.7144668954, -4132.479921874991, -60782.193932794806, -36680.06201744819, -11342.951517456951, -35204.69042118674, -5075.187096022021, -26502.418697168672, -0.026000000000000002, 0.91, 0.47200000000000003, 192.0, 0.0, 0.0, 0.0, 0.0, 0.0, 0.0, 0.0, 0.0, 0.0, 1.654155813682874E9, 0.0, 2022-06-02 09:43:33.682
208.0, 27177.955469841418, -4123.539224092868, -60774.281415257625, -36666.96389519738, -11332.982639429885, -35195.07917107095, -5070.403822708586, -26467.46056884057, -0.026000000000000002, 0.91, 0.47200000000000003, 192.0, 0.0, 0.0, 0.0, 0.0, 0.0, 0.0, 0.0, 0.0, 0.0, 1.6541558136828792E9, 0.0, 2022-06-02 09:43:33.682
209.0, 27187.454961234926, -4113.592697810256, -60769.609900666466, -36656.570334025666, -11315.592982243656, -35186.04906631101, -5066.268749984354, -26442.717187728547, -0.026000000000000002, 0.91, 0.47200000000000003, 192.0, 0.0, 0.0, 0.0, 0.0, 0.0, 0.0, 0.0, 0.0, 0.0, 1.6541558136828847E9, 0.0, 2022-06-02 09:43:33.682
210.0, 27198.13909508456, -4113.033904198874, -60778.617653681955, -36657.66556950397, -11307.546354239745, -35189.55829019049, -5056.8586655686695, -26489.611147595784, -0.026000000000000002, 0.91, 0.47200000000000003, 192.0, 0.0, 0.0, 0.0, 0.0, 0.0, 0.0, 0.0, 0.0, 0.0, 1.65415581368289E9, 0.0, 2022-06-02 09:43:33.682
211.0, 27191.366516514605, -4130.378857896192, -60800.7011772038, -36672.1047964221, -11319.862165434619, -35208.19964506622, -5074.605950666184, -26483.062086470378, -0.026000000000000002, 0.91, 0.47200000000000003, 192.0, 0.0, 0.0, 0.0, 0.0, 0.0, 0.0, 0.0, 0.0, 0.0, 1.6541558136828957E9, 0.0, 2022-06-02 09:43:33.682
212.0, 27184.99626934484, -4129.753009051444, -60803.27162781616, -36666.15923239699, -11325.092473637162, -35203.773999664074, -5083.390186237119, -26464.554842061385, -0.026000000000000002, 0.91, 0.47200000000000003, 192.0, 0.0, 0.0, 0.0, 0.0, 0.0, 0.0, 0.0, 0.0, 0.0, 1.654155813682901E9, 0.0, 2022-06-02 09:43:33.682
213.0, 27183.096371066138, -4121.0805322027845, -60798.73422369173, -36657.620866015066, -11316.509403766324, -35199.61657519538, -5075.38826172212, -26512.90166531821, -0.026000000000000002, 0.91, 0.47200000000000003, 192.0, 0.0, 0.0, 0.0, 0.0, 0.0, 0.0, 0.0, 0.0, 0.0, 1.6541558136829062E9, 0.0, 2022-06-02 09:43:33.682
214.0, 27190.651260692033, -4111.402226853636, -60796.11906959046, -36651.49648803431, -11299.969112869396, -35193.805121637, -5059.630281881128, -26486.43719988313, -0.026000000000000002, 0.91, 0.47200000000000003, 192.0, 0.0, 0.0, 0.0, 0.0, 0.0, 0.0, 0.0, 0.0, 0.0, 1.6541558136829135E9, 0.0, 2022-06-02 09:43:33.682
215.0, 27184.079847822173, -4125.9532124940415, -60816.19093611133, -36668.46146207589, -11303.545391982245, -35211.0606683565, -5065.821715095248, -26474.568423577362, -0.004, 0.908, 0.47200000000000003, 192.0, 255.0, 224.0, 28.0, 96.0, 14.0, 192.0, 0.0, 0.0, 0.0, 1.6541558136829188E9, 0.0, 2022-06-02 09:43:33.682
216.0, 27185.108028067116, -4134.20100619805, -60827.72443625027, -36676.57514531317, -11313.469566520402, -35223.22001734019, -5081.155011791589, -26498.171865722165, -0.004, 0.908, 0.47200000000000003, 192.0, 0.0, 0.0, 0.0, 0.0, 0.0, 0.0, 0.0, 0.0, 0.0, 1.6541558136829245E9, 0.0, 2022-06-02 09:43:33.682
217.0, 27181.397638487535, -4137.844340544265, -60830.74192175173, -36676.39633135752, -11325.919488182008, -35223.01885164009, -5086.988817094424, -26471.036847953423, -0.004, 0.908, 0.47200000000000003, 192.0, 0.0, 0.0, 0.0, 0.0, 0.0, 0.0, 0.0, 0.0, 0.0, 1.6541558136829298E9, 0.0, 2022-06-02 09:43:33.682
218.0, 27190.494798480846, -4122.488692103469, -60814.22398259926, -36657.173831125954, -11315.615333988111, -35201.62823219636, -5080.350348991197, -26462.14085366021, -0.004, 0.908, 0.47200000000000003, 192.0, 0.0, 0.0, 0.0, 0.0, 0.0, 0.0, 0.0, 0.0, 0.0, 1.6541558136829352E9, 0.0, 2022-06-02 09:43:33.682
219.0, 27201.871836408598, -4112.8103867543205, -60806.51263076218, -36648.99309265531, -11300.23733380286, -35195.660316426794, -5065.218217994955, -26494.327365675854, -0.004, 0.908, 0.47200000000000003, 192.0, 0.0, 0.0, 0.0, 0.0, 0.0, 0.0, 0.0, 0.0, 0.0, 1.6541558136829405E9, 0.0, 2022-06-02 09:43:33.682
220.0, 27201.402449775036, -4121.840491514265, -60820.013084413185, -36663.901706207005, -11304.886496649564, -35212.20060732372, -5076.282331500332, -26527.184430025154, -0.004, 0.908, 0.47200000000000003, 192.0, 0.0, 0.0, 0.0, 0.0, 0.0, 0.0, 0.0, 0.0, 0.0, 1.654155813682946E9, 0.0, 2022-06-02 09:43:33.682
221.0, 27193.221711304395, -4136.1679597101165, -60834.72053226478, -36676.59749705762, -11325.092473637162, -35222.0130231396, -5096.8906398881245, -26492.33806041933, -0.004, 0.908, 0.47200000000000003, 192.0, 0.0, 0.0, 0.0, 0.0, 0.0, 0.0, 0.0, 0.0, 0.0, 1.6541558136829512E9, 0.0, 2022-06-02 09:43:33.682
222.0, 27194.04872584924, -4133.306936419837, -60830.87603221846, -36672.37301735557, -11330.188671372971, -35216.80506668152, -5103.305590546798, -26490.86284528528, -0.004, 0.908, 0.47200000000000003, 192.0, 0.0, 0.0, 0.0, 0.0, 0.0, 0.0, 0.0, 0.0, 0.0, 1.6541558136829567E9, 0.0, 2022-06-02 09:43:33.682
223.0, 27203.5705689872, -4115.425540855592, -60807.02672088465, -36649.66364498898, -11312.754310697832, -35185.937307588734, -5071.856686098181, -26450.316780843354, -0.004, 0.908, 0.47200000000000003, 192.0, 0.0, 0.0, 0.0, 0.0, 0.0, 0.0, 0.0, 0.0, 0.0, 1.6541558136829643E9, 0.0, 2022-06-02 09:43:33.682
224.0, 27216.04284239326, -4103.28854361636, -60789.61471195397, -36636.90079890499, -11294.850563389131, -35173.509737671586, -5051.315432943754, -26445.66761799665, -0.004, 0.908, 0.47200000000000003, 192.0, 0.0, 0.0, 0.0, 0.0, 0.0, 0.0, 0.0, 0.0, 0.0, 1.6541558136829698E9, 0.0, 2022-06-02 09:43:33.682
225.0, 27213.159467358528, -4111.6927995315555, -60801.52819174864, -36650.42360430046, -11299.85735414712, -35183.4562639542, -5063.81005809427, -26478.56938583486, -0.004, 0.908, 0.47200000000000003, 192.0, 0.0, 0.0, 28.0, 96.0, 14.0, 208.0, 0.0, 0.0, 0.0, 1.6541558136829758E9, 0.0, 2022-06-02 09:43:33.682
226.0, 27207.23625507787, -4127.741352050466, -60821.15302338041, -36670.85309873261, -11317.448177033446, -35202.11997057438, -5089.648674684605, -26500.13881923423, -0.004, 0.908, 0.47200000000000003, 192.0, 0.0, 0.0, 0.0, 0.0, 0.0, 0.0, 0.0, 0.0, 0.0, 1.6541558136829813E9, 0.0, 2022-06-02 09:43:33.682
227.0, 27196.060382850217, -4139.185445211583, -60832.97709619726, -36685.225270417366, -11334.167281886015, -35214.72635444717, -5106.367779537175, -26526.44682245813, -0.004, 0.908, 0.47200000000000003, 192.0, 0.0, 0.0, 0.0, 0.0, 0.0, 0.0, 0.0, 0.0, 0.0, 1.6541558136829865E9, 0.0, 2022-06-02 09:43:33.682
228.0, 27204.732859698877, -4123.829796770787, -60811.0053313977, -36662.717063750875, -11315.81649968821, -35190.51941520207, -5079.590389679717, -26493.925034275657, -0.004, 0.908, 0.47200000000000003, 192.0, 0.0, 0.0, 0.0, 0.0, 0.0, 0.0, 0.0, 0.0, 0.0, 1.654155813682992E9, 0.0, 2022-06-02 09:43:33.682
229.0, 27207.23625507787, -4118.24186065696, -60800.03062487014, -36653.888124691024, -11304.595923971645, -35181.91399358678, -5063.027747038334, -26456.776434990938, -0.004, 0.908, 0.47200000000000003, 192.0, 0.0, 0.0, 0.0, 0.0, 0.0, 0.0, 0.0, 0.0, 0.0, 1.6541558136829977E9, 0.0, 2022-06-02 09:43:33.682
230.0, 27208.86793242311, -4119.448854857547, -60804.72449120576, -36659.72192999386, -11303.5677437267, -35184.886775599334, -5066.827543595737, -26473.450836354597, -0.004, 0.908, 0.47200000000000003, 192.0, 0.0, 0.0, 0.0, 0.0, 0.0, 0.0, 0.0, 0.0, 0.0, 1.654155813683003E9, 0.0, 2022-06-02 09:43:33.683
231.0, 27196.99915611734, -4134.424523642602, -60820.16954662437, -36674.83170924565, -11318.789281700765, -35198.58839495044, -5084.48542171543, -26489.700554573603, -0.004, 0.908, 0.47200000000000003, 192.0, 0.0, 0.0, 0.0, 0.0, 0.0, 0.0, 0.0, 0.0, 0.0, 1.6541558136830084E9, 0.0, 2022-06-02 09:43:33.683
232.0, 27193.154656071027, -4135.318593420815, -60819.20842161279, -36675.47990983485, -11324.95836317043, -35198.58839495044, -5092.6661601860715, -26496.22726395455, -0.004, 0.908, 0.47200000000000003, 192.0, 0.0, 0.0, 0.0, 0.0, 0.0, 0.0, 0.0, 0.0, 0.0, 1.6541558136830137E9, 0.0, 2022-06-02 09:43:33.683
233.0, 27200.6201387191, -4121.706381047533, -60800.45530801479, -36660.3030753497, -11310.809708930221, -35185.11029304389, -5073.130735532133, -26475.551900333394, -0.004, 0.908, 0.47200000000000003, 192.0, 0.0, 0.0, 0.0, 0.0, 0.0, 0.0, 0.0, 0.0, 0.0, 1.6541558136830192E9, 0.0, 2022-06-02 09:43:33.683
234.0, 27201.804781175233, -4118.107750190228, -60795.672034701354, -36659.11843289357, -11306.09349085015, -35189.021848323566, -5062.536008660318, -26468.309935129873, -0.004, 0.908, 0.47200000000000003, 192.0, 0.0, 0.0, 0.0, 0.0, 0.0, 0.0, 0.0, 0.0, 0.0, 1.6541558136830246E9, 0.0, 2022-06-02 09:43:33.683
235.0, 27213.271226080804, -4113.413883854614, -60790.84405789901, -36657.06207240368, -11299.05269134673, -35185.82554886646, -5077.779898378837, -26468.801673507893, -0.002, 0.91, 0.482, 192.0, 255.0, 240.0, 28.0, 112.0, 15.0, 16.0, 0.0, 0.0, 0.0, 1.654155813683032E9, 0.0, 2022-06-02 09:43:33.683
236.0, 27213.42768829199, -4122.265174658915, -60797.72839519125, -36668.796738242716, -11303.992426871351, -35197.87313912787, -5086.519430460862, -26481.81038878088, -0.002, 0.91, 0.482, 192.0, 0.0, 0.0, 0.0, 0.0, 0.0, 0.0, 0.0, 0.0, 0.0, 1.6541558136830373E9, 0.0, 2022-06-02 09:43:33.683
237.0, 27208.756173700833, -4127.115503205718, -60798.89068590292, -36672.01538944428, -11313.380159542581, -35203.86340664189, -5076.952883833991, -26498.596548866815, -0.002, 0.91, 0.482, 192.0, 0.0, 0.0, 0.0, 0.0, 0.0, 0.0, 0.0, 0.0, 0.0, 1.6541558136830428E9, 0.0, 2022-06-02 09:43:33.683
238.0, 27223.19540061896, -4102.52858430488, -60772.64973791239, -36645.17094435346, -11294.33647326666, -35177.19777550671, -5057.23864522441, -26507.91722630468, -0.002, 0.91, 0.482, 192.0, 0.0, 0.0, 0.0, 0.0, 0.0, 0.0, 0.0, 0.0, 0.0, 1.654155813683048E9, 0.0, 2022-06-02 09:43:33.683
239.0, 27219.90969418403, -4103.757930249922, -60771.01806056715, -36644.16511585297, -11285.775755140276, -35179.00826680759, -5055.539912645807, -26450.47324305454, -0.002, 0.91, 0.482, 192.0, 0.0, 0.0, 0.0, 0.0, 0.0, 0.0, 0.0, 0.0, 0.0, 1.6541558136830535E9, 0.0, 2022-06-02 09:43:33.683
240.0, 27213.42768829199, -4117.057218200829, -60784.09383107351, -36653.485793290834, -11297.935104123962, -35185.57967967745, -5086.228857782943, -26430.177859089123, -0.002, 0.91, 0.482, 192.0, 0.0, 0.0, 0.0, 0.0, 0.0, 0.0, 0.0, 0.0, 0.0, 1.6541558136830592E9, 0.0, 2022-06-02 09:43:33.683
241.0, 27211.930121413487, -4126.53435784988, -60795.38146202343, -36663.052339917704, -11312.351979297637, -35192.91105185879, -5101.316285290276, -26508.63248212725, -0.002, 0.91, 0.482, 192.0, 0.0, 0.0, 0.0, 0.0, 0.0, 0.0, 0.0, 0.0, 0.0, 1.6541558141617556E9, 0.0, 2022-06-02 09:43:34.161
242.0, 27207.348013800147, -4129.730657306988, -60799.13655509193, -36667.388578342034, -11320.353903812636, -35192.57577569196, -5112.648619729116, -26523.742261379037, -0.002, 0.91, 0.482, 192.0, 0.0, 0.0, 0.0, 0.0, 0.0, 0.0, 0.0, 0.0, 0.0, 1.6541558141619296E9, 0.0, 2022-06-02 09:43:34.161
243.0, 27207.973862644896, -4123.203947926038, -60789.458249742784, -36660.25837186079, -11314.833022932175, -35183.59037442093, -5103.059721357789, -26486.057220227387, -0.002, 0.91, 0.482, 192.0, 0.0, 0.0, 0.0, 0.0, 0.0, 0.0, 0.0, 0.0, 0.0, 1.654155814161935E9, 0.0, 2022-06-02 09:43:34.161
244.0, 27217.04867089375, -4104.696703517045, -60772.87325535694, -36646.6014559986, -11292.704795921421, -35166.8489178239, -5080.797383880304, -26484.805522537892, -0.002, 0.91, 0.482, 192.0, 0.0, 0.0, 0.0, 0.0, 0.0, 0.0, 0.0, 0.0, 0.0, 1.6541558141619408E9, 0.0, 2022-06-02 09:43:34.161
245.0, 27213.606502247632, -4113.43623559907, -60784.496162473704, -36659.49841254931, -11293.017720343796, -35176.638981895325, -5091.034482840834, -26474.3002026439, -0.014, 0.894, 0.494, 192.0, 255.0, 144.0, 27.0, 240.0, 15.0, 112.0, 0.0, 0.0, 0.0, 1.6541558141619463E9, 0.0, 2022-06-02 09:43:34.161
246.0, 27195.255720049827, -4140.526549878901, -60809.351302308, -36687.907479752, -11312.933124653475, -35204.91393863129, -5113.542689507329, -26506.307900703898, -0.014, 0.894, 0.494, 192.0, 0.0, 0.0, 0.0, 0.0, 0.0, 0.0, 0.0, 0.0, 0.0, 1.6541558141619527E9, 0.0, 2022-06-02 09:43:34.161
247.0, 27191.657089192522, -4139.364259167225, -60812.43584304283, -36688.98036348586, -11323.326685825192, -35203.081095585956, -5133.323983350276, -26504.609168125295, -0.014, 0.894, 0.494, 192.0, 0.0, 0.0, 0.0, 0.0, 0.0, 0.0, 0.0, 0.0, 0.0, 1.6541558141619585E9, 0.0, 2022-06-02 09:43:34.161
248.0, 27198.474371251392, -4124.76857003791, -60801.639950470926, -36674.809357501195, -11313.693083964954, -35189.33477274594, -5119.242384343432, -26503.379822180254, -0.014, 0.894, 0.494, 192.0, 0.0, 0.0, 0.0, 0.0, 0.0, 0.0, 0.0, 0.0, 0.0, 1.6541558141619637E9, 0.0, 2022-06-02 09:43:34.161
249.0, 27208.6220632341, -4113.078607687785, -60786.999557852694, -36662.6053050286, -11285.663996418, -35180.88581334184, -5084.664235671072, -26508.297205960418, -0.014, 0.894, 0.494, 192.0, 0.0, 0.0, 0.0, 0.0, 0.0, 0.0, 0.0, 0.0, 0.0, 1.6541558141619692E9, 0.0, 2022-06-02 09:43:34.161
250.0, 27199.301385796236, -4128.411904384125, -60797.147249835405, -36674.33997086763, -11285.485182462357, -35194.43097048175, -5086.38531999413, -26486.43719988313, -0.014, 0.894, 0.494, 192.0, 0.0, 0.0, 0.0, 0.0, 0.0, 0.0, 0.0, 0.0, 0.0, 1.654155814161975E9, 0.0, 2022-06-02 09:43:34.161
251.0, 27193.311118282214, -4140.928881279097, -60812.56995350957, -36682.565412827185, -11299.298560535737, -35202.43289499675, -5099.349331778209, -26463.169033905153, -0.014, 0.894, 0.494, 192.0, 0.0, 0.0, 0.0, 0.0, 0.0, 0.0, 0.0, 0.0, 0.0, 1.6541558141619804E9, 0.0, 2022-06-02 09:43:34.161
252.0, 27196.663879950513, -4138.514892877924, -60814.42514829936, -36680.1067209371, -11304.059482104718, -35207.08205784346, -5114.39205579663, -26509.928883305656, -0.014, 0.894, 0.494, 192.0, 0.0, 0.0, 0.0, 0.0, 0.0, 0.0, 0.0, 0.0, 0.0, 1.6541558141619859E9, 0.0, 2022-06-02 09:43:34.161
253.0, 27196.10508633913, -4126.802578783343, -60805.260933072685, -36667.254467875304, -11300.639665203056, -35199.03542983955, -5119.711770976994, -26503.44687741362, -0.014, 0.894, 0.494, 192.0, 0.0, 0.0, 0.0, 0.0, 0.0, 0.0, 0.0, 0.0, 0.0, 1.6541558141619914E9, 0.0, 2022-06-02 09:43:34.161
254.0, 27199.01081311832, -4126.042619471863, -60800.500011503704, -36659.20783987139, -11290.268455775793, -35192.799293136515, -5099.930477134047, -26468.980487463534, -0.014, 0.894, 0.494, 192.0, 0.0, 0.0, 0.0, 0.0, 0.0, 0.0, 0.0, 0.0, 0.0, 1.6541558141619968E9, 0.0, 2022-06-02 09:43:34.161
255.0, 27200.48602825237, -4140.593605112267, -60812.61465699848, -36670.56252605469, -11288.927351108474, -35206.94794737673, -5100.802195167804, -26498.462438400085, -0.002, 0.892, 0.49, 192.0, 255.0, 240.0, 27.0, 224.0, 15.0, 80.0, 0.0, 0.0, 0.0, 1.6541558141620023E9, 0.0, 2022-06-02 09:43:34.162
0.0, 27198.161446829017, -4146.762686581932, -60827.009180427696, -36684.174738427966, -11298.069214590694, -35222.929444662266, -5111.978067395457, -26511.29233971743, -0.002, 0.892, 0.49, 192.0, 0.0, 0.0, 0.0, 0.0, 0.0, 0.0, 0.0, 0.0, 0.0, 1.6541558141620207E9, 0.0, 2022-06-02 09:43:34.162
1.0, 27193.646394449046, -4147.455590660046, -60829.13259615095, -36684.21944191688, -11308.127499595583, -35224.35995630741, -5120.158805866099, -26509.14657224972, -0.002, 0.892, 0.49, 192.0, 0.0, 0.0, 0.0, 0.0, 0.0, 0.0, 0.0, 0.0, 0.0, 1.654155814162026E9, 0.0, 2022-06-02 09:43:34.162
2.0, 27203.034127120274, -4131.7646660524215, -60813.03934014313, -36665.39927308551, -11299.589133213656, -35206.702078187715, -5111.933363906546, -26484.425542882153, -0.002, 0.892, 0.49, 192.0, 0.0, 0.0, 0.0, 0.0, 0.0, 0.0, 0.0, 0.0, 0.0, 1.6541558141620312E9, 0.0, 2022-06-02 09:43:34.162
3.0, 27212.8241911917, -4121.304049647338, -60801.46113651528, -36653.64225550202, -11284.14407779504, -35196.33086876045, -5093.090843330722, -26477.51885384546, -0.002, 0.892, 0.49, 192.0, 0.0, 0.0, 0.0, 0.0, 0.0, 0.0, 0.0, 0.0, 0.0, 1.6541558141620364E9, 0.0, 2022-06-02 09:43:34.162
4.0, 27210.5219615128, -4129.954174751541, -60810.11126161948, -36661.5547730392, -11290.536676709256, -35201.471769985175, -5105.406654525596, -26460.419769337153, -0.002, 0.892, 0.49, 192.0, 0.0, 0.0, 0.0, 0.0, 0.0, 0.0, 0.0, 0.0, 0.0, 1.6541558141620417E9, 0.0, 2022-06-02 09:43:34.162
5.0, 27205.42576377699, -4143.655794102645, -60824.3046193486, -36670.98720919934, -11308.596886229145, -35216.3133283035, -5127.736047236449, -26513.9074938187, -0.002, 0.892, 0.49, 192.0, 0.0, 0.0, 0.0, 0.0, 0.0, 0.0, 0.0, 0.0, 0.0, 1.654155814162047E9, 0.0, 2022-06-02 09:43:34.162
6.0, 27196.172141572493, -4147.209721471038, -60830.31723860708, -36676.284572635246, -11319.035150889773, -35226.34926156393, -5132.631079272161, -26523.29522648993, -0.002, 0.892, 0.49, 192.0, 0.0, 0.0, 0.0, 0.0, 0.0, 0.0, 0.0, 0.0, 0.0, 1.654155814162052E9, 0.0, 2022-06-02 09:43:34.162
7.0, 27201.33539454167, -4131.652907330144, -60813.37461630996, -36659.29724684921, -11304.014778615807, -35210.72539218967, -5122.036352400345, -26513.34870020732, -0.002, 0.892, 0.49, 192.0, 0.0, 0.0, 0.0, 0.0, 0.0, 0.0, 0.0, 0.0, 0.0, 1.6541558141620584E9, 0.0, 2022-06-02 09:43:34.162
8.0, 27207.795048689255, -4129.015401484418, -60808.27841857415, -36654.15634562449, -11292.525981965779, -35206.2103398097, -5104.244363813921, -26481.452760869597, -0.002, 0.892, 0.49, 192.0, 0.0, 0.0, 0.0, 0.0, 0.0, 0.0, 0.0, 0.0, 0.0, 1.6541558141620636E9, 0.0, 2022-06-02 09:43:34.162
9.0, 27209.583188245677, -4136.1679597101165, -60815.4533285443, -36658.224363115354, -11293.129479066072, -35205.025697353565, -5091.123889818656, -26467.169996162655, 0.014, 0.902, 0.496, 192.0, 0.0, 112.0, 28.0, 48.0, 15.0, 128.0, 0.0, 0.0, 0.0, 1.6541558141620688E9, 0.0, 2022-06-02 09:43:34.162
10.0, 27202.609443975623, -4142.694669091066, -60826.62920077195, -36669.46729057637, -11303.590095471156, -35216.64860447033, -5106.6360004706385, -26518.556656665405, 0.014, 0.902, 0.496, 192.0, 0.0, 0.0, 0.0, 0.0, 0.0, 0.0, 0.0, 0.0, 0.0, 1.654155814162074E9, 0.0, 2022-06-02 09:43:34.162
11.0, 27183.722219910887, -4159.302015221359, -60841.828387001566, -36688.89095650804, -11324.779549214787, -35236.25108435763, -5136.073247918278, -26552.2183838151, 0.014, 0.902, 0.496, 192.0, 0.0, 0.0, 0.0, 0.0, 0.0, 0.0, 0.0, 0.0, 0.0, 1.654155814162079E9, 0.0, 2022-06-02 09:43:34.162
12.0, 27191.925310125986, -4143.2087592135385, -60821.488299547236, -36667.053302175205, -11316.777624699787, -35211.21713056769, -5136.363820596197, -26493.232130197543, 0.014, 0.902, 0.496, 192.0, 0.0, 0.0, 0.0, 0.0, 0.0, 0.0, 0.0, 0.0, 0.0, 1.6541558141620843E9, 0.0, 2022-06-02 09:43:34.162
13.0, 27209.76200220132, -4122.287526403371, -60804.94800865031, -36648.63546474403, -11297.845697146142, -35195.81677863798, -5135.246233373432, -26486.99599349451, 0.014, 0.902, 0.496, 192.0, 0.0, 0.0, 0.0, 0.0, 0.0, 0.0, 0.0, 0.0, 0.0, 1.6541558141620896E9, 0.0, 2022-06-02 09:43:34.162
14.0, 27212.041880135763, -4129.10480846224, -60813.016988398675, -36657.06207240368, -11291.676615676477, -35203.72929617516, -5119.577660510262, -26489.208816195587, 0.014, 0.902, 0.496, 192.0, 0.0, 0.0, 0.0, 0.0, 0.0, 0.0, 0.0, 0.0, 0.0, 1.6541558141620948E9, 0.0, 2022-06-02 09:43:34.162
15.0, 27214.25470283684, -4139.00663125594, -60819.67780824636, -36663.38761608453, -11294.559990711212, -35206.702078187715, -5107.530070248851, -26481.519816102962, 0.014, 0.902, 0.496, 192.0, 0.0, 0.0, 0.0, 0.0, 0.0, 0.0, 0.0, 0.0, 0.0, 1.6541558141621E9, 0.0, 2022-06-02 09:43:34.162
16.0, 27207.727993455886, -4143.29816619136, -60824.7069507488, -36669.46729057637, -11303.031301859774, -35212.89351140184, -5121.812834955792, -26503.782153580447, 0.014, 0.902, 0.496, 192.0, 0.0, 0.0, 0.0, 0.0, 0.0, 0.0, 0.0, 0.0, 0.0, 1.654155814162105E9, 0.0, 2022-06-02 09:43:34.162
17.0, 27187.633775190567, -4147.276776704404, -60825.28809610464, -36672.39536910002, -11313.491918264857, -35218.660261471305, -5140.454189831518, -26514.77921185246, 0.014, 0.902, 0.496, 192.0, 0.0, 0.0, 0.0, 0.0, 0.0, 0.0, 0.0, 0.0, 0.0, 1.6541558141621103E9, 0.0, 2022-06-02 09:43:34.162
18.0, 27186.493836223348, -4137.732581821988, -60814.22398259926, -36664.460499818386, -11300.28203729177, -35213.407601524304, -5120.7175994774825, -26506.57612163736, 0.016, 0.91, 0.496, 192.0, 0.0, 128.0, 28.0, 112.0, 15.0, 128.0, 0.0, 0.0, 0.0, 1.654155814162116E9, 0.0, 2022-06-02 09:43:34.162
19.0, 27191.120647325595, -4137.911395777631, -60815.22981109975, -36667.388578342034, -11297.957455868418, -35218.30263356002, -5120.158805866099, -26495.06497324288, 0.016, 0.91, 0.496, 192.0, 0.0, 0.0, 0.0, 0.0, 0.0, 0.0, 0.0, 0.0, 0.0, 1.654155814162121E9, 0.0, 2022-06-02 09:43:34.162
20.0, 27190.159522314018, -4147.276776704404, -60822.09179664753, -36676.08340693515, -11308.19455482895, -35229.52320927659, -5104.356122536197, -26490.86284528528, 0.016, 0.91, 0.496, 192.0, 0.0, 0.0, 0.0, 0.0, 0.0, 0.0, 0.0, 0.0, 0.0, 1.6541558141621273E9, 0.0, 2022-06-02 09:43:34.162
21.0, 27187.969051357395, -4148.528474393902, -60823.47760480376, -36681.62663956006, -11314.900078165541, -35235.31231109051, -5106.7477591929155, -26531.051281815922, 0.016, 0.91, 0.496, 192.0, 0.0, 0.0, 0.0, 0.0, 0.0, 0.0, 0.0, 0.0, 0.0, 1.6541558141621325E9, 0.0, 2022-06-02 09:43:34.162
22.0, 27192.975842115386, -4139.1630934671275, -60812.92758142085, -36670.741340010325, -11309.602714729634, -35213.854636413416, -5118.929459921058, -26525.48569744655, 0.016, 0.91, 0.496, 192.0, 0.0, 0.0, 0.0, 0.0, 0.0, 0.0, 0.0, 0.0, 0.0, 1.6541558141621394E9, 0.0, 2022-06-02 09:43:34.162
23.0, 27200.307214296725, -4131.854073030242, -60802.109337104484, -36661.39831082801, -11294.738804666855, -35201.42706649626, -5102.500927746407, -26498.931825033647, 0.016, 0.91, 0.496, 192.0, 0.0, 0.0, 0.0, 0.0, 0.0, 0.0, 0.0, 0.0, 0.0, 1.6541558141621444E9, 0.0, 2022-06-02 09:43:34.162
24.0, 27205.13519109907, -4130.378857896192, -60803.47279351626, -36662.13591839503, -11291.184877298461, -35203.37166826388, -5099.908125389591, -26504.765630336482, 0.016, 0.91, 0.496, 192.0, 0.0, 0.0, 0.0, 0.0, 0.0, 0.0, 0.0, 0.0, 0.0, 1.6541558141621497E9, 0.0, 2022-06-02 09:43:34.162
25.0, 27199.368441029605, -4147.38853542668, -60821.51065129169, -36681.76075002679, -11307.85927866212, -35219.68844171625, -5114.056779629801, -26513.505162418507, 0.016, 0.91, 0.496, 192.0, 0.0, 0.0, 0.0, 0.0, 0.0, 0.0, 0.0, 0.0, 0.0, 1.654155814162155E9, 0.0, 2022-06-02 09:43:34.162
26.0, 27190.695964180944, -4154.876369819209, -60826.6068490275, -36689.65091581952, -11321.359732313125, -35229.702023232225, -5128.8759862036695, -26529.15138353722, 0.016, 0.91, 0.496, 192.0, 0.0, 0.0, 0.0, 0.0, 0.0, 0.0, 0.0, 0.0, 0.0, 1.6541558141621606E9, 0.0, 2022-06-02 09:43:34.162
27.0, 27195.434534005468, -4139.900701034153, -60809.32895056355, -36674.943467967925, -11311.726130452887, -35214.256967813606, -5112.268640073376, -26523.608150912303, 0.016, 0.91, 0.496, 192.0, 0.0, 0.0, 0.0, 0.0, 0.0, 0.0, 0.0, 0.0, 0.0, 1.6541558141621656E9, 0.0, 2022-06-02 09:43:34.162
28.0, 27202.38592653107, -4130.222395685005, -60796.27553180165, -36664.43814807393, -11296.392833756547, -35199.2589472841, -5092.979084608446, -26496.987223266035, 0.008, 0.91, 0.488, 192.0, 0.0, 64.0, 28.0, 112.0, 15.0, 64.0, 0.0, 0.0, 0.0, 1.6541558141621711E9, 0.0, 2022-06-02 09:43:34.162
29.0, 27202.117705597604, -4134.558634109335, -60801.058805115084, -36671.99303769982, -11296.772813412288, -35205.53978747604, -5103.193831824521, -26499.62472911176, 0.008, 0.91, 0.488, 192.0, 0.0, 0.0, 0.0, 0.0, 0.0, 0.0, 0.0, 0.0, 0.0, 1.6541558141621764E9, 0.0, 2022-06-02 09:43:34.162
30.0, 27186.65029843453, -4156.4186401866245, -60822.40472106991, -36698.77042755728, -11320.53271776828, -35233.568875023, -5132.20639612751, -26529.48665970405, 0.008, 0.91, 0.488, 192.0, 0.0, 0.0, 0.0, 0.0, 0.0, 0.0, 0.0, 0.0, 0.0, 1.6541558141621816E9, 0.0, 2022-06-02 09:43:34.162
31.0, 27185.06332457821, -4152.820009329321, -60814.02281689916, -36694.0095059883, -11322.365560813614, -35225.87987493037, -5130.999401926923, -26516.522647919974, 0.008, 0.91, 0.488, 192.0, 0.0, 0.0, 0.0, 0.0, 0.0, 0.0, 0.0, 0.0, 0.0, 1.6541558141621866E9, 0.0, 2022-06-02 09:43:34.162
32.0, 27182.917557110497, -4144.885140047686, -60801.79641268211, -36682.61011631609, -11319.683351478978, -35211.08302010096, -5125.724390235471, -26501.301109945907, 0.008, 0.91, 0.488, 192.0, 0.0, 0.0, 0.0, 0.0, 0.0, 0.0, 0.0, 0.0, 0.0, 1.6541558141621916E9, 0.0, 2022-06-02 09:43:34.162
33.0, 27191.880606637074, -4133.86573003122, -60792.2969212886, -36672.66359003349, -11313.313104309214, -35198.49898797262, -5129.099503648223, -26481.363353891775, 0.008, 0.91, 0.488, 192.0, 0.0, 0.0, 0.0, 0.0, 0.0, 0.0, 0.0, 0.0, 0.0, 1.6541558141621985E9, 0.0, 2022-06-02 09:43:34.162
34.0, 27190.18187405847, -4138.783113811388, -60800.18708708133, -36682.855985505106, -11318.185784600471, -35211.0606683565, -5144.298689877831, -26528.190258525643, 0.008, 0.91, 0.488, 192.0, 0.0, 0.0, 0.0, 0.0, 0.0, 0.0, 0.0, 0.0, 0.0, 1.6541558141622045E9, 0.0, 2022-06-02 09:43:34.162
35.0, 27185.48800772286, -4148.237901715983, -60806.378520295446, -36695.082389722156, -11320.845642190652, -35226.17044760829, -5118.951811665513, -26526.133898035754, 0.008, 0.91, 0.488, 192.0, 0.0, 0.0, 0.0, 0.0, 0.0, 0.0, 0.0, 0.0, 0.0, 1.654155814162212E9, 0.0, 2022-06-02 09:43:34.162
36.0, 27183.94573735544, -4144.862788303231, -60796.14142133492, -36687.68396230745, -11323.438444547468, -35218.392040537845, -5110.592259239228, -26509.101868760812, 0.008, 0.91, 0.488, 192.0, 0.0, 0.0, 0.0, 0.0, 0.0, 0.0, 0.0, 0.0, 0.0, 1.6541558141622236E9, 0.0, 2022-06-02 09:43:34.162
37.0, 27187.94669961294, -4136.011497498929, -60776.673051914346, -36671.61305804409, -11316.665865977511, -35202.25408104111, -5105.5184132478735, -26498.931825033647, 0.008, 0.91, 0.488, 192.0, 0.0, 0.0, 0.0, 0.0, 0.0, 0.0, 0.0, 0.0, 0.0, 1.6541558141622343E9, 0.0, 2022-06-02 09:43:34.162
38.0, 27190.695964180944, -4129.462436373525, -60768.559368677066, -36668.68497952044, -11307.166374584005, -35198.16371180579, -5107.44066327103, -26487.308917916886, -0.002, 0.902, 0.486, 192.0, 255.0, 240.0, 28.0, 48.0, 15.0, 48.0, 0.0, 0.0, 0.0, 1.6541558141622396E9, 0.0, 2022-06-02 09:43:34.162
39.0, 27195.836865405665, -4131.876424774698, -60774.48258095772, -36678.07271219167, -11309.558011240722, -35206.47856074316, -5106.72540744846, -26504.765630336482, -0.002, 0.902, 0.486, 192.0, 0.0, 0.0, 0.0, 0.0, 0.0, 0.0, 0.0, 0.0, 0.0, 1.6541558141622448E9, 0.0, 2022-06-02 09:43:34.162
40.0, 27198.18379857347, -4138.894872533664, -60790.64289219891, -36696.1105699671, -11325.092473637162, -35225.56695050799, -5116.113140119689, -26514.28747347444, -0.002, 0.902, 0.486, 192.0, 0.0, 0.0, 0.0, 0.0, 0.0, 0.0, 0.0, 0.0, 0.0, 1.6541558141622503E9, 0.0, 2022-06-02 09:43:34.162
41.0, 27187.05262983473, -4139.990108011974, -60787.93833111982, -36690.477930364366, -11334.10022665265, -35222.4153545398, -5117.63305874265, -26503.58098788035, -0.002, 0.902, 0.486, 192.0, 0.0, 0.0, 0.0, 0.0, 0.0, 0.0, 0.0, 0.0, 0.0, 1.6541558141622555E9, 0.0, 2022-06-02 09:43:34.162
42.0, 27196.99915611734, -4118.375971123693, -60750.29799345708, -36650.51301127828, -11305.534697238767, -35184.752665132604, -5079.121003046155, -26499.647080856215, -0.002, 0.902, 0.486, 192.0, 0.0, 0.0, 0.0, 0.0, 0.0, 0.0, 0.0, 0.0, 0.0, 1.654155814162261E9, 0.0, 2022-06-02 09:43:34.162
43.0, 27210.566665001712, -4106.618953540201, -60733.86946128243, -36635.47028725986, -11287.720356907888, -35168.83822308043, -5074.225971010444, -26474.635478810727, -0.002, 0.902, 0.486, 192.0, 0.0, 0.0, 0.0, 0.0, 0.0, 0.0, 0.0, 0.0, 0.0, 1.654155814162269E9, 0.0, 2022-06-02 09:43:34.162
44.0, 27202.587092231166, -4124.187424682072, -60756.042391782095, -36660.3030753497, -11302.5172117373, -35192.97810709216, -5090.073357829257, -26476.110693944778, -0.002, 0.902, 0.486, 192.0, 0.0, 0.0, 0.0, 0.0, 0.0, 0.0, 0.0, 0.0, 0.0, 1.6541558141622744E9, 0.0, 2022-06-02 09:43:34.162
45.0, 27181.75526639882, -4149.91428255013, -60789.61471195397, -36692.1096077096, -11337.05065692075, -35224.538770263054, -5128.451303059019, -26526.983264325056, -0.002, 0.902, 0.486, 192.0, 0.0, 0.0, 0.0, 0.0, 0.0, 0.0, 0.0, 0.0, 0.0, 1.6541558141622796E9, 0.0, 2022-06-02 09:43:34.162
46.0, 27181.799969887732, -4143.3875731691805, -60789.07827008704, -36682.94539248293, -11343.309145368237, -35214.79340968054, -5139.940099709046, -26518.176677009666, -0.002, 0.902, 0.486, 192.0, 0.0, 0.0, 0.0, 0.0, 0.0, 0.0, 0.0, 0.0, 0.0, 1.6541558141622844E9, 0.0, 2022-06-02 09:43:34.162
47.0, 27182.694039665945, -4129.440084629069, -60776.248368769695, -36665.89101146353, -11333.809653974731, -35198.946022861724, -5123.288050089843, -26513.371051951774, -0.002, 0.902, 0.486, 192.0, 0.0, 0.0, 0.0, 0.0, 0.0, 0.0, 0.0, 0.0, 0.0, 1.6541558141622896E9, 0.0, 2022-06-02 09:43:34.162
48.0, 27187.074981579186, -4119.6723723021, -60769.520493688644, -36656.279761347745, -11319.929220667986, -35186.13847328883, -5112.782730195848, -26483.66558357067, -0.002, 0.906, 0.484, 192.0, 255.0, 240.0, 28.0, 80.0, 15.0, 32.0, 0.0, 0.0, 0.0, 1.6541558141622949E9, 0.0, 2022-06-02 09:43:34.162
49.0, 27198.00498461783, -4116.140796678162, -60767.75470587668, -36656.36916832557, -11306.33936003916, -35185.98201107765, -5099.975180622957, -26461.783225748924, -0.002, 0.906, 0.484, 192.0, 0.0, 0.0, 0.0, 0.0, 0.0, 0.0, 0.0, 0.0, 0.0, 1.6541558141623E9, 0.0, 2022-06-02 09:43:34.162
50.0, 27186.113856567605, -4143.946366780564, -60792.43103175534, -36685.918174495484, -11328.109959138628, -35219.375517293876, -5119.264736087887, -26518.266083987488, -0.002, 0.906, 0.484, 192.0, 0.0, 0.0, 0.0, 0.0, 0.0, 0.0, 0.0, 0.0, 0.0, 1.654155814162305E9, 0.0, 2022-06-02 09:43:34.162
51.0, 27174.93798433995, -4155.457515175047, -60796.00731086818, -36693.42836063247, -11336.447159820456, -35226.79629645304, -5131.044105415834, -26541.422491243186, -0.002, 0.906, 0.484, 192.0, 0.0, 0.0, 0.0, 0.0, 0.0, 0.0, 0.0, 0.0, 0.0, 1.65415581416231E9, 0.0, 2022-06-02 09:43:34.162
52.0, 27177.463731463402, -4141.308860934837, -60783.33387176203, -36680.48670059284, -11326.880613193585, -35212.647642212825, -5128.026619914368, -26514.935674063647, -0.002, 0.906, 0.484, 192.0, 0.0, 0.0, 0.0, 0.0, 0.0, 0.0, 0.0, 0.0, 0.0, 1.6541558141623151E9, 0.0, 2022-06-02 09:43:34.162
53.0, 27179.117760553094, -4134.7597998094325, -60779.89170311591, -36675.435206345945, -11321.516194524313, -35205.60684270941, -5113.185061596044, -26479.128179446245, -0.002, 0.906, 0.484, 192.0, 0.0, 0.0, 0.0, 0.0, 0.0, 0.0, 0.0, 0.0, 0.0, 1.6541558141623204E9, 0.0, 2022-06-02 09:43:34.162
54.0, 27192.90878688202, -4129.015401484418, -60773.29793850159, -36667.16506089748, -11310.899115908041, -35198.4095809948, -5089.201639795499, -26473.495539843505, -0.002, 0.906, 0.484, 192.0, 0.0, 0.0, 0.0, 0.0, 0.0, 0.0, 0.0, 0.0, 0.0, 1.6541558141623263E9, 0.0, 2022-06-02 09:43:34.162
55.0, 27186.85146413463, -4142.471151646513, -60788.78769740912, -36682.45365410491, -11326.522985282301, -35213.67582245777, -5111.531032506351, -26512.320519962374, -0.002, 0.906, 0.484, 192.0, 0.0, 0.0, 0.0, 0.0, 0.0, 0.0, 0.0, 0.0, 0.0, 1.654155814162332E9, 0.0, 2022-06-02 09:43:34.162
56.0, 27182.649336177034, -4142.873483046708, -60788.94415962031, -36682.11837793808, -11337.38593308758, -35213.92169164678, -5120.851709944214, -26522.62467415627, -0.002, 0.906, 0.484, 192.0, 0.0, 0.0, 0.0, 0.0, 0.0, 0.0, 0.0, 0.0, 0.0, 1.6541558141623373E9, 0.0, 2022-06-02 09:43:34.162
57.0, 27191.299461281236, -4127.271965416904, -60771.73331638972, -36665.287514363234, -11329.696932994955, -35199.504816473105, -5110.882831917147, -26511.20293273961, -0.002, 0.906, 0.484, 192.0, 0.0, 0.0, 0.0, 0.0, 0.0, 0.0, 0.0, 0.0, 0.0, 1.6541558141623423E9, 0.0, 2022-06-02 09:43:34.162
58.0, 27194.89809213854, -4123.226299670494, -60765.31836573105, -36660.52659279425, -11325.114825381617, -35193.067514069975, -5107.284201059842, -26489.074705728854, -0.006, 0.904, 0.47800000000000004, 192.0, 255.0, 208.0, 28.0, 64.0, 14.0, 240.0, 0.0, 0.0, 0.0, 1.6541558141623476E9, 0.0, 2022-06-02 09:43:34.162
59.0, 27202.587092231166, -4126.7802270388875, -60766.72652563173, -36667.52268880876, -11321.449139290946, -35197.694325172226, -5099.014055611379, -26490.080534229342, -0.006, 0.904, 0.47800000000000004, 192.0, 0.0, 0.0, 0.0, 0.0, 0.0, 0.0, 0.0, 0.0, 0.0, 1.6541558141623528E9, 0.0, 2022-06-02 09:43:34.162
60.0, 27194.696926438442, -4139.6324801006895, -60778.617653681955, -36682.94539248293, -11331.842700462665, -35209.563101477994, -5111.44162552853, -26511.314691461885, -0.006, 0.904, 0.47800000000000004, 192.0, 0.0, 0.0, 0.0, 0.0, 0.0, 0.0, 0.0, 0.0, 0.0, 1.654155814162358E9, 0.0, 2022-06-02 09:43:34.162
61.0, 27180.257699520316, -4146.986204026485, -60787.24542704171, -36693.87539552157, -11349.142950671072, -35221.744802206136, -5132.1616926386, -26537.421528985684, -0.006, 0.904, 0.47800000000000004, 192.0, 0.0, 0.0, 0.0, 0.0, 0.0, 0.0, 0.0, 0.0, 0.0, 1.6541558141623633E9, 0.0, 2022-06-02 09:43:34.162
62.0, 27178.84953961963, -4131.496445118957, -60772.71679314576, -36681.872508749075, -11344.538491313278, -35209.67486020027, -5117.163672109088, -26495.132028476244, -0.006, 0.904, 0.47800000000000004, 192.0, 0.0, 0.0, 0.0, 0.0, 0.0, 0.0, 0.0, 0.0, 0.0, 1.6541558141623683E9, 0.0, 2022-06-02 09:43:34.162
63.0, 27194.182836315973, -4105.47901457298, -60740.91026078585, -36649.73070022234, -11326.008895159828, -35179.500005185604, -5091.593276452217, -26463.280792627433, -0.006, 0.904, 0.47800000000000004, 192.0, 0.0, 0.0, 0.0, 0.0, 0.0, 0.0, 0.0, 0.0, 0.0, 1.6541558141623733E9, 0.0, 2022-06-02 09:43:34.162
64.0, 27225.855258209143, -4074.5889037357456, -60703.69460626777, -36613.47617071583, -11285.596941184634, -35148.744004815104, -5071.1190785311555, -26475.060161955378, -0.006, 0.904, 0.47800000000000004, 192.0, 0.0, 0.0, 0.0, 0.0, 0.0, 0.0, 0.0, 0.0, 0.0, 1.6541558141623805E9, 0.0, 2022-06-02 09:43:34.162
65.0, 27240.58505780519, -4074.968883391486, -60703.67225452331, -36616.89598761749, -11281.75244113832, -35152.83437405043, -5075.321206488754, -26441.085510383313, -0.006, 0.904, 0.47800000000000004, 192.0, 0.0, 0.0, 0.0, 0.0, 0.0, 0.0, 0.0, 0.0, 0.0, 1.6541558141623857E9, 0.0, 2022-06-02 09:43:34.162
66.0, 27229.163316388527, -4084.7142439739996, -60710.71305402673, -36624.62969119903, -11293.487106977356, -35160.61278112087, -5061.820752837748, -26433.977655646522, -0.006, 0.904, 0.47800000000000004, 192.0, 0.0, 0.0, 0.0, 0.0, 0.0, 0.0, 0.0, 0.0, 0.0, 1.654155814162391E9, 0.0, 2022-06-02 09:43:34.162
67.0, 27226.39170007607, -4080.221543338483, -60700.65476902184, -36615.443124227895, -11283.540580694746, -35149.81688854896, -5058.624453380639, -26453.96011518957, -0.006, 0.904, 0.47800000000000004, 192.0, 0.0, 0.0, 0.0, 0.0, 0.0, 0.0, 0.0, 0.0, 0.0, 1.654155814162396E9, 0.0, 2022-06-02 09:43:34.162
68.0, 27227.732804743388, -4075.773546191877, -60694.64214976337, -36612.20212128188, -11280.053708559717, -35142.91019951227, -5062.893636571603, -26447.969847675544, -0.014, 0.91, 0.48, 192.0, 255.0, 144.0, 28.0, 112.0, 15.0, 0.0, 0.0, 0.0, 0.0, 1.6541558141624012E9, 0.0, 2022-06-02 09:43:34.162
69.0, 27230.079737911194, -4083.4401945400473, -60704.85689697944, -36625.590816210606, -11289.396737742036, -35154.10842348438, -5052.969462033447, -26451.65788551067, -0.014, 0.91, 0.48, 192.0, 0.0, 0.0, 0.0, 0.0, 0.0, 0.0, 0.0, 0.0, 0.0, 1.6541558141624064E9, 0.0, 2022-06-02 09:43:34.162
70.0, 27216.46752553791, -4102.4168255826025, -60722.82769952151, -36648.00961589928, -11307.613409473111, -35176.43781619523, -5051.471895154941, -26474.322554388353, -0.014, 0.91, 0.48, 192.0, 0.0, 0.0, 0.0, 0.0, 0.0, 0.0, 0.0, 0.0, 0.0, 1.6541558141624117E9, 0.0, 2022-06-02 09:43:34.162
71.0, 27210.85723767963, -4098.974656936486, -60720.70428379826, -36643.91924666396, -11315.324761310192, -35169.553478903, -5067.408688951575, -26450.406187821172, -0.014, 0.91, 0.48, 192.0, 0.0, 0.0, 0.0, 0.0, 0.0, 0.0, 0.0, 0.0, 0.0, 1.6541558141624167E9, 0.0, 2022-06-02 09:43:34.162
72.0, 27209.180856845484, -4091.084491143762, -60713.79759476156, -36633.48098200333, -11310.519136252302, -35162.937362544224, -5069.688566886016, -26465.60537405078, -0.014, 0.91, 0.48, 192.0, 0.0, 0.0, 0.0, 0.0, 0.0, 0.0, 0.0, 0.0, 0.0, 1.6541558141624217E9, 0.0, 2022-06-02 09:43:34.162
73.0, 27216.847505193655, -4083.5296015178683, -60706.91325746933, -36625.367298766054, -11302.539563481756, -35161.39509217681, -5071.364947720164, -26476.803598022892, -0.014, 0.91, 0.48, 192.0, 0.0, 0.0, 0.0, 0.0, 0.0, 0.0, 0.0, 0.0, 0.0, 1.6541558141624267E9, 0.0, 2022-06-02 09:43:34.162
74.0, 27209.359670801125, -4098.348808091737, -60726.91806875683, -36644.5003920198, -11311.234392074872, -35180.05879879699, -5080.037424568824, -26492.15924646369, -0.014, 0.91, 0.48, 192.0, 0.0, 0.0, 0.0, 0.0, 0.0, 0.0, 0.0, 0.0, 0.0, 1.654155814162432E9, 0.0, 2022-06-02 09:43:34.162
75.0, 27203.436458520468, -4111.29046813136, -60741.35729567496, -36659.11843289357, -11322.320857324703, -35196.93436586075, -5079.702148401993, -26501.81520006838, -0.014, 0.91, 0.48, 192.0, 0.0, 0.0, 0.0, 0.0, 0.0, 0.0, 0.0, 0.0, 0.0, 1.6541558141624372E9, 0.0, 2022-06-02 09:43:34.162
76.0, 27211.058403379728, -4105.903697717631, -60735.07645548302, -36651.2506188453, -11321.516194524313, -35194.87800537086, -5077.824601867748, -26488.650022584203, -0.014, 0.91, 0.48, 192.0, 0.0, 0.0, 0.0, 0.0, 0.0, 0.0, 0.0, 0.0, 0.0, 1.6541558141624424E9, 0.0, 2022-06-02 09:43:34.162
77.0, 27213.38298480308, -4104.540241305857, -60728.16976644633, -36643.36045305258, -11316.28588632177, -35187.36781923388, -5075.9917588224125, -26471.19331016461, -0.014, 0.91, 0.48, 192.0, 0.0, 0.0, 0.0, 0.0, 0.0, 0.0, 0.0, 0.0, 0.0, 1.6541558141624477E9, 0.0, 2022-06-02 09:43:34.162
78.0, 27219.060327894727, -4094.5266597898794, -60717.44092910778, -36628.20597031188, -11303.768909426799, -35170.4028451923, -5071.342595975709, -26447.969847675544, -0.004, 0.91, 0.482, 192.0, 255.0, 224.0, 28.0, 112.0, 15.0, 16.0, 0.0, 0.0, 0.0, 1.6541558141624527E9, 0.0, 2022-06-02 09:43:34.162
79.0, 27210.96899640191, -4106.730712262477, -60736.752836317166, -36643.09223211911, -11315.950610154941, -35184.21622326568, -5084.932456604535, -26480.961022491578, -0.004, 0.91, 0.482, 192.0, 0.0, 0.0, 0.0, 0.0, 0.0, 0.0, 0.0, 0.0, 0.0, 1.6541558141624584E9, 0.0, 2022-06-02 09:43:34.162
80.0, 27206.699813210944, -4113.52564257689, -60751.12500800193, -36655.76567122527, -11328.66875275001, -35197.71667691668, -5087.189982794522, -26499.71413608958, -0.004, 0.91, 0.482, 192.0, 0.0, 0.0, 0.0, 0.0, 0.0, 0.0, 0.0, 0.0, 0.0, 1.6541558141624649E9, 0.0, 2022-06-02 09:43:34.162
81.0, 27202.251816064338, -4113.816215254809, -60753.516644658645, -36655.81037471419, -11329.786339972776, -35197.04612458302, -5097.896468388613, -26489.454685384597, -0.004, 0.91, 0.482, 192.0, 0.0, 0.0, 0.0, 0.0, 0.0, 0.0, 0.0, 0.0, 0.0, 1.6541558141624725E9, 0.0, 2022-06-02 09:43:34.162
82.0, 27207.839752178166, -4102.752101749433, -60741.983144519705, -36642.511086763276, -11310.47443276339, -35186.652563411306, -5086.117099060667, -26489.47703712905, -0.004, 0.91, 0.482, 192.0, 0.0, 0.0, 0.0, 0.0, 0.0, 0.0, 0.0, 0.0, 0.0, 1.6541558141624775E9, 0.0, 2022-06-02 09:43:34.162
83.0, 27211.99717664685, -4099.399340081137, -60742.139606730896, -36639.225380328346, -11310.42972927448, -35184.46209245468, -5086.877058372147, -26482.883272514737, -0.004, 0.91, 0.482, 192.0, 0.0, 0.0, 0.0, 0.0, 0.0, 0.0, 0.0, 0.0, 0.0, 1.6541558141624837E9, 0.0, 2022-06-02 09:43:34.162
84.0, 27207.951510900442, -4106.842470984754, -60749.22510972323, -36643.58397049713, -11308.239258317859, -35182.8527668539, -5071.655520398083, -26438.04567313739, -0.004, 0.91, 0.482, 192.0, 0.0, 0.0, 0.0, 0.0, 0.0, 0.0, 0.0, 0.0, 0.0, 1.6541558141624892E9, 0.0, 2022-06-02 09:43:34.162
85.0, 27201.871836408598, -4116.543128078357, -60761.920900573845, -36651.98822641232, -11321.00210440184, -35190.072380312966, -5091.503869474396, -26482.883272514737, -0.004, 0.91, 0.482, 192.0, 0.0, 0.0, 0.0, 0.0, 0.0, 0.0, 0.0, 0.0, 0.0, 1.654155814162495E9, 0.0, 2022-06-02 09:43:34.162
86.0, 27202.989423631363, -4106.864822729209, -60754.65658362587, -36645.863848431574, -11317.828156689187, -35188.26188901209, -5088.57579095075, -26496.04844999891, -0.004, 0.91, 0.482, 192.0, 0.0, 0.0, 0.0, 0.0, 0.0, 0.0, 0.0, 0.0, 0.0, 1.6541558141625059E9, 0.0, 2022-06-02 09:43:34.162
87.0, 27200.128400341084, -4105.411959339614, -60749.15805448986, -36640.07474661765, -11308.060444362218, -35184.48444419914, -5075.142392533111, -26467.169996162655, -0.004, 0.91, 0.482, 192.0, 0.0, 0.0, 0.0, 0.0, 0.0, 0.0, 0.0, 0.0, 0.0, 1.654155814162512E9, 0.0, 2022-06-02 09:43:34.162
88.0, 27200.888359652563, -4107.334209362771, -60749.962717290255, -36638.28660706122, -11301.198458814439, -35180.46113019718, -5067.0957645292, -26486.61601383877, -0.004, 0.91, 0.482, 192.0, 0.0, 0.0, 28.0, 128.0, 15.0, 0.0, 0.0, 0.0, 0.0, 1.6541558141625187E9, 0.0, 2022-06-02 09:43:34.162
89.0, 27199.122571840595, -4117.660715301123, -60760.35627846197, -36652.368206068066, -11309.893287407553, -35190.49706345762, -5081.892619358614, -26492.29335693042, -0.004, 0.91, 0.482, 192.0, 0.0, 0.0, 0.0, 0.0, 0.0, 0.0, 0.0, 0.0, 0.0, 1.6541558141625247E9, 0.0, 2022-06-02 09:43:34.162
90.0, 27196.060382850217, -4125.10384620474, -60767.93351983232, -36664.661665518484, -11320.398607301548, -35199.59422345093, -5091.213296796477, -26486.168978949667, -0.004, 0.91, 0.482, 192.0, 0.0, 0.0, 0.0, 0.0, 0.0, 0.0, 0.0, 0.0, 0.0, 1.6541558141625328E9, 0.0, 2022-06-02 09:43:34.162
91.0, 27197.401487517534, -4117.772474023399, -60759.57396740603, -36660.03485441623, -11317.492880522357, -35196.73320016065, -5088.195811295011, -26500.116467489777, -0.004, 0.91, 0.482, 192.0, 0.0, 0.0, 0.0, 0.0, 0.0, 0.0, 0.0, 0.0, 0.0, 1.6541558141625452E9, 0.0, 2022-06-02 09:43:34.162
92.0, 27203.637624220566, -4109.345866363748, -60750.61091787946, -36652.81524095717, -11309.893287407553, -35188.954793090204, -5092.1520700636, -26499.848246556314, -0.004, 0.91, 0.482, 192.0, 0.0, 0.0, 0.0, 0.0, 0.0, 0.0, 0.0, 0.0, 0.0, 1.654155814162552E9, 0.0, 2022-06-02 09:43:34.162
93.0, 27196.887397395065, -4111.312819875815, -60748.487502156204, -36648.61311299958, -11305.668807705499, -35184.32798198795, -5084.57482869325, -26467.125292673743, -0.004, 0.91, 0.482, 192.0, 0.0, 0.0, 0.0, 0.0, 0.0, 0.0, 0.0, 0.0, 0.0, 1.6541558141625583E9, 0.0, 2022-06-02 09:43:34.162
94.0, 27196.552121228233, -4120.588793824768, -60754.41071443686, -36656.9503136814, -11306.987560628362, -35194.2074530372, -5089.000474095402, -26476.602432322794, -0.004, 0.91, 0.482, 192.0, 0.0, 0.0, 0.0, 0.0, 0.0, 0.0, 0.0, 0.0, 0.0, 1.6541558141625648E9, 0.0, 2022-06-02 09:43:34.162
95.0, 27194.361650271614, -4131.183520696583, -60763.48552268571, -36671.32248536617, -11315.727092710387, -35207.37263052138, -5097.404730010597, -26512.879313573758, -0.004, 0.91, 0.482, 192.0, 0.0, 0.0, 0.0, 0.0, 0.0, 0.0, 0.0, 0.0, 0.0, 1.654155814162573E9, 0.0, 2022-06-02 09:43:34.162
96.0, 27195.233368305373, -4124.545052593357, -60759.529263917124, -36665.62279053006, -11317.00114214434, -35197.761380405595, -5103.327942291253, -26528.078499803367, -0.004, 0.91, 0.482, 192.0, 0.0, 0.0, 0.0, 0.0, 0.0, 0.0, 0.0, 0.0, 0.0, 1.6541558141625783E9, 0.0, 2022-06-02 09:43:34.162
97.0, 27199.927234640985, -4109.345866363748, -60751.32617370203, -36653.59755201311, -11307.94868563994, -35183.79154012103, -5091.392110752119, -26477.228281167543, -0.004, 0.91, 0.482, 192.0, 0.0, 0.0, 0.0, 0.0, 0.0, 0.0, 0.0, 0.0, 0.0, 1.6541558141625843E9, 0.0, 2022-06-02 09:43:34.162
98.0, 27193.311118282214, -4111.715151276011, -60755.46124642626, -36652.52466827926, -11309.42390077399, -35181.466958697674, -5084.373662993153, -26436.570458003338, -0.002, 0.914, 0.482, 192.0, 255.0, 240.0, 28.0, 144.0, 15.0, 16.0, 0.0, 0.0, 0.0, 1.65415581416259E9, 0.0, 2022-06-02 09:43:34.162
99.0, 27199.077868351684, -4112.475110587491, -60754.05308652557, -36646.17677285395, -11306.607580972623, -35174.64967663881, -5076.7517181338935, -26463.034923438423, -0.002, 0.914, 0.482, 192.0, 0.0, 0.0, 0.0, 0.0, 0.0, 0.0, 0.0, 0.0, 0.0, 1.6541558141625955E9, 0.0, 2022-06-02 09:43:34.162
100.0, 27208.309138811725, -4109.189404152561, -60754.433066181315, -36646.08736587613, -11302.204287314928, -35178.71769412967, -5066.671081384549, -26506.53141814845, -0.002, 0.914, 0.482, 192.0, 0.0, 0.0, 0.0, 0.0, 0.0, 0.0, 0.0, 0.0, 0.0, 1.654155814162601E9, 0.0, 2022-06-02 09:43:34.162
101.0, 27195.34512702765, -4114.486767588469, -60763.530226174626, -36655.720967736364, -11311.971999641895, -35187.144301789325, -5069.845029097203, -26498.685955844638, -0.002, 0.914, 0.482, 192.0, 0.0, 0.0, 0.0, 0.0, 0.0, 0.0, 0.0, 0.0, 0.0, 1.6541558141626065E9, 0.0, 2022-06-02 09:43:34.162
102.0, 27197.96028112892, -4105.0543314283295, -60756.198853993286, -36642.82401118565, -11307.322836795192, -35171.22985973714, -5055.80813357927, -26467.304106629384, -0.002, 0.914, 0.482, 192.0, 0.0, 0.0, 0.0, 0.0, 0.0, 0.0, 0.0, 0.0, 0.0, 1.654155814162612E9, 0.0, 2022-06-02 09:43:34.162
103.0, 27203.32469979819, -4097.678255758078, -60751.19206323529, -36632.34104303611, -11295.94579886744, -35158.91404854227, -5050.6895840990055, -26465.918298473156, -0.002, 0.914, 0.482, 192.0, 0.0, 0.0, 0.0, 0.0, 0.0, 0.0, 0.0, 0.0, 0.0, 1.6541558141626172E9, 0.0, 2022-06-02 09:43:34.162
104.0, 27188.259624035316, -4113.391532110159, -60772.046240812095, -36651.63059850104, -11310.340322296659, -35179.790577863525, -5071.43200295353, -26490.885197029736, -0.002, 0.914, 0.482, 192.0, 0.0, 0.0, 0.0, 0.0, 0.0, 0.0, 0.0, 0.0, 0.0, 1.6541558141626227E9, 0.0, 2022-06-02 09:43:34.162
105.0, 27180.70473440942, -4123.6062793262345, -60787.021909597155, -36665.98041844135, -11323.438444547468, -35194.87800537086, -5081.669101914061, -26511.158229250697, -0.002, 0.914, 0.482, 192.0, 0.0, 0.0, 0.0, 0.0, 0.0, 0.0, 0.0, 0.0, 0.0, 1.6541558146417727E9, 0.0, 2022-06-02 09:43:34.641
106.0, 27189.33250776917, -4115.894927489153, -60779.62348218245, -36657.01736891477, -11323.371389314103, -35188.1054268009, -5086.631189183139, -26493.276833686454, -0.002, 0.914, 0.482, 192.0, 0.0, 0.0, 0.0, 0.0, 0.0, 0.0, 0.0, 0.0, 0.0, 1.6541558146419945E9, 0.0, 2022-06-02 09:43:34.641
107.0, 27196.172141572493, -4110.530508819879, -60773.96849083525, -36650.758880467285, -11317.626990989089, -35178.87415634086, -5083.904276359592, -26455.882365212725, 0.002, 0.91, 0.484, 192.0, 0.0, 16.0, 28.0, 112.0, 15.0, 32.0, 0.0, 0.0, 0.0, 1.6541558146420095E9, 0.0, 2022-06-02 09:43:34.642
108.0, 27200.754249185833, -4103.266191871905, -60770.83924661151, -36646.06501413167, -11309.356845540626, -35169.039388780526, -5080.976197835947, -26476.110693944778, 0.002, 0.91, 0.484, 192.0, 0.0, 0.0, 0.0, 0.0, 0.0, 0.0, 0.0, 0.0, 0.0, 1.6541558146420164E9, 0.0, 2022-06-02 09:43:34.642
109.0, 27203.48116200938, -4106.887174473664, -60772.76149663467, -36647.22730484335, -11303.813612915708, -35172.794481849014, -5074.7624128773705, -26484.91728126017, 0.002, 0.91, 0.484, 192.0, 0.0, 0.0, 0.0, 0.0, 0.0, 0.0, 0.0, 0.0, 0.0, 1.6541558146420217E9, 0.0, 2022-06-02 09:43:34.642
110.0, 27194.942795627452, -4124.947383993553, -60792.60984571098, -36666.405101586, -11318.05167413374, -35195.7050199157, -5092.464994485974, -26503.06689775788, 0.002, 0.91, 0.484, 192.0, 0.0, 0.0, 0.0, 0.0, 0.0, 0.0, 0.0, 0.0, 0.0, 1.654155814642027E9, 0.0, 2022-06-02 09:43:34.642
111.0, 27189.980708358373, -4127.227261927994, -60795.62733121245, -36667.455633575395, -11323.974886414397, -35200.39888625132, -5099.7069596894935, -26519.026043298967, 0.002, 0.91, 0.484, 192.0, 0.0, 0.0, 0.0, 0.0, 0.0, 0.0, 0.0, 0.0, 0.0, 1.6541558146420321E9, 0.0, 2022-06-02 09:43:34.642
112.0, 27194.540464227255, -4116.878404245187, -60780.450496727295, -36654.64808400251, -11307.009912372818, -35185.37851397735, -5071.990796564913, -26501.256406456996, 0.002, 0.91, 0.484, 192.0, 0.0, 0.0, 0.0, 0.0, 0.0, 0.0, 0.0, 0.0, 0.0, 1.6541558146420372E9, 0.0, 2022-06-02 09:43:34.642
113.0, 27197.848522406643, -4112.206889654028, -60774.05789781307, -36650.87063918956, -11299.276208791282, -35178.87415634086, -5067.408688951575, -26463.61606879426, 0.002, 0.91, 0.484, 192.0, 0.0, 0.0, 0.0, 0.0, 0.0, 0.0, 0.0, 0.0, 0.0, 1.6541558146420424E9, 0.0, 2022-06-02 09:43:34.642
114.0, 27188.729010668878, -4124.880328760187, -60788.832400898034, -36666.31569460818, -11305.266476305304, -35196.06264782699, -5080.238590268921, -26468.555804318883, 0.002, 0.91, 0.484, 192.0, 0.0, 0.0, 0.0, 0.0, 0.0, 0.0, 0.0, 0.0, 0.0, 1.6541558146420476E9, 0.0, 2022-06-02 09:43:34.642
115.0, 27196.797990417243, -4128.188386939572, -60797.39311902441, -36673.44590108942, -11317.269363077803, -35205.13745607584, -5109.273506316365, -26505.190313481133, 0.002, 0.91, 0.484, 192.0, 0.0, 0.0, 0.0, 0.0, 0.0, 0.0, 0.0, 0.0, 0.0, 1.654155814642053E9, 0.0, 2022-06-02 09:43:34.642
116.0, 27193.981670615874, -4123.829796770787, -60796.879028901945, -36673.71412202289, -11322.544374769257, -35205.98682236514, -5115.509643019395, -26523.786964867948, 0.002, 0.91, 0.484, 192.0, 0.0, 0.0, 0.0, 0.0, 0.0, 0.0, 0.0, 0.0, 0.0, 1.6541558146420581E9, 0.0, 2022-06-02 09:43:34.642
117.0, 27181.352934998624, -4130.58002359629, -60799.449479514304, -36677.91624998048, -11323.237278847371, -35210.23365381166, -5099.5281457338515, -26498.596548866815, -0.002, 0.906, 0.484, 192.0, 255.0, 240.0, 28.0, 80.0, 15.0, 32.0, 0.0, 0.0, 0.0, 1.6541558146420636E9, 0.0, 2022-06-02 09:43:34.642
118.0, 27180.70473440942, -4125.975564238496, -60791.4475549993, -36667.72385450886, -11312.463738019913, -35196.88966237184, -5079.299817001798, -26483.86674927077, -0.002, 0.906, 0.484, 192.0, 0.0, 0.0, 0.0, 0.0, 0.0, 0.0, 0.0, 0.0, 0.0, 1.6541558146420686E9, 0.0, 2022-06-02 09:43:34.642
119.0, 27180.056533820218, -4125.617936327211, -60791.760479421675, -36666.561563797186, -11309.736825196365, -35197.6049181944, -5082.853744370192, -26515.82974384186, -0.002, 0.906, 0.484, 192.0, 0.0, 0.0, 0.0, 0.0, 0.0, 0.0, 0.0, 0.0, 0.0, 1.6541558146420739E9, 0.0, 2022-06-02 09:43:34.642
120.0, 27167.316039480695, -4143.365221424726, -60808.613694740976, -36687.86277626309, -11326.500633537846, -35218.57085449348, -5094.320189275764, -26522.557618922907, -0.002, 0.906, 0.484, 192.0, 0.0, 0.0, 0.0, 0.0, 0.0, 0.0, 0.0, 0.0, 0.0, 1.654155814642079E9, 0.0, 2022-06-02 09:43:34.642
121.0, 27180.972955342884, -4133.262232930927, -60797.5495812356, -36678.07271219167, -11321.650304991044, -35207.43968575474, -5097.136509077133, -26510.06299377239, -0.002, 0.906, 0.484, 192.0, 0.0, 0.0, 0.0, 0.0, 0.0, 0.0, 0.0, 0.0, 0.0, 1.6541558146420844E9, 0.0, 2022-06-02 09:43:34.642
122.0, 27187.387906001557, -4125.528529349391, -60787.156020063885, -36667.58974404213, -11315.548278754744, -35196.53203446055, -5096.376549765653, -26496.786057565936, -0.002, 0.906, 0.484, 192.0, 0.0, 0.0, 0.0, 0.0, 0.0, 0.0, 0.0, 0.0, 0.0, 1.6541558146420898E9, 0.0, 2022-06-02 09:43:34.642
123.0, 27182.93990885495, -4130.803541040843, -60790.12880207644, -36670.58487779914, -11325.226584103893, -35200.421237995775, -5103.104424846701, -26479.709324802083, -0.002, 0.906, 0.484, 192.0, 0.0, 0.0, 0.0, 0.0, 0.0, 0.0, 0.0, 0.0, 0.0, 1.654155814642095E9, 0.0, 2022-06-02 09:43:34.642
124.0, 27177.754304141323, -4138.827817300298, -60795.76144167918, -36680.24083140383, -11325.919488182008, -35208.043182855035, -5096.287142787832, -26507.693708860126, -0.002, 0.906, 0.484, 192.0, 0.0, 0.0, 0.0, 0.0, 0.0, 0.0, 0.0, 0.0, 0.0, 1.6541558146421E9, 0.0, 2022-06-02 09:43:34.642
125.0, 27175.630888418065, -4144.0357737583845, -60800.96939813726, -36689.04741871922, -11330.345133584158, -35219.420220782784, -5099.416387011574, -26537.48858421905, -0.002, 0.906, 0.484, 192.0, 0.0, 0.0, 0.0, 0.0, 0.0, 0.0, 0.0, 0.0, 0.0, 1.6541558146421053E9, 0.0, 2022-06-02 09:43:34.642
126.0, 27173.798045372732, -4137.442009144069, -60793.19099106682, -36682.431302360455, -11326.590040515666, -35212.62529046837, -5084.284256015331, -26502.508104146495, -0.002, 0.906, 0.484, 192.0, 0.0, 0.0, 0.0, 0.0, 0.0, 0.0, 0.0, 0.0, 0.0, 1.6541558146421106E9, 0.0, 2022-06-02 09:43:34.642
127.0, 27175.720295395888, -4125.796750282854, -60778.7964676376, -36666.04747367471, -11315.592982243656, -35192.73223790315, -5073.331901232231, -26478.703496301594, -0.002, 0.906, 0.47800000000000004, 192.0, 255.0, 240.0, 28.0, 80.0, 14.0, 240.0, 0.0, 0.0, 0.0, 1.6541558146421156E9, 0.0, 2022-06-02 09:43:34.642
128.0, 27186.22561528988, -4120.76760778041, -60772.71679314576, -36659.67722650495, -11308.127499595583, -35188.84303436793, -5080.1491832911, -26476.624784067248, -0.002, 0.906, 0.47800000000000004, 192.0, 0.0, 0.0, 0.0, 0.0, 0.0, 0.0, 0.0, 0.0, 0.0, 1.6541558146421256E9, 0.0, 2022-06-02 09:43:34.642
129.0, 27187.34320251265, -4129.305974162337, -60782.529208961634, -36672.48477607784, -11314.251877576336, -35200.845921140426, -5088.195811295011, -26509.86182807229, -0.002, 0.906, 0.47800000000000004, 192.0, 0.0, 0.0, 0.0, 0.0, 0.0, 0.0, 0.0, 0.0, 0.0, 1.6541558146421309E9, 0.0, 2022-06-02 09:43:34.642
130.0, 27165.729065624368, -4148.170846482617, -60803.04811037161, -36692.26606992079, -11339.688162766477, -35218.235578326654, -5114.01207614089, -26514.801563596913, -0.002, 0.906, 0.47800000000000004, 192.0, 0.0, 0.0, 0.0, 0.0, 0.0, 0.0, 0.0, 0.0, 0.0, 1.654155814642136E9, 0.0, 2022-06-02 09:43:34.642
131.0, 27167.38309471406, -4147.276776704404, -60801.908171404386, -36692.154311198516, -11345.76783725832, -35218.28028181556, -5114.839090685737, -26506.017328025977, -0.002, 0.906, 0.47800000000000004, 192.0, 0.0, 0.0, 0.0, 0.0, 0.0, 0.0, 0.0, 0.0, 0.0, 1.654155814642141E9, 0.0, 2022-06-02 09:43:34.642
132.0, 27183.81162688871, -4132.412866641625, -60784.38440375143, -36675.703427279404, -11325.85243294864, -35199.16954030628, -5092.420290997064, -26509.928883305656, -0.002, 0.906, 0.47800000000000004, 192.0, 0.0, 0.0, 0.0, 0.0, 0.0, 0.0, 0.0, 0.0, 0.0, 1.654155814642146E9, 0.0, 2022-06-02 09:43:34.642
133.0, 27187.969051357395, -4122.242822914461, -60778.3941362374, -36670.048435932214, -11315.660037477022, -35189.67004891277, -5096.7118259324825, -26492.025135996955, -0.002, 0.906, 0.47800000000000004, 192.0, 0.0, 0.0, 0.0, 0.0, 0.0, 0.0, 0.0, 0.0, 0.0, 1.6541558146421514E9, 0.0, 2022-06-02 09:43:34.642
134.0, 27183.14107455505, -4133.9998404979515, -60788.22890379774, -36681.13490118205, -11312.553144997733, -35199.54951996202, -5089.201639795499, -26484.112618459778, -0.002, 0.906, 0.47800000000000004, 192.0, 0.0, 0.0, 0.0, 0.0, 0.0, 0.0, 0.0, 0.0, 0.0, 1.6541558146421564E9, 0.0, 2022-06-02 09:43:34.642
135.0, 27179.251871019827, -4144.952195281052, -60795.71673819027, -36690.70144780892, -11321.650304991044, -35210.05483985601, -5085.066567071267, -26492.785095308438, -0.002, 0.906, 0.47800000000000004, 192.0, 0.0, 0.0, 0.0, 0.0, 0.0, 0.0, 0.0, 0.0, 0.0, 1.6541558146421616E9, 0.0, 2022-06-02 09:43:34.642
136.0, 27188.95252811343, -4127.786055539376, -60780.226979282736, -36675.144633668024, -11322.76789221381, -35196.33086876045, -5087.413500239075, -26500.317633189876, -0.002, 0.906, 0.47800000000000004, 192.0, 0.0, 0.0, 0.0, 0.0, 0.0, 0.0, 0.0, 0.0, 0.0, 1.6541558146421669E9, 0.0, 2022-06-02 09:43:34.642
137.0, 27184.392772244548, -4125.260308415926, -60779.243502526704, -36670.24960163231, -11319.52688926779, -35188.28424075654, -5096.555363721295, -26485.72194406056, -0.002, 0.91, 0.47800000000000004, 192.0, 255.0, 240.0, 28.0, 112.0, 14.0, 240.0, 0.0, 0.0, 0.0, 1.654155814642172E9, 0.0, 2022-06-02 09:43:34.642
138.0, 27171.339353482646, -4135.296241676359, -60789.90528463189, -36681.06784594868, -11322.991409658362, -35197.470807727674, -5082.138488547622, -26482.43623762563, -0.002, 0.91, 0.47800000000000004, 192.0, 0.0, 0.0, 0.0, 0.0, 0.0, 0.0, 0.0, 0.0, 0.0, 1.6541558146421773E9, 0.0, 2022-06-02 09:43:34.642
139.0, 27177.6648971635, -4133.9998404979515, -60786.70898517478, -36681.91721223798, -11311.815537430708, -35199.39305775083, -5062.6701191270495, -26502.418697168672, -0.002, 0.91, 0.47800000000000004, 192.0, 0.0, 0.0, 0.0, 0.0, 0.0, 0.0, 0.0, 0.0, 0.0, 1.6541558146421826E9, 0.0, 2022-06-02 09:43:34.642
140.0, 27177.933118096964, -4139.073686489307, -60794.88972364542, -36685.89582275103, -11320.130386368082, -35205.98682236514, -5085.938285105024, -26518.66841538768, -0.002, 0.91, 0.47800000000000004, 192.0, 0.0, 0.0, 0.0, 0.0, 0.0, 0.0, 0.0, 0.0, 0.0, 1.6541558146421876E9, 0.0, 2022-06-02 09:43:34.642
141.0, 27177.70960065241, -4141.465323146024, -60800.67882545934, -36687.192223929436, -11330.032209161784, -35210.121895089374, -5098.790538166826, -26518.1096217763, -0.002, 0.91, 0.47800000000000004, 192.0, 0.0, 0.0, 0.0, 0.0, 0.0, 0.0, 0.0, 0.0, 0.0, 1.654155814642193E9, 0.0, 2022-06-02 09:43:34.642
