%OpenBCI Raw EEG Data
%Number of channels = 8
%Sample Rate = 250 Hz
%Board = OpenBCI_GUI$BoardCytonSerial
Sample Index, EXG Channel 0, EXG Channel 1, EXG Channel 2, EXG Channel 3, EXG Channel 4, EXG Channel 5, EXG Channel 6, EXG Channel 7, Accel Channel 0, Accel Channel 1, Accel Channel 2, Other, Other, Other, Other, Other, Other, Other, Analog Channel 0, Analog Channel 1, Analog Channel 2, Timestamp, Other, Timestamp (Formatted)
0.0, 0.0, 0.0, 0.0, 0.0, 0.0, 0.0, 0.0, 0.0, 0.0, 0.0, 0.0, 192.0, 0.0, 0.0, 0.0, 0.0, 0.0, 0.0, 0.0, 0.0, 0.0, 1.6546753504063702E9, 0.0, 2022-06-08 10:02:30.406
1.0, 40396.285402331996, 30092.757057280192, -21794.426059058438, -11838.847319942393, 15891.173886200653, 13732.95649682957, 39474.05242610603, 11999.690473042783, -0.1, 0.972, 0.152, 192.0, 252.0, 224.0, 30.0, 96.0, 4.0, 192.0, 0.0, 0.0, 0.0, 1.654675350893546E9, 0.0, 2022-06-08 10:02:30.893
2.0, 40434.05985046147, 30123.624816372972, -21755.77989289521, -11798.502421200565, 15937.48670071205, 13772.116753115268, 39414.86500678838, 12028.323057690031, -0.1, 0.972, 0.152, 192.0, 0.0, 0.0, 0.0, 0.0, 0.0, 0.0, 0.0, 0.0, 0.0, 1.6546753508935604E9, 0.0, 2022-06-08 10:02:30.893
3.0, 40438.23962667461, 30134.040729289143, -21778.332803050616, -11816.3391132759, 15930.892936097734, 13760.560901231875, 39445.46454494769, 12081.855485660493, -0.1, 0.972, 0.152, 192.0, 0.0, 0.0, 0.0, 0.0, 0.0, 0.0, 0.0, 0.0, 0.0, 1.6546753508935668E9, 0.0, 2022-06-08 10:02:30.893
4.0, 40362.91424786022, 30070.67353375835, -21874.691173397445, -11913.345684211932, 15841.575365254328, 13665.051897174348, 39530.7811535336, 12048.14905502189, -0.1, 0.972, 0.152, 192.0, 0.0, 0.0, 0.0, 0.0, 0.0, 0.0, 0.0, 0.0, 0.0, 1.654675350893573E9, 0.0, 2022-06-08 10:02:30.893
5.0, 40355.47111695661, 30054.84849868399, -21868.18681576095, -11907.601285886918, 15829.37131278173, 13666.124780908202, 39546.87440954142, 11994.79544100707, -0.1, 0.972, 0.152, 192.0, 0.0, 0.0, 0.0, 0.0, 0.0, 0.0, 0.0, 0.0, 0.0, 1.6546753508935792E9, 0.0, 2022-06-08 10:02:30.893
6.0, 40405.7401902366, 30095.014583470176, -21791.207407856873, -11836.701552474684, 15894.794868802413, 13735.638706164207, 39471.23610630466, 11994.750737518161, -0.1, 0.972, 0.152, 192.0, 0.0, 0.0, 0.0, 0.0, 0.0, 0.0, 0.0, 0.0, 0.0, 1.654675350893588E9, 0.0, 2022-06-08 10:02:30.893
7.0, 40453.21529545967, 30140.053348547623, -21737.67497988641, -11779.704604113651, 15957.245642810542, 13783.985529421036, 39411.199320697706, 12036.369685693942, -0.1, 0.972, 0.152, 192.0, 0.0, 0.0, 0.0, 0.0, 0.0, 0.0, 0.0, 0.0, 0.0, 1.6546753508935933E9, 0.0, 2022-06-08 10:02:30.893
8.0, 40414.90440546327, 30115.645243602426, -21802.472687062345, -11844.234090356123, 15907.043624763923, 13723.702874625073, 39448.32556823797, 12052.66410740186, -0.084, 0.972, 0.23600000000000002, 192.0, 253.0, 96.0, 30.0, 96.0, 7.0, 96.0, 0.0, 0.0, 0.0, 1.6546753508935995E9, 0.0, 2022-06-08 10:02:30.893
9.0, 40380.639181213286, 30088.063190944576, -21849.6572196075, -11898.101794493414, 15859.881443963224, 13674.931368223593, 39525.43908660878, 12041.108255518468, -0.084, 0.972, 0.23600000000000002, 192.0, 0.0, 0.0, 0.0, 0.0, 0.0, 0.0, 0.0, 0.0, 0.0, 1.6546753508936055E9, 0.0, 2022-06-08 10:02:30.893
10.0, 40371.00557935305, 30066.225536611742, -21849.143129485026, -11905.008483530102, 15842.380028054718, 13668.449362331554, 39542.64992983937, 11987.262903125633, -0.084, 0.972, 0.23600000000000002, 192.0, 0.0, 0.0, 0.0, 0.0, 0.0, 0.0, 0.0, 0.0, 0.0, 1.6546753508936117E9, 0.0, 2022-06-08 10:02:30.893
11.0, 40421.81109449996, 30106.704545820303, -21770.196768068883, -11829.14666284879, 15909.502316654005, 13740.354924244277, 39469.224449303685, 11985.89944671386, -0.084, 0.972, 0.23600000000000002, 192.0, 0.0, 0.0, 0.0, 0.0, 0.0, 0.0, 0.0, 0.0, 0.0, 1.6546753508936174E9, 0.0, 2022-06-08 10:02:30.893
12.0, 40454.869324549356, 30139.33809272505, -21735.283343229694, -11790.299330985466, 15955.032820109467, 13783.314977087377, 39409.299422419004, 12044.818645098048, -0.084, 0.972, 0.23600000000000002, 192.0, 0.0, 0.0, 0.0, 0.0, 0.0, 0.0, 0.0, 0.0, 0.0, 1.654675350893623E9, 0.0, 2022-06-08 10:02:30.893
13.0, 40433.65751906127, 30126.038804774144, -21783.518407764248, -11832.097093116892, 15925.953200573113, 13743.215947534556, 39441.9106175793, 12075.284072790631, -0.084, 0.972, 0.23600000000000002, 192.0, 0.0, 0.0, 0.0, 0.0, 0.0, 0.0, 0.0, 0.0, 0.0, 1.6546753508936293E9, 0.0, 2022-06-08 10:02:30.893
14.0, 40399.146425622275, 30098.09912420501, -21831.708768809887, -11885.24954143161, 15881.070897706855, 13699.00419700196, 39515.67137428181, 12058.788485382616, -0.084, 0.972, 0.23600000000000002, 192.0, 0.0, 0.0, 0.0, 0.0, 0.0, 0.0, 0.0, 0.0, 0.0, 1.654675350893635E9, 0.0, 2022-06-08 10:02:30.893
15.0, 40395.927774420714, 30089.113722933977, -21824.735024539834, -11879.996881484614, 15874.499484836995, 13704.435670904599, 39529.261234910635, 12016.208412195256, -0.084, 0.972, 0.23600000000000002, 192.0, 0.0, 0.0, 0.0, 0.0, 0.0, 0.0, 0.0, 0.0, 0.0, 1.6546753508936417E9, 0.0, 2022-06-08 10:02:30.893
16.0, 40423.80039975648, 30108.939720265833, -21769.816788413144, -11809.186555050203, 15917.325427213364, 13752.201348805589, 39464.19530680124, 12007.491231857686, -0.084, 0.972, 0.23600000000000002, 192.0, 0.0, 0.0, 0.0, 0.0, 0.0, 0.0, 0.0, 0.0, 0.0, 1.654675350893649E9, 0.0, 2022-06-08 10:02:30.893
17.0, 40440.85478077588, 30122.23900821674, -21752.82946262711, -11787.639473395286, 15942.62760193677, 13777.01178515098, 39411.333431164436, 12042.516415419152, -0.084, 0.972, 0.23600000000000002, 192.0, 0.0, 0.0, 0.0, 0.0, 0.0, 0.0, 0.0, 0.0, 0.0, 1.654675350893656E9, 0.0, 2022-06-08 10:02:30.893
18.0, 40430.14829518179, 30118.886246548445, -21785.753582209778, -11811.846412640383, 15930.065921552889, 13757.230491308033, 39440.16718151178, 12102.44144230383, -0.082, 0.976, 0.27, 192.0, 253.0, 112.0, 30.0, 128.0, 8.0, 112.0, 0.0, 0.0, 0.0, 1.6546753508936625E9, 0.0, 2022-06-08 10:02:30.893
19.0, 40383.41079752574, 30079.14484490691, -21855.42396967697, -11876.644119816317, 15864.999993443489, 13691.628121331707, 39521.48282784019, 12104.58720977154, -0.082, 0.976, 0.27, 192.0, 0.0, 0.0, 0.0, 0.0, 0.0, 0.0, 0.0, 0.0, 0.0, 1.654675350893669E9, 0.0, 2022-06-08 10:02:30.893
20.0, 40383.36609403683, 30071.455844814285, -21827.7525100413, -11865.91528247777, 15859.769685240948, 13705.2850371939, 39543.54399961758, 12070.076116332546, -0.082, 0.976, 0.27, 192.0, 0.0, 0.0, 0.0, 0.0, 0.0, 0.0, 0.0, 0.0, 0.0, 1.6546753508936749E9, 0.0, 2022-06-08 10:02:30.893
21.0, 40407.058943159456, 30091.28184214614, -21774.93533789341, -11820.496537744588, 15891.598569345304, 13743.551223701386, 39475.95232438473, 12056.821531870548, -0.082, 0.976, 0.27, 192.0, 0.0, 0.0, 0.0, 0.0, 0.0, 0.0, 0.0, 0.0, 0.0, 1.6546753508936808E9, 0.0, 2022-06-08 10:02:30.893
22.0, 40422.90632997827, 30104.75994405269, -21761.92662262042, -11804.112709058847, 15918.822994091868, 13758.973927375548, 39416.56373936698, 12063.169427295856, -0.082, 0.976, 0.27, 192.0, 0.0, 0.0, 0.0, 0.0, 0.0, 0.0, 0.0, 0.0, 0.0, 1.6546753508937244E9, 0.0, 2022-06-08 10:02:30.893
23.0, 40421.1405421663, 30109.118534221478, -21779.36098329556, -11826.687970958707, 15914.19618298962, 13733.269421251944, 39442.871742590876, 12088.382195041442, -0.082, 0.976, 0.27, 192.0, 0.0, 0.0, 0.0, 0.0, 0.0, 0.0, 0.0, 0.0, 0.0, 1.6546753508937294E9, 0.0, 2022-06-08 10:02:30.893
24.0, 40379.96862887962, 30079.32365886255, -21838.66016133549, -11888.40113739981, 15859.65792651867, 13672.98676645598, 39523.315670885524, 12079.687366448328, -0.082, 0.976, 0.27, 192.0, 0.0, 0.0, 0.0, 0.0, 0.0, 0.0, 0.0, 0.0, 0.0, 1.6546753508937345E9, 0.0, 2022-06-08 10:02:30.893
25.0, 40364.63533218329, 30064.61621101096, -21845.99153351683, -11887.462364132687, 15840.547185009384, 13673.32204262281, 39546.29326418558, 12052.418238212853, -0.082, 0.976, 0.27, 192.0, 0.0, 0.0, 0.0, 0.0, 0.0, 0.0, 0.0, 0.0, 0.0, 1.6546753508937397E9, 0.0, 2022-06-08 10:02:30.893
26.0, 40413.11626590684, 30104.514074863684, -21776.16468383845, -11813.589848707898, 15895.644235091715, 13740.041999821902, 39471.92901038277, 12046.71854337675, -0.082, 0.976, 0.27, 192.0, 0.0, 0.0, 0.0, 0.0, 0.0, 0.0, 0.0, 0.0, 0.0, 1.6546753508937442E9, 0.0, 2022-06-08 10:02:30.893
27.0, 40419.710030521164, 30104.29055741913, -21768.29686979018, -11803.509211958553, 15917.034854535445, 13745.607584191273, 39414.64148934383, 12071.037241344124, -0.084, 0.972, 0.3, 192.0, 253.0, 96.0, 30.0, 96.0, 9.0, 96.0, 0.0, 0.0, 0.0, 1.65467535089375E9, 0.0, 2022-06-08 10:02:30.893
28.0, 40395.07840813141, 30084.86689148747, -21812.93330346743, -11838.422636797743, 15885.295377408907, 13714.158679742657, 39446.02333855908, 12095.266532333677, -0.084, 0.972, 0.3, 192.0, 0.0, 0.0, 0.0, 0.0, 0.0, 0.0, 0.0, 0.0, 0.0, 1.654675350893758E9, 0.0, 2022-06-08 10:02:30.893
29.0, 40360.99199783707, 30062.962181921266, -21869.03618205025, -11884.891913520327, 15837.909679163657, 13669.119914665212, 39524.6791272973, 12091.578494498552, -0.084, 0.972, 0.3, 192.0, 0.0, 0.0, 0.0, 0.0, 0.0, 0.0, 0.0, 0.0, 0.0, 1.6546753508937635E9, 0.0, 2022-06-08 10:02:30.893
30.0, 40364.79179439447, 30062.71631273226, -21854.440492920934, -11870.54209358002, 15830.84652791578, 13678.507647336442, 39549.24369445368, 12053.334659735521, -0.084, 0.972, 0.3, 192.0, 0.0, 0.0, 0.0, 0.0, 0.0, 0.0, 0.0, 0.0, 0.0, 1.654675350893769E9, 0.0, 2022-06-08 10:02:30.893
31.0, 40421.65463228877, 30107.71037432079, -21770.17441632443, -11786.700700128164, 15904.272008451464, 13756.96227037457, 39480.37796978688, 12057.223863270745, -0.084, 0.972, 0.3, 192.0, 0.0, 0.0, 0.0, 0.0, 0.0, 0.0, 0.0, 0.0, 0.0, 1.6546753508937795E9, 0.0, 2022-06-08 10:02:30.893
32.0, 40463.72061535366, 30146.311836995108, -21723.235752968285, -11739.51616758301, 15958.832616666868, 13796.30134061591, 39417.502512634106, 12100.139212624934, -0.084, 0.972, 0.3, 192.0, 0.0, 0.0, 0.0, 0.0, 0.0, 0.0, 0.0, 0.0, 0.0, 1.6546753508937852E9, 0.0, 2022-06-08 10:02:30.893
33.0, 40430.01418471506, 30121.903732049912, -21782.758448452765, -11797.787165377995, 15916.990151046533, 13738.499729454486, 39445.75511762561, 12121.753349513216, -0.084, 0.972, 0.3, 192.0, 0.0, 0.0, 0.0, 0.0, 0.0, 0.0, 0.0, 0.0, 0.0, 1.65467535089379E9, 0.0, 2022-06-08 10:02:30.893
34.0, 40377.28641954499, 30078.004905939688, -21855.692190610433, -11872.129067436346, 15848.973792669034, 13667.622347786708, 39523.606243563445, 12094.685386977839, -0.084, 0.972, 0.3, 192.0, 0.0, 0.0, 0.0, 0.0, 0.0, 0.0, 0.0, 0.0, 0.0, 1.6546753508937948E9, 0.0, 2022-06-08 10:02:30.893
35.0, 40365.70821591714, 30061.151690620387, -21861.883623824553, -11884.668396075773, 15827.56082148085, 13658.994574426959, 39550.54009563209, 12047.05381954358, -0.084, 0.972, 0.3, 192.0, 0.0, 0.0, 0.0, 0.0, 0.0, 0.0, 0.0, 0.0, 0.0, 1.6546753508938017E9, 0.0, 2022-06-08 10:02:30.893
36.0, 40393.26791683053, 30078.250775128698, -21815.391995357513, -11830.934802405216, 15868.978603956533, 13702.71458658154, 39483.30604831053, 12028.61363036795, -0.084, 0.972, 0.3, 192.0, 0.0, 0.0, 0.0, 0.0, 0.0, 0.0, 0.0, 0.0, 0.0, 1.6546753508938067E9, 0.0, 2022-06-08 10:02:30.893
37.0, 40405.42726581422, 30083.43637984233, -21806.451297575393, -11807.130194560314, 15891.017423989468, 13710.76121458545, 39423.984518526144, 12036.794368838593, -0.08600000000000001, 0.96, 0.314, 192.0, 253.0, 80.0, 30.0, 0.0, 9.0, 208.0, 0.0, 0.0, 0.0, 1.654675350893812E9, 0.0, 2022-06-08 10:02:30.893
38.0, 40404.64495475828, 30090.454827601294, -21805.713690008368, -11824.609258724364, 15880.04271746191, 13703.1839732151, 39453.64528341834, 12075.619348957462, -0.08600000000000001, 0.96, 0.314, 192.0, 0.0, 0.0, 0.0, 0.0, 0.0, 0.0, 0.0, 0.0, 0.0, 1.6546753508938177E9, 0.0, 2022-06-08 10:02:30.893
39.0, 40379.856870157346, 30080.821225741056, -21839.46482413588, -11862.495465576108, 15846.693914734593, 13669.365783854222, 39535.96675824723, 12081.162581582377, -0.08600000000000001, 0.96, 0.314, 192.0, 0.0, 0.0, 0.0, 0.0, 0.0, 0.0, 0.0, 0.0, 0.0, 1.6546753508938248E9, 0.0, 2022-06-08 10:02:30.893
40.0, 40381.466195758134, 30081.38001935244, -21830.65823682049, -11858.91918646326, 15847.163301368155, 13672.047993188859, 39559.883124814405, 12036.816720583049, -0.08600000000000001, 0.96, 0.314, 192.0, 0.0, 0.0, 0.0, 0.0, 0.0, 0.0, 0.0, 0.0, 0.0, 1.654675350893836E9, 0.0, 2022-06-08 10:02:30.893
41.0, 40409.76350423855, 30105.542255108627, -21777.79636118369, -11802.928066602715, 15887.262330920976, 13725.178089759123, 39490.9726966587, 12024.478557643719, -0.08600000000000001, 0.96, 0.314, 192.0, 0.0, 0.0, 0.0, 0.0, 0.0, 0.0, 0.0, 0.0, 0.0, 1.654675350893844E9, 0.0, 2022-06-08 10:02:30.893
42.0, 40434.05985046147, 30126.664653618893, -21751.801282382166, -11774.876627311305, 15919.560601658894, 13757.2975465414, 39423.96216678169, 12051.993555068202, -0.08600000000000001, 0.96, 0.314, 192.0, 0.0, 0.0, 0.0, 0.0, 0.0, 0.0, 0.0, 0.0, 0.0, 1.654675350893849E9, 0.0, 2022-06-08 10:02:30.893
43.0, 40405.159044880755, 30107.15158070941, -21801.757431239777, -11816.450871998177, 15894.839572291325, 13714.203383231566, 39452.862972362396, 12103.179049870856, -0.08600000000000001, 0.96, 0.314, 192.0, 0.0, 0.0, 0.0, 0.0, 0.0, 0.0, 0.0, 0.0, 0.0, 1.654675350893858E9, 0.0, 2022-06-08 10:02:30.893
44.0, 40365.70821591714, 30077.781388495136, -21856.407446433004, -11869.066878445969, 15848.862033946758, 13669.432839087587, 39535.96675824723, 12104.207230115799, -0.08600000000000001, 0.96, 0.314, 192.0, 0.0, 0.0, 0.0, 0.0, 0.0, 0.0, 0.0, 0.0, 0.0, 1.6546753508938632E9, 0.0, 2022-06-08 10:02:30.893
45.0, 40349.659663398226, 30054.490870772705, -21867.695077382934, -11875.772401782562, 15830.734769193503, 13658.145208137657, 39562.11829925994, 12046.875005587937, -0.08600000000000001, 0.96, 0.314, 192.0, 0.0, 0.0, 0.0, 0.0, 0.0, 0.0, 0.0, 0.0, 0.0, 1.6546753508938675E9, 0.0, 2022-06-08 10:02:30.893
46.0, 40409.27176586053, 30108.693851076827, -21780.903253662975, -11779.704604113651, 15899.421679904663, 13744.28883126841, 39489.81040594702, 12044.48336893122, -0.08600000000000001, 0.96, 0.314, 192.0, 0.0, 0.0, 0.0, 0.0, 0.0, 0.0, 0.0, 0.0, 0.0, 1.654675350893872E9, 0.0, 2022-06-08 10:02:30.893
47.0, 40438.306681907976, 30132.431403688362, -21750.77310213722, -11746.333449641877, 15937.933735601157, 13777.168247362168, 39420.8552743024, 12089.611540986483, -0.076, 0.962, 0.318, 192.0, 253.0, 160.0, 30.0, 16.0, 9.0, 240.0, 0.0, 0.0, 0.0, 1.6546753508938816E9, 0.0, 2022-06-08 10:02:30.893
48.0, 40422.28048113352, 30117.701604092315, -21791.31916657915, -11786.790107105984, 15913.749148100515, 13740.824310877839, 39443.072908290975, 12112.700893008816, -0.076, 0.962, 0.318, 192.0, 0.0, 0.0, 0.0, 0.0, 0.0, 0.0, 0.0, 0.0, 0.0, 1.6546753508938866E9, 0.0, 2022-06-08 10:02:30.893
49.0, 40386.24946907157, 30091.43830435733, -21844.002228260306, -11842.401247310789, 15862.675412020137, 13687.984786985493, 39522.86863599642, 12099.245142846721, -0.076, 0.962, 0.318, 192.0, 0.0, 0.0, 0.0, 0.0, 0.0, 0.0, 0.0, 0.0, 0.0, 1.6546753508938916E9, 0.0, 2022-06-08 10:02:30.893
50.0, 40368.36807350732, 30070.159443635876, -21855.46867316588, -11859.545035308009, 15835.450987273574, 13670.639833288174, 39554.27283695613, 12044.48336893122, -0.076, 0.962, 0.318, 192.0, 0.0, 0.0, 0.0, 0.0, 0.0, 0.0, 0.0, 0.0, 0.0, 1.6546753508938968E9, 0.0, 2022-06-08 10:02:30.893
51.0, 40386.04830337147, 30078.250775128698, -21814.386166857024, -11824.139872090802, 15866.162284155165, 13703.832173804305, 39493.09611238195, 12014.263810427645, -0.076, 0.962, 0.318, 192.0, 0.0, 0.0, 0.0, 0.0, 0.0, 0.0, 0.0, 0.0, 0.0, 1.6546753508939028E9, 0.0, 2022-06-08 10:02:30.893
52.0, 40417.02782118652, 30101.250720173208, -21774.041268115197, -11792.914485086738, 15910.754014343504, 13742.791264389905, 39425.21386447118, 12053.178197524334, -0.076, 0.962, 0.318, 192.0, 0.0, 0.0, 0.0, 0.0, 0.0, 0.0, 0.0, 0.0, 0.0, 1.6546753508939075E9, 0.0, 2022-06-08 10:02:30.893
53.0, 40415.91023396376, 30103.798819041112, -21791.7438497238, -11816.942610376193, 15905.233133463042, 13724.239316492, 39443.05055654652, 12094.39481429992, -0.076, 0.962, 0.318, 192.0, 0.0, 0.0, 0.0, 0.0, 0.0, 0.0, 0.0, 0.0, 0.0, 1.6546753508939145E9, 0.0, 2022-06-08 10:02:30.893
54.0, 40381.35443703585, 30080.664763529872, -21844.046931749217, -11859.612090541374, 15867.23516788902, 13672.115048422223, 39525.68495579779, 12083.084831605534, -0.076, 0.962, 0.318, 192.0, 0.0, 0.0, 0.0, 0.0, 0.0, 0.0, 0.0, 0.0, 0.0, 1.6546753508939202E9, 0.0, 2022-06-08 10:02:30.893
55.0, 40359.092099558366, 30057.75422546318, -21864.387019203547, -11878.700480306206, 15841.597716998784, 13659.955699438537, 39561.425395181825, 12029.977086779725, -0.076, 0.962, 0.318, 192.0, 0.0, 0.0, 0.0, 0.0, 0.0, 0.0, 0.0, 0.0, 0.0, 1.6546753508939266E9, 0.0, 2022-06-08 10:02:30.893
56.0, 40393.983172653105, 30079.882452473936, -21803.590274285114, -11820.988276122604, 15888.312862910374, 13718.897249567182, 39494.61603100491, 12021.058740742057, -0.076, 0.962, 0.318, 192.0, 0.0, 0.0, 0.0, 0.0, 0.0, 0.0, 0.0, 0.0, 0.0, 1.6546753508939316E9, 0.0, 2022-06-08 10:02:30.893
57.0, 40436.9432254962, 30118.796839570623, -21741.675942143913, -11775.122496500313, 15933.955125088112, 13763.936014644625, 39424.49860864862, 12060.867197616959, -0.076, 0.966, 0.324, 192.0, 253.0, 160.0, 30.0, 48.0, 10.0, 32.0, 0.0, 0.0, 0.0, 1.654675350893938E9, 0.0, 2022-06-08 10:02:30.893
58.0, 40426.88494049131, 30114.080621490553, -21773.147198336985, -11802.212810780145, 15926.377883717763, 13736.353961986777, 39448.57143742698, 12091.600846243007, -0.076, 0.966, 0.324, 192.0, 0.0, 0.0, 0.0, 0.0, 0.0, 0.0, 0.0, 0.0, 0.0, 1.6546753508939445E9, 0.0, 2022-06-08 10:02:30.893
59.0, 40396.95595466566, 30091.68417354634, -21823.46097510588, -11853.48771256062, 15879.305109894885, 13688.722394552517, 39530.9823192337, 12090.572665998063, -0.076, 0.966, 0.324, 192.0, 0.0, 0.0, 0.0, 0.0, 0.0, 0.0, 0.0, 0.0, 0.0, 1.6546753508939497E9, 0.0, 2022-06-08 10:02:30.893
60.0, 40375.49827998856, 30064.32563833304, -21843.734007326842, -11873.604282570397, 15847.364467068252, 13667.51058906443, 39561.64891262638, 12037.151996749879, -0.076, 0.966, 0.324, 192.0, 0.0, 0.0, 0.0, 0.0, 0.0, 0.0, 0.0, 0.0, 0.0, 1.6546753508939545E9, 0.0, 2022-06-08 10:02:30.893
61.0, 40381.957934136146, 30057.553059763082, -21824.086823950627, -11851.923090448749, 15850.873690947736, 13692.365728898732, 39494.70543798273, 12005.211353923245, -0.076, 0.966, 0.324, 192.0, 0.0, 0.0, 0.0, 0.0, 0.0, 0.0, 0.0, 0.0, 0.0, 1.6546753508939607E9, 0.0, 2022-06-08 10:02:30.893
62.0, 40418.61479504285, 30083.168158908866, -21782.31141356366, -11810.348845761877, 15890.883313522734, 13734.3423049858, 39417.65897484529, 12025.126758232924, -0.076, 0.966, 0.324, 192.0, 0.0, 0.0, 0.0, 0.0, 0.0, 0.0, 0.0, 0.0, 0.0, 1.6546753508939695E9, 0.0, 2022-06-08 10:02:30.893
63.0, 40418.68185027622, 30088.37611536695, -21800.013995172263, -11825.190404080202, 15886.256502420487, 13719.836022834304, 39435.49566692062, 12059.168465038356, -0.076, 0.966, 0.324, 192.0, 0.0, 0.0, 0.0, 0.0, 0.0, 0.0, 0.0, 0.0, 0.0, 1.6546753508939748E9, 0.0, 2022-06-08 10:02:30.893
64.0, 40383.075521358915, 30066.449054056295, -21851.825338819664, -11873.15724768129, 15846.783321712413, 13667.599996042252, 39525.573197075515, 12060.017831327657, -0.076, 0.966, 0.324, 192.0, 0.0, 0.0, 0.0, 0.0, 0.0, 0.0, 0.0, 0.0, 0.0, 1.654675350893986E9, 0.0, 2022-06-08 10:02:30.893
65.0, 40357.214553024125, 30041.50450724417, -21867.80683610521, -11893.922018280271, 15823.984542368002, 13646.946984165548, 39575.73051163322, 12012.743891804683, -0.076, 0.966, 0.324, 192.0, 0.0, 0.0, 0.0, 0.0, 0.0, 0.0, 0.0, 0.0, 0.0, 1.6546753508939948E9, 0.0, 2022-06-08 10:02:30.893
66.0, 40396.844195943384, 30075.412103582872, -21802.249169617793, -11829.034904126514, 15875.61707205976, 13711.677636108117, 39512.60918529143, 12004.719615545227, -0.076, 0.966, 0.324, 192.0, 0.0, 0.0, 0.0, 0.0, 0.0, 0.0, 0.0, 0.0, 0.0, 1.654675350894024E9, 0.0, 2022-06-08 10:02:30.894
67.0, 40433.50105685009, 30106.2575109312, -21762.641878442988, -11787.795935606473, 15917.012502790989, 13755.15177907369, 39438.736669866645, 12043.991630553202, -0.08, 0.966, 0.324, 192.0, 253.0, 128.0, 30.0, 48.0, 10.0, 32.0, 0.0, 0.0, 0.0, 1.6546753508940349E9, 0.0, 2022-06-08 10:02:30.894
68.0, 40422.794571255996, 30098.9037870054, -21796.84004745961, -11817.210831309656, 15901.343929927818, 13727.905002582671, 39456.148678797326, 12077.00515711369, -0.08, 0.966, 0.324, 192.0, 0.0, 0.0, 0.0, 0.0, 0.0, 0.0, 0.0, 0.0, 0.0, 1.6546753508940485E9, 0.0, 2022-06-08 10:02:30.894
69.0, 40367.56341070693, 30054.513222517162, -21876.076981553673, -11892.670320590774, 15828.74546393698, 13647.908109177126, 39535.273854169114, 12054.832226614026, -0.08, 0.966, 0.324, 192.0, 0.0, 0.0, 0.0, 0.0, 0.0, 0.0, 0.0, 0.0, 0.0, 1.654675350894065E9, 0.0, 2022-06-08 10:02:30.894
70.0, 40362.55661994894, 30044.767861934648, -21871.338411729146, -11893.452631646709, 15814.239181785488, 13648.444551044055, 39566.54394466209, 12005.412519623342, -0.08, 0.966, 0.324, 192.0, 0.0, 0.0, 0.0, 0.0, 0.0, 0.0, 0.0, 0.0, 0.0, 1.6546753508940723E9, 0.0, 2022-06-08 10:02:30.894
71.0, 40407.17070188173, 30079.413065840374, -21808.015919687263, -11836.187462352213, 15865.089400421311, 13702.021682503426, 39502.282679353084, 11993.476688084209, -0.08, 0.966, 0.324, 192.0, 0.0, 0.0, 0.0, 0.0, 0.0, 0.0, 0.0, 0.0, 0.0, 1.6546753508940847E9, 0.0, 2022-06-08 10:02:30.894
72.0, 40439.6477865753, 30112.560702867595, -21770.30852679116, -11794.926142087716, 15902.774441572958, 13733.761159629961, 39429.013661028584, 12022.869232042936, -0.08, 0.966, 0.324, 192.0, 0.0, 0.0, 0.0, 0.0, 0.0, 0.0, 0.0, 0.0, 0.0, 1.6546753508940947E9, 0.0, 2022-06-08 10:02:30.894
73.0, 40390.60805924035, 30069.645353513406, -21826.299646651703, -11849.48675030312, 15861.580176541827, 13681.033394459891, 39449.219638016184, 12041.108255518468, -0.08, 0.966, 0.324, 192.0, 0.0, 0.0, 0.0, 0.0, 0.0, 0.0, 0.0, 0.0, 0.0, 1.654675350894107E9, 0.0, 2022-06-08 10:02:30.894
74.0, 40365.663512428226, 30056.65898998487, -21858.195585989426, -11889.07168973347, 15836.725036707527, 13651.573795267797, 39528.25540641015, 12035.162691493357, -0.08, 0.966, 0.324, 192.0, 0.0, 0.0, 0.0, 0.0, 0.0, 0.0, 0.0, 0.0, 0.0, 1.6546753508941245E9, 0.0, 2022-06-08 10:02:30.894
75.0, 40343.53528541748, 30035.022501352134, -21869.550272172724, -11893.609093857896, 15822.79989991187, 13633.893565403649, 39568.64500864089, 12010.888697014892, -0.08, 0.966, 0.324, 192.0, 0.0, 0.0, 0.0, 0.0, 0.0, 0.0, 0.0, 0.0, 0.0, 1.6546753508941348E9, 0.0, 2022-06-08 10:02:30.894
76.0, 40366.87050662882, 30046.935981146813, -21829.473594364357, -11850.11259914787, 15855.90283345018, 13679.245254903468, 39510.10578991244, 11981.764373989627, -0.08, 0.966, 0.324, 192.0, 0.0, 0.0, 0.0, 0.0, 0.0, 0.0, 0.0, 0.0, 0.0, 1.6546753508941429E9, 0.0, 2022-06-08 10:02:30.894
77.0, 40423.21925440065, 30098.121475949465, -21755.55637545066, -11787.885342584294, 15919.337084214341, 13746.412246991666, 39429.84067557343, 12017.460109884752, -0.076, 0.966, 0.32, 192.0, 253.0, 160.0, 30.0, 48.0, 10.0, 0.0, 0.0, 0.0, 0.0, 1.6546753508941543E9, 0.0, 2022-06-08 10:02:30.894
78.0, 40412.37865833982, 30094.232272414243, -21778.668079217445, -11817.680217943218, 15895.443069391618, 13714.672769865128, 39442.737632124146, 12047.567909666051, -0.076, 0.966, 0.32, 192.0, 0.0, 0.0, 0.0, 0.0, 0.0, 0.0, 0.0, 0.0, 0.0, 1.6546753508941689E9, 0.0, 2022-06-08 10:02:30.894
79.0, 40352.34187273287, 30043.493812500696, -21868.410333205502, -11901.789832328539, 15823.492803989984, 13627.590373467252, 39528.14364768787, 12018.153013962867, -0.076, 0.966, 0.32, 192.0, 0.0, 0.0, 0.0, 0.0, 0.0, 0.0, 0.0, 0.0, 0.0, 1.654675350894179E9, 0.0, 2022-06-08 10:02:30.894
80.0, 40339.668433626706, 30030.820373394537, -21873.95356583042, -11908.338893453943, 15805.767870636926, 13620.683684430562, 39567.080386529015, 11962.541873758064, -0.076, 0.966, 0.32, 192.0, 0.0, 0.0, 0.0, 0.0, 0.0, 0.0, 0.0, 0.0, 0.0, 1.6546753508941891E9, 0.0, 2022-06-08 10:02:30.894
81.0, 40382.33791379189, 30066.314943589565, -21804.663158018968, -11837.573270508441, 15859.836740474313, 13699.406528402154, 39506.17188288831, 11991.152106660857, -0.076, 0.966, 0.32, 192.0, 0.0, 0.0, 0.0, 0.0, 0.0, 0.0, 0.0, 0.0, 0.0, 1.6546753508941996E9, 0.0, 2022-06-08 10:02:30.894
82.0, 40405.874300703326, 30086.655031043894, -21771.716686691845, -11806.213773037645, 15898.14763047071, 13733.247069507488, 39431.874684318864, 12032.703999603273, -0.076, 0.966, 0.32, 192.0, 0.0, 0.0, 0.0, 0.0, 0.0, 0.0, 0.0, 0.0, 0.0, 1.6546753508942113E9, 0.0, 2022-06-08 10:02:30.894
83.0, 40414.122094407336, 30102.34595565152, -21775.427076271426, -11811.24291554009, 15906.306017196897, 13727.390912460198, 39443.45288794671, 12064.309366263076, -0.076, 0.966, 0.32, 192.0, 0.0, 0.0, 0.0, 0.0, 0.0, 0.0, 0.0, 0.0, 0.0, 1.6546753508942204E9, 0.0, 2022-06-08 10:02:30.894
84.0, 40380.70623644665, 30083.23521414223, -21832.8040042882, -11868.262215645578, 15861.736638753015, 13672.696193778062, 39528.0318889656, 12065.449305230297, -0.076, 0.966, 0.32, 192.0, 0.0, 0.0, 0.0, 0.0, 0.0, 0.0, 0.0, 0.0, 0.0, 1.6546753508942251E9, 0.0, 2022-06-08 10:02:30.894
85.0, 40345.882218585284, 30044.18671657881, -21864.878757581566, -11904.025006774069, 15817.0331498424, 13637.894527661148, 39573.45063369878, 12010.106385958958, -0.076, 0.966, 0.32, 192.0, 0.0, 0.0, 0.0, 0.0, 0.0, 0.0, 0.0, 0.0, 0.0, 1.6546753508942308E9, 0.0, 2022-06-08 10:02:30.894
86.0, 40377.64404745627, 30067.074902901044, -21804.439640574416, -11847.586852024418, 15856.863958461758, 13690.085850964291, 39516.92307197131, 11984.84891472446, -0.076, 0.966, 0.32, 192.0, 0.0, 0.0, 0.0, 0.0, 0.0, 0.0, 0.0, 0.0, 0.0, 1.6546753508942428E9, 0.0, 2022-06-08 10:02:30.894
87.0, 40433.054021960976, 30117.902769792414, -21737.6302763975, -11780.196342491668, 15924.813261605892, 13749.832063893327, 39438.535504166546, 12012.922705760326, -0.08, 0.964, 0.32, 192.0, 253.0, 128.0, 30.0, 32.0, 10.0, 0.0, 0.0, 0.0, 0.0, 1.654675350894247E9, 0.0, 2022-06-08 10:02:30.894
88.0, 40435.40095512879, 30126.262322218696, -21752.20361378236, -11789.852296096362, 15927.71898838508, 13739.1926335326, 39443.78816411355, 12063.839979629514, -0.08, 0.964, 0.32, 192.0, 0.0, 0.0, 0.0, 0.0, 0.0, 0.0, 0.0, 0.0, 0.0, 1.654675350894251E9, 0.0, 2022-06-08 10:02:30.894
89.0, 40383.72372194812, 30087.884376988935, -21821.538725082723, -11858.226282385145, 15861.535473052916, 13678.060612447336, 39526.66843255382, 12073.205360556289, -0.08, 0.964, 0.32, 192.0, 0.0, 0.0, 0.0, 0.0, 0.0, 0.0, 0.0, 0.0, 0.0, 1.654675350894256E9, 0.0, 2022-06-08 10:02:30.894
90.0, 40373.017236354026, 30075.166234393866, -21826.83608851863, -11866.071744688958, 15847.94561242409, 13667.711754764528, 39566.63335163991, 12026.37845592242, -0.08, 0.964, 0.32, 192.0, 0.0, 0.0, 0.0, 0.0, 0.0, 0.0, 0.0, 0.0, 0.0, 1.6546753508942623E9, 0.0, 2022-06-08 10:02:30.894
91.0, 40410.94814669468, 30103.24002542973, -21758.149177807474, -11802.771604391528, 15906.48483115254, 13729.581383416818, 39509.59169978997, 12016.588391850995, -0.08, 0.964, 0.32, 192.0, 0.0, 0.0, 0.0, 0.0, 0.0, 0.0, 0.0, 0.0, 0.0, 1.6546753508942664E9, 0.0, 2022-06-08 10:02:30.894
92.0, 40428.96365272566, 30117.94747328132, -21734.21045949584, -11775.658938367242, 15926.042607550933, 13761.030287865435, 39435.383908198346, 12033.486310659207, -0.08, 0.964, 0.32, 192.0, 0.0, 0.0, 0.0, 0.0, 0.0, 0.0, 0.0, 0.0, 0.0, 1.6546753508942733E9, 0.0, 2022-06-08 10:02:30.894
93.0, 40406.701315248174, 30100.87074051747, -21778.198692583883, -11817.233183054112, 15892.090307723322, 13731.14600552869, 39447.207981015206, 12070.76902041066, -0.08, 0.964, 0.32, 192.0, 0.0, 0.0, 0.0, 0.0, 0.0, 0.0, 0.0, 0.0, 0.0, 1.654675350894278E9, 0.0, 2022-06-08 10:02:30.894
94.0, 40362.08723331538, 30068.594821524006, -21843.152861971004, -11883.059070474992, 15835.94272565159, 13660.84976921675, 39533.7315838017, 12052.932328335326, -0.08, 0.964, 0.32, 192.0, 0.0, 0.0, 0.0, 0.0, 0.0, 0.0, 0.0, 0.0, 0.0, 1.6546753508942883E9, 0.0, 2022-06-08 10:02:30.894
95.0, 40346.373956963296, 30050.646370726394, -21853.769940587277, -11891.440974645731, 15821.123519077722, 13644.085960875269, 39577.652761656376, 12006.597162079473, -0.08, 0.964, 0.32, 192.0, 0.0, 0.0, 0.0, 0.0, 0.0, 0.0, 0.0, 0.0, 0.0, 1.6546753508942947E9, 0.0, 2022-06-08 10:02:30.894
96.0, 40377.08525384489, 30069.444187813308, -21802.964425440365, -11836.410979796765, 15861.155493397177, 13696.2325806895, 39522.22043540722, 11996.829449752504, -0.08, 0.964, 0.32, 192.0, 0.0, 0.0, 0.0, 0.0, 0.0, 0.0, 0.0, 0.0, 0.0, 1.6546753508943002E9, 0.0, 2022-06-08 10:02:30.894
97.0, 40419.79943749898, 30102.94945275181, -21750.616639926033, -11786.544237916976, 15912.519802155472, 13743.595927190296, 39449.219638016184, 12025.819662311038, -0.082, 0.962, 0.312, 192.0, 253.0, 112.0, 30.0, 16.0, 9.0, 192.0, 0.0, 0.0, 0.0, 1.6546753508943057E9, 0.0, 2022-06-08 10:02:30.894
98.0, 40421.18524565521, 30109.610272599493, -21766.709895933855, -11808.00191259407, 15910.552848643405, 13733.492938696498, 39457.62389393138, 12062.677688917838, -0.082, 0.962, 0.312, 192.0, 0.0, 0.0, 0.0, 0.0, 0.0, 0.0, 0.0, 0.0, 0.0, 1.6546753508943107E9, 0.0, 2022-06-08 10:02:30.894
99.0, 40367.09402407337, 30070.382961080428, -21837.78844330173, -11866.339965622421, 15840.457778031563, 13660.46978956101, 39532.30107215656, 12048.752552122183, -0.082, 0.962, 0.312, 192.0, 0.0, 0.0, 0.0, 0.0, 0.0, 0.0, 0.0, 0.0, 0.0, 1.6546753508943155E9, 0.0, 2022-06-08 10:02:30.894
100.0, 40341.07659352739, 30045.349007290486, -21854.41814117648, -11886.009500743092, 15806.304312503853, 13639.280335817379, 39574.277648243624, 12006.619513823929, -0.082, 0.962, 0.312, 192.0, 0.0, 0.0, 0.0, 0.0, 0.0, 0.0, 0.0, 0.0, 0.0, 1.6546753508943212E9, 0.0, 2022-06-08 10:02:30.894
101.0, 40355.381709978785, 30051.0934056155, -21820.13056518204, -11859.58973879692, 15831.025341871422, 13667.644699531163, 39524.43325810829, 11970.074411639502, -0.082, 0.962, 0.312, 192.0, 0.0, 0.0, 0.0, 0.0, 0.0, 0.0, 0.0, 0.0, 0.0, 1.654675350894326E9, 0.0, 2022-06-08 10:02:30.894
102.0, 40398.85585294436, 30085.269222887662, -21766.82165465613, -11809.141851561291, 15885.742412298014, 13719.791319345393, 39450.87366710588, 11996.784746263595, -0.082, 0.962, 0.312, 192.0, 0.0, 0.0, 0.0, 0.0, 0.0, 0.0, 0.0, 0.0, 0.0, 1.654675350894333E9, 0.0, 2022-06-08 10:02:30.894
103.0, 40379.56629747943, 30075.166234393866, -21801.533913795225, -11840.05431414298, 15869.85032199029, 13692.477487621009, 39459.30027476553, 12032.122854247435, -0.082, 0.962, 0.312, 192.0, 0.0, 0.0, 0.0, 0.0, 0.0, 0.0, 0.0, 0.0, 0.0, 1.6546753508943384E9, 0.0, 2022-06-08 10:02:30.894
104.0, 40344.339948217865, 30051.875716671435, -21863.202376747417, -11900.001692772114, 15816.384949253197, 13637.60395498323, 39533.48571461269, 12024.52326113263, -0.082, 0.962, 0.312, 192.0, 0.0, 0.0, 0.0, 0.0, 0.0, 0.0, 0.0, 0.0, 0.0, 1.6546753508943496E9, 0.0, 2022-06-08 10:02:30.894
105.0, 40344.42935519569, 30047.2936090581, -21869.103237283616, -11902.013349773091, 15813.166298051632, 13636.151091593634, 39574.92584883283, 11998.639941053385, -0.082, 0.962, 0.312, 192.0, 0.0, 0.0, 0.0, 0.0, 0.0, 0.0, 0.0, 0.0, 0.0, 1.6546753508943558E9, 0.0, 2022-06-08 10:02:30.894
106.0, 40377.39817826726, 30070.874699458447, -21795.565998025657, -11840.814273454462, 15865.84935973279, 13690.845810275772, 39524.50031334166, 11982.881961212393, -0.08, 0.966, 0.318, 192.0, 253.0, 128.0, 30.0, 48.0, 9.0, 240.0, 0.0, 0.0, 0.0, 1.6546753508943605E9, 0.0, 2022-06-08 10:02:30.894
107.0, 40415.75377175257, 30109.274996432665, -21738.613753153535, -11787.99710130657, 15911.62573237726, 13741.67367716714, 39441.97767281267, 12020.477595386219, -0.08, 0.966, 0.318, 192.0, 0.0, 0.0, 0.0, 0.0, 0.0, 0.0, 0.0, 0.0, 0.0, 1.6546753508943696E9, 0.0, 2022-06-08 10:02:30.894
108.0, 40392.88793717479, 30093.137036935932, -21788.525198522235, -11826.91148840326, 15883.216665174565, 13701.596999358773, 39443.564646668994, 12050.116008533956, -0.08, 0.966, 0.318, 192.0, 0.0, 0.0, 0.0, 0.0, 0.0, 0.0, 0.0, 0.0, 0.0, 1.6546753508943741E9, 0.0, 2022-06-08 10:02:30.894
109.0, 40353.86179135583, 30063.27510634364, -21848.04789400672, -11882.813201285982, 15832.388798283197, 13653.719562735507, 39526.24374940917, 12057.827360371037, -0.08, 0.966, 0.318, 192.0, 0.0, 0.0, 0.0, 0.0, 0.0, 0.0, 0.0, 0.0, 0.0, 1.6546753508943803E9, 0.0, 2022-06-08 10:02:30.894
110.0, 40328.961948032615, 30035.17896356332, -21870.869025095588, -11904.807317830006, 15796.089565287777, 13627.724483933984, 39576.31165698906, 12018.890621529892, -0.08, 0.966, 0.318, 192.0, 0.0, 0.0, 0.0, 0.0, 0.0, 0.0, 0.0, 0.0, 0.0, 1.6546753508943856E9, 0.0, 2022-06-08 10:02:30.894
111.0, 40355.94050359017, 30056.256658584676, -21818.83416400363, -11851.811331726472, 15835.428635529119, 13675.266644390422, 39524.72383078621, 11995.331882874, -0.08, 0.966, 0.318, 192.0, 0.0, 0.0, 0.0, 0.0, 0.0, 0.0, 0.0, 0.0, 0.0, 1.6546753508943908E9, 0.0, 2022-06-08 10:02:30.894
112.0, 40386.09300686038, 30084.24104264272, -21780.83619842961, -11812.427557996221, 15882.434354118628, 13711.543525641386, 39451.49951595062, 12009.99462723668, -0.08, 0.966, 0.318, 192.0, 0.0, 0.0, 0.0, 0.0, 0.0, 0.0, 0.0, 0.0, 0.0, 1.6546753508943958E9, 0.0, 2022-06-08 10:02:30.894
113.0, 40380.95210563566, 30084.62102229846, -21801.735079495324, -11829.973677393637, 15877.092287193811, 13697.32781616781, 39460.976655599676, 12037.755493850173, -0.08, 0.966, 0.318, 192.0, 0.0, 0.0, 0.0, 0.0, 0.0, 0.0, 0.0, 0.0, 0.0, 1.654675350894402E9, 0.0, 2022-06-08 10:02:30.894
114.0, 40351.78307912148, 30068.05837965708, -21849.143129485026, -11875.280663404545, 15837.574402996828, 13657.228786614989, 39538.917188515334, 12053.401714968886, -0.08, 0.966, 0.318, 192.0, 0.0, 0.0, 0.0, 0.0, 0.0, 0.0, 0.0, 0.0, 0.0, 1.6546753508944068E9, 0.0, 2022-06-08 10:02:30.894
115.0, 40332.806448078925, 30050.221687581743, -21864.074094781172, -11893.318521179977, 15814.619161441227, 13641.627268985185, 39584.64885767089, 12017.504813373664, -0.08, 0.966, 0.318, 192.0, 0.0, 0.0, 0.0, 0.0, 0.0, 0.0, 0.0, 0.0, 0.0, 1.6546753508944156E9, 0.0, 2022-06-08 10:02:30.894
116.0, 40363.65185542725, 30070.67353375835, -21807.948864453898, -11838.802616453484, 15851.499539792483, 13687.068365462825, 39532.8822175124, 11986.234722880688, -0.078, 0.968, 0.318, 192.0, 253.0, 144.0, 30.0, 64.0, 9.0, 240.0, 0.0, 0.0, 0.0, 1.6546753508944209E9, 0.0, 2022-06-08 10:02:30.894
117.0, 40415.26203337456, 30117.433383158852, -21745.028703812208, -11781.693909370173, 15906.395424174718, 13749.809712148872, 39449.95724558321, 12017.99655175168, -0.078, 0.968, 0.318, 192.0, 0.0, 0.0, 0.0, 0.0, 0.0, 0.0, 0.0, 0.0, 0.0, 1.654675350894428E9, 0.0, 2022-06-08 10:02:30.894
118.0, 40389.17754759521, 30095.662784059383, -21788.63695724451, -11815.869726642339, 15877.271101149452, 13703.80982205985, 39454.82992587447, 12045.399790453886, -0.078, 0.968, 0.318, 192.0, 0.0, 0.0, 0.0, 0.0, 0.0, 0.0, 0.0, 0.0, 0.0, 1.6546753508944333E9, 0.0, 2022-06-08 10:02:30.894
119.0, 40342.12712551679, 30054.312056817063, -21856.02746677726, -11884.534285609041, 15818.12838532071, 13642.856614930228, 39537.106697214454, 12043.656354386372, -0.078, 0.968, 0.318, 192.0, 0.0, 0.0, 0.0, 0.0, 0.0, 0.0, 0.0, 0.0, 0.0, 1.6546753508944385E9, 0.0, 2022-06-08 10:02:30.894
120.0, 40326.659718353716, 30036.855344397467, -21867.292745982737, -11904.472041663175, 15801.632797912695, 13621.041312341848, 39587.77810189463, 12008.050025469069, -0.078, 0.968, 0.318, 192.0, 0.0, 0.0, 0.0, 0.0, 0.0, 0.0, 0.0, 0.0, 0.0, 1.6546753508944435E9, 0.0, 2022-06-08 10:02:30.894
121.0, 40354.04060531147, 30056.636638240416, -21813.022710445253, -11851.476055559642, 15838.289658819398, 13666.884740219682, 39536.30203441406, 11979.618606521917, -0.078, 0.968, 0.318, 192.0, 0.0, 0.0, 0.0, 0.0, 0.0, 0.0, 0.0, 0.0, 0.0, 1.654675351375693E9, 0.0, 2022-06-08 10:02:31.375
122.0, 40394.20669009766, 30091.170083423865, -21763.759465665757, -11802.14575554678, 15883.060202963377, 13715.76800534344, 39454.38289098536, 12001.769185277128, -0.078, 0.968, 0.318, 192.0, 0.0, 0.0, 0.0, 0.0, 0.0, 0.0, 0.0, 0.0, 0.0, 1.6546753513758128E9, 0.0, 2022-06-08 10:02:31.375
123.0, 40384.03664637049, 30084.129283920443, -21789.06164038916, -11829.191366337702, 15874.499484836995, 13687.023661973913, 39455.38871948585, 12028.61363036795, -0.078, 0.968, 0.318, 192.0, 0.0, 0.0, 0.0, 0.0, 0.0, 0.0, 0.0, 0.0, 0.0, 1.654675351375821E9, 0.0, 2022-06-08 10:02:31.375
124.0, 40346.64217789676, 30053.462690527762, -21846.304457939204, -11888.691710077728, 15823.51515573444, 13624.684646688063, 39529.82002852202, 12019.225897696722, -0.078, 0.968, 0.318, 192.0, 0.0, 0.0, 0.0, 0.0, 0.0, 0.0, 0.0, 0.0, 0.0, 1.6546753513758268E9, 0.0, 2022-06-08 10:02:31.375
125.0, 40319.395401405745, 30025.679472169817, -21868.835016350153, -11913.010408045104, 15792.021547796912, 13604.612780167197, 39577.67511340083, 11977.919873943314, -0.078, 0.968, 0.318, 192.0, 0.0, 0.0, 0.0, 0.0, 0.0, 0.0, 0.0, 0.0, 0.0, 1.654675351375833E9, 0.0, 2022-06-08 10:02:31.375
126.0, 40352.43127971068, 30054.110891116965, -21809.42407958795, -11850.514930548065, 15843.65407748867, 13669.499894320954, 39528.25540641015, 11975.237664608678, -0.076, 0.974, 0.322, 192.0, 253.0, 160.0, 30.0, 112.0, 10.0, 16.0, 0.0, 0.0, 0.0, 1.654675351375841E9, 0.0, 2022-06-08 10:02:31.375
127.0, 40392.39619879678, 30086.14094092142, -21768.54273897919, -11803.442156725188, 15886.591778587315, 13720.819499590338, 39444.52577168057, 11997.432946852798, -0.076, 0.974, 0.322, 192.0, 0.0, 0.0, 0.0, 0.0, 0.0, 0.0, 0.0, 0.0, 0.0, 1.6546753513758476E9, 0.0, 2022-06-08 10:02:31.375
128.0, 40378.62752421231, 30076.19441463881, -21797.488248048812, -11831.314782060956, 15869.313880123364, 13699.47358363552, 39450.04665256103, 12033.195737981288, -0.076, 0.974, 0.322, 192.0, 0.0, 0.0, 0.0, 0.0, 0.0, 0.0, 0.0, 0.0, 0.0, 1.6546753513758905E9, 0.0, 2022-06-08 10:02:31.375
129.0, 40356.49929720155, 30067.410179067872, -21819.7505855263, -11868.418677856765, 15838.17790009712, 13656.066495903313, 39529.57415933301, 12035.52031940464, -0.076, 0.974, 0.322, 192.0, 0.0, 0.0, 0.0, 0.0, 0.0, 0.0, 0.0, 0.0, 0.0, 1.6546753513758955E9, 0.0, 2022-06-08 10:02:31.375
130.0, 40338.03675628147, 30049.551135248083, -21841.923516025963, -11881.78502104104, 15812.249876528966, 13633.759454936917, 39580.4914332022, 12012.721540060227, -0.076, 0.974, 0.322, 192.0, 0.0, 0.0, 0.0, 0.0, 0.0, 0.0, 0.0, 0.0, 0.0, 1.6546753513759007E9, 0.0, 2022-06-08 10:02:31.375
131.0, 40350.419622709705, 30055.630809739927, -21805.847800475098, -11845.3963810678, 15832.835833172303, 13663.666089018117, 39531.76463028963, 11964.687641225773, -0.076, 0.974, 0.322, 192.0, 0.0, 0.0, 0.0, 0.0, 0.0, 0.0, 0.0, 0.0, 0.0, 1.6546753513759058E9, 0.0, 2022-06-08 10:02:31.375
132.0, 40398.56528026644, 30100.937795750833, -21742.83823285559, -11777.603540134853, 15891.732679812038, 13729.424921205631, 39449.10787929391, 11985.541818802574, -0.076, 0.974, 0.322, 192.0, 0.0, 0.0, 0.0, 0.0, 0.0, 0.0, 0.0, 0.0, 0.0, 1.6546753513759108E9, 0.0, 2022-06-08 10:02:31.375
133.0, 40384.30486730395, 30094.656955558894, -21773.728343692823, -11802.168107291236, 15888.983415244034, 13709.129537240213, 39452.23712351765, 12043.254022986177, -0.076, 0.974, 0.322, 192.0, 0.0, 0.0, 0.0, 0.0, 0.0, 0.0, 0.0, 0.0, 0.0, 1.654675351375916E9, 0.0, 2022-06-08 10:02:31.375
134.0, 40317.3166891714, 30040.163402576854, -21866.309269226706, -11891.440974645731, 15803.420937469118, 13624.774053665884, 39530.42352562231, 12023.293915187587, -0.076, 0.974, 0.322, 192.0, 0.0, 0.0, 0.0, 0.0, 0.0, 0.0, 0.0, 0.0, 0.0, 1.6546753513759208E9, 0.0, 2022-06-08 10:02:31.375
135.0, 40319.6189188503, 30038.956408376267, -21858.307344711702, -11888.982282755647, 15803.152716535655, 13628.17151882309, 39581.83253786952, 11991.152106660857, -0.076, 0.974, 0.322, 192.0, 0.0, 0.0, 0.0, 0.0, 0.0, 0.0, 0.0, 0.0, 0.0, 1.654675351375926E9, 0.0, 2022-06-08 10:02:31.375
136.0, 40347.31273023042, 30059.81058595307, -21806.11602140856, -11841.708343232673, 15842.111807121255, 13671.08686817728, 39541.152362960864, 11973.673042496806, -0.078, 0.974, 0.322, 192.0, 253.0, 144.0, 30.0, 112.0, 10.0, 16.0, 0.0, 0.0, 0.0, 1.654675351375931E9, 0.0, 2022-06-08 10:02:31.375
137.0, 40354.93467508968, 30065.62203951145, -21788.726364222333, -11824.497500002088, 15861.915452708658, 13689.907037008648, 39467.79393765854, 11979.37273733291, -0.078, 0.974, 0.322, 192.0, 0.0, 0.0, 0.0, 0.0, 0.0, 0.0, 0.0, 0.0, 0.0, 1.6546753513759394E9, 0.0, 2022-06-08 10:02:31.375
138.0, 40355.47111695661, 30069.555946535584, -21801.489210306314, -11834.600488495886, 15860.70845850807, 13683.492086349976, 39466.92221962479, 11999.601066064963, -0.078, 0.974, 0.322, 192.0, 0.0, 0.0, 0.0, 0.0, 0.0, 0.0, 0.0, 0.0, 0.0, 1.6546753513759444E9, 0.0, 2022-06-08 10:02:31.375
139.0, 40325.69859334214, 30053.8426701835, -21852.36178068659, -11880.309805906989, 15814.306237018853, 13634.474710759487, 39543.8345722955, 12015.76137730615, -0.078, 0.974, 0.322, 192.0, 0.0, 0.0, 0.0, 0.0, 0.0, 0.0, 0.0, 0.0, 0.0, 1.65467535137595E9, 0.0, 2022-06-08 10:02:31.375
140.0, 40296.820139505886, 30023.153725046366, -21882.268414767794, -11920.431187204265, 15782.119725003211, 13603.450489455521, 39598.95397412228, 11976.08703089798, -0.078, 0.974, 0.322, 192.0, 0.0, 0.0, 0.0, 0.0, 0.0, 0.0, 0.0, 0.0, 0.0, 1.654675351375955E9, 0.0, 2022-06-08 10:02:31.375
141.0, 40325.184503219665, 30043.51616424515, -21825.450280362402, -11860.573215552953, 15822.598734211771, 13652.065533645813, 39553.468174155736, 11943.229966548679, -0.078, 0.974, 0.322, 192.0, 0.0, 0.0, 0.0, 0.0, 0.0, 0.0, 0.0, 0.0, 0.0, 1.6546753513759596E9, 0.0, 2022-06-08 10:02:31.375
142.0, 40368.43512874069, 30082.274089130653, -21765.39114301099, -11795.306121743455, 15878.14281918321, 13706.447327905576, 39470.02911210407, 11967.436905793777, -0.078, 0.974, 0.322, 192.0, 0.0, 0.0, 0.0, 0.0, 0.0, 0.0, 0.0, 0.0, 0.0, 1.6546753513759644E9, 0.0, 2022-06-08 10:02:31.375
143.0, 40371.832593897896, 30089.314888634075, -21777.774009439232, -11813.05340684097, 15880.109772695278, 13692.790412043383, 39465.35759751291, 12011.693359815283, -0.078, 0.974, 0.322, 192.0, 0.0, 0.0, 0.0, 0.0, 0.0, 0.0, 0.0, 0.0, 0.0, 1.65467535137597E9, 0.0, 2022-06-08 10:02:31.375
144.0, 40335.80158183594, 30062.112815631965, -21837.36376015708, -11872.933730236737, 15830.310086048852, 13635.100559604236, 39540.2806449271, 12001.031577710102, -0.078, 0.974, 0.322, 192.0, 0.0, 0.0, 0.0, 0.0, 0.0, 0.0, 0.0, 0.0, 0.0, 1.6546753513759758E9, 0.0, 2022-06-08 10:02:31.375
145.0, 40320.4682851396, 30046.42189102434, -21849.03137076275, -11885.808335042993, 15810.931123606102, 13622.427120498076, 39591.04145658511, 11977.85281870995, -0.078, 0.974, 0.322, 192.0, 0.0, 0.0, 0.0, 0.0, 0.0, 0.0, 0.0, 0.0, 0.0, 1.6546753513759823E9, 0.0, 2022-06-08 10:02:31.375
146.0, 40316.82495079338, 30033.636693195906, -21832.08874846563, -11867.904587734294, 15809.232391027499, 13637.60395498323, 39548.0367002531, 11943.632297948874, -0.07200000000000001, 0.97, 0.314, 192.0, 253.0, 192.0, 30.0, 80.0, 9.0, 208.0, 0.0, 0.0, 0.0, 1.654675351375987E9, 0.0, 2022-06-08 10:02:31.375
147.0, 40360.61201818133, 30065.93496393382, -21775.047096615686, -11811.198212051178, 15865.737601010514, 13693.058632976847, 39466.206963802215, 11953.288251553566, -0.07200000000000001, 0.97, 0.314, 192.0, 0.0, 0.0, 0.0, 0.0, 0.0, 0.0, 0.0, 0.0, 0.0, 1.654675351375998E9, 0.0, 2022-06-08 10:02:31.375
148.0, 40366.98226535109, 30074.450978571294, -21786.245320587794, -11817.166127820747, 15871.817275502359, 13685.436688117587, 39461.043710833044, 11993.18611540629, -0.07200000000000001, 0.97, 0.314, 192.0, 0.0, 0.0, 0.0, 0.0, 0.0, 0.0, 0.0, 0.0, 0.0, 1.6546753513760028E9, 0.0, 2022-06-08 10:02:31.376
149.0, 40331.912378300716, 30049.886411414915, -21840.582411358646, -11871.324404635956, 15818.284847531897, 13632.016018869403, 39539.07365072652, 12000.316321887532, -0.07200000000000001, 0.97, 0.314, 192.0, 0.0, 0.0, 0.0, 0.0, 0.0, 0.0, 0.0, 0.0, 0.0, 1.654675351376008E9, 0.0, 2022-06-08 10:02:31.376
150.0, 40326.369145675795, 30044.119661345445, -21836.112062467582, -11872.911378492283, 15813.389815496186, 13632.574812480785, 39594.1930525533, 11984.42423157981, -0.07200000000000001, 0.97, 0.314, 192.0, 0.0, 0.0, 0.0, 0.0, 0.0, 0.0, 0.0, 0.0, 0.0, 1.654675351376017E9, 0.0, 2022-06-08 10:02:31.376
151.0, 40347.15626801924, 30060.27997258663, -21791.36387006806, -11827.135005847813, 15837.529699507917, 13674.461981590031, 39548.59549386448, 11963.413591791821, -0.07200000000000001, 0.97, 0.314, 192.0, 0.0, 0.0, 0.0, 0.0, 0.0, 0.0, 0.0, 0.0, 0.0, 1.6546753513760214E9, 0.0, 2022-06-08 10:02:31.376
152.0, 40395.05605638696, 30101.206016684297, -21735.68567462989, -11769.601615619853, 15899.801659560402, 13724.462833936554, 39465.11172832391, 11970.99083316217, -0.07200000000000001, 0.97, 0.314, 192.0, 0.0, 0.0, 0.0, 0.0, 0.0, 0.0, 0.0, 0.0, 0.0, 1.6546753513760257E9, 0.0, 2022-06-08 10:02:31.376
153.0, 40364.32240776091, 30076.596746039006, -21786.334727565616, -11817.277886543023, 15875.862941248768, 13680.943987482071, 39460.976655599676, 11987.531124059096, -0.07200000000000001, 0.97, 0.314, 192.0, 0.0, 0.0, 0.0, 0.0, 0.0, 0.0, 0.0, 0.0, 0.0, 1.654675351376037E9, 0.0, 2022-06-08 10:02:31.376
154.0, 40334.03579402397, 30054.8932021729, -21835.910896767487, -11866.004689455593, 15831.874708160723, 13643.41540854161, 39533.172790190314, 12009.212316180745, -0.07200000000000001, 0.97, 0.314, 192.0, 0.0, 0.0, 0.0, 0.0, 0.0, 0.0, 0.0, 0.0, 0.0, 1.6546753513760476E9, 0.0, 2022-06-08 10:02:31.376
155.0, 40286.314819611885, 30005.205274248754, -21886.448190980936, -11921.414663960299, 15780.331585446786, 13608.099652302224, 39591.46613972976, 11967.816885449516, -0.07200000000000001, 0.97, 0.314, 192.0, 0.0, 0.0, 0.0, 0.0, 0.0, 0.0, 0.0, 0.0, 0.0, 1.6546753513760629E9, 0.0, 2022-06-08 10:02:31.376
156.0, 40291.45572083661, 30000.690221868783, -21855.066341765683, -11894.190239213734, 15782.455001170041, 13620.750739663928, 39557.75970909115, 11910.529364410564, -0.068, 0.97, 0.32, 192.0, 253.0, 224.0, 30.0, 80.0, 10.0, 0.0, 0.0, 0.0, 0.0, 1.6546753513760731E9, 0.0, 2022-06-08 10:02:31.376
157.0, 40375.05124509946, 30077.401408839396, -21753.72353240532, -11790.679310641208, 15880.489752351017, 13705.419147660632, 39471.14669932684, 11942.201786303734, -0.068, 0.97, 0.32, 192.0, 0.0, 0.0, 0.0, 0.0, 0.0, 0.0, 0.0, 0.0, 0.0, 1.654675351376089E9, 0.0, 2022-06-08 10:02:31.376
158.0, 40379.722759690616, 30085.135112420932, -21765.368791266537, -11799.731767145608, 15888.938711755123, 13686.800144529361, 39457.959170098206, 11975.125905886402, -0.068, 0.97, 0.32, 192.0, 0.0, 0.0, 0.0, 0.0, 0.0, 0.0, 0.0, 0.0, 0.0, 1.654675351376099E9, 0.0, 2022-06-08 10:02:31.376
159.0, 40344.071727284405, 30060.503490031184, -21822.7010157944, -11856.169921895256, 15840.524833264928, 13637.782768938872, 39528.34481338797, 11974.03067040809, -0.068, 0.97, 0.32, 192.0, 0.0, 0.0, 0.0, 0.0, 0.0, 0.0, 0.0, 0.0, 0.0, 1.654675351376104E9, 0.0, 2022-06-08 10:02:31.376
160.0, 40308.621860578285, 30025.858286125458, -21854.395789432027, -11889.78694555604, 15804.449117714063, 13606.423271468077, 39590.32620076254, 11945.196920060745, -0.068, 0.97, 0.32, 192.0, 0.0, 0.0, 0.0, 0.0, 0.0, 0.0, 0.0, 0.0, 0.0, 1.6546753513761084E9, 0.0, 2022-06-08 10:02:31.376
161.0, 40349.07851804239, 30053.32858006103, -21786.98292815482, -11822.664656956751, 15847.342115323796, 13672.115048422223, 39550.11541248744, 11961.334879557477, -0.068, 0.97, 0.32, 192.0, 0.0, 0.0, 0.0, 0.0, 0.0, 0.0, 0.0, 0.0, 0.0, 1.6546753513761132E9, 0.0, 2022-06-08 10:02:31.376
162.0, 40369.440957241175, 30065.398522066895, -21757.568032451636, -11793.026243809014, 15871.481999335529, 13707.833136061805, 39467.257495791615, 11970.789667462072, -0.068, 0.97, 0.32, 192.0, 0.0, 0.0, 0.0, 0.0, 0.0, 0.0, 0.0, 0.0, 0.0, 1.6546753513761191E9, 0.0, 2022-06-08 10:02:31.376
163.0, 40340.562503404915, 30043.38205377842, -21800.773954483742, -11836.366276307856, 15845.41986530064, 13663.710792507029, 39462.47422247818, 11974.36594657492, -0.068, 0.97, 0.32, 192.0, 0.0, 0.0, 0.0, 0.0, 0.0, 0.0, 0.0, 0.0, 0.0, 1.6546753513761249E9, 0.0, 2022-06-08 10:02:31.376
164.0, 40326.21268346461, 30039.60460896547, -21834.726254311354, -11872.73256453664, 15819.760062665948, 13633.580640981274, 39535.989109991686, 11985.698281013762, -0.068, 0.97, 0.32, 192.0, 0.0, 0.0, 0.0, 0.0, 0.0, 0.0, 0.0, 0.0, 0.0, 1.6546753513761303E9, 0.0, 2022-06-08 10:02:31.376
165.0, 40305.3138023989, 30016.962291832246, -21853.16644348698, -11892.156230468301, 15793.809687353336, 13612.54764944883, 39592.71783741925, 11960.619623734907, -0.068, 0.97, 0.32, 192.0, 0.0, 0.0, 0.0, 0.0, 0.0, 0.0, 0.0, 0.0, 0.0, 1.654675351376135E9, 0.0, 2022-06-08 10:02:31.376
166.0, 40317.02611649348, 30017.386974976896, -21821.27050414926, -11866.831704000439, 15806.885457859691, 13636.88869916066, 39553.75874683366, 11918.665399392296, -0.074, 0.966, 0.322, 192.0, 253.0, 176.0, 30.0, 48.0, 10.0, 16.0, 0.0, 0.0, 0.0, 1.6546753513761408E9, 0.0, 2022-06-08 10:02:31.376
167.0, 40357.773346635506, 30051.316923060054, -21764.608831955058, -11813.411034752255, 15862.89892946469, 13684.60967357274, 39469.850298148434, 11925.080350050968, -0.074, 0.966, 0.322, 192.0, 0.0, 0.0, 0.0, 0.0, 0.0, 0.0, 0.0, 0.0, 0.0, 1.6546753513761463E9, 0.0, 2022-06-08 10:02:31.376
168.0, 40364.16594554972, 30066.85138545649, -21764.921756377433, -11810.482956228609, 15881.38382212923, 13689.147077697167, 39463.45769923421, 11967.973347660703, -0.074, 0.966, 0.322, 192.0, 0.0, 0.0, 0.0, 0.0, 0.0, 0.0, 0.0, 0.0, 0.0, 1.654675351376152E9, 0.0, 2022-06-08 10:02:31.376
169.0, 40324.558654374916, 30043.00207412268, -21829.31713215317, -11872.665509303273, 15827.382007525208, 13630.339638035255, 39538.53720885959, 11976.824638465005, -0.074, 0.966, 0.322, 192.0, 0.0, 0.0, 0.0, 0.0, 0.0, 0.0, 0.0, 0.0, 0.0, 1.6546753513761575E9, 0.0, 2022-06-08 10:02:31.376
170.0, 40301.290488396946, 30022.97491109072, -21853.546423142725, -11901.052224761514, 15792.714451875026, 13608.613742424697, 39593.20957579727, 11934.64689667784, -0.074, 0.966, 0.322, 192.0, 0.0, 0.0, 0.0, 0.0, 0.0, 0.0, 0.0, 0.0, 0.0, 1.6546753513761635E9, 0.0, 2022-06-08 10:02:31.376
171.0, 40323.28460494096, 30037.592951964492, -21809.960521454876, -11858.62861378534, 15813.099242818267, 13646.008210898426, 39552.14942123287, 11900.515782894587, -0.074, 0.966, 0.322, 192.0, 0.0, 0.0, 0.0, 0.0, 0.0, 0.0, 0.0, 0.0, 0.0, 1.6546753513761718E9, 0.0, 2022-06-08 10:02:31.376
172.0, 40357.46042221313, 30062.828071454536, -21764.228852299315, -11810.281790528512, 15858.47328406254, 13684.766135783928, 39469.38091151487, 11904.717910852183, -0.074, 0.966, 0.322, 192.0, 0.0, 0.0, 0.0, 0.0, 0.0, 0.0, 0.0, 0.0, 0.0, 1.6546753513761773E9, 0.0, 2022-06-08 10:02:31.376
173.0, 40353.86179135583, 30060.056455142076, -21777.394029783492, -11821.971752878637, 15859.747333496493, 13675.780734512895, 39457.35567299792, 11942.112379325912, -0.074, 0.966, 0.322, 192.0, 0.0, 0.0, 0.0, 0.0, 0.0, 0.0, 0.0, 0.0, 0.0, 1.6546753513761816E9, 0.0, 2022-06-08 10:02:31.376
174.0, 40300.64228780774, 30021.387937234398, -21854.015809776283, -11897.92298053777, 15791.060422785333, 13601.081204543258, 39532.837514023486, 11935.451559478232, -0.074, 0.966, 0.322, 192.0, 0.0, 0.0, 0.0, 0.0, 0.0, 0.0, 0.0, 0.0, 0.0, 1.654675351376186E9, 0.0, 2022-06-08 10:02:31.376
175.0, 40280.726883498064, 30004.847646337468, -21873.461827452404, -11919.626524403873, 15762.763114304915, 13581.769297333873, 39596.42822699883, 11906.684864364252, -0.074, 0.966, 0.322, 192.0, 0.0, 0.0, 0.0, 0.0, 0.0, 0.0, 0.0, 0.0, 0.0, 1.6546753513761907E9, 0.0, 2022-06-08 10:02:31.376
176.0, 40317.04846823793, 30032.720271673235, -21813.536800567723, -11863.68010803224, 15812.093414317778, 13640.554385251331, 39563.97349404973, 11903.130936995858, -0.082, 0.972, 0.324, 192.0, 253.0, 112.0, 30.0, 96.0, 10.0, 32.0, 0.0, 0.0, 0.0, 1.6546753513761957E9, 0.0, 2022-06-08 10:02:31.376
177.0, 40356.61105592383, 30064.459748799774, -21763.088913332096, -11816.741444676096, 15861.647231775194, 13689.169429441623, 39479.349789541935, 11909.657646376807, -0.082, 0.972, 0.324, 192.0, 0.0, 0.0, 0.0, 0.0, 0.0, 0.0, 0.0, 0.0, 0.0, 1.654675351376201E9, 0.0, 2022-06-08 10:02:31.376
178.0, 40365.88702987278, 30080.038914685123, -21766.508730233756, -11816.272058042534, 15878.299281394397, 13695.942008011581, 39464.70939692371, 11955.568129488007, -0.082, 0.972, 0.324, 192.0, 0.0, 0.0, 0.0, 0.0, 0.0, 0.0, 0.0, 0.0, 0.0, 1.6546753513762064E9, 0.0, 2022-06-08 10:02:31.376
179.0, 40309.873558267784, 30036.74358567519, -21843.286972437738, -11894.056128747003, 15814.37329225222, 13624.125853076679, 39538.93954025979, 11958.2726905671, -0.082, 0.972, 0.324, 192.0, 0.0, 0.0, 0.0, 0.0, 0.0, 0.0, 0.0, 0.0, 0.0, 1.6546753513762114E9, 0.0, 2022-06-08 10:02:31.376
180.0, 40284.34786609982, 30005.89817832687, -21871.204301262416, -11928.12018729689, 15773.223730709999, 13590.620588138174, 39600.0492096006, 11908.852983576417, -0.082, 0.972, 0.324, 192.0, 0.0, 0.0, 0.0, 0.0, 0.0, 0.0, 0.0, 0.0, 0.0, 1.6546753513762164E9, 0.0, 2022-06-08 10:02:31.376
181.0, 40312.01932573549, 30024.27131226913, -21820.912876237977, -11881.829724529949, 15805.946684592569, 13627.79153916735, 39561.224229481726, 11869.11158193488, -0.082, 0.972, 0.324, 192.0, 0.0, 0.0, 0.0, 0.0, 0.0, 0.0, 0.0, 0.0, 0.0, 1.654675351376223E9, 0.0, 2022-06-08 10:02:31.376
182.0, 40343.423526695195, 30050.981646893222, -21780.612680985058, -11841.842453699404, 15839.22843208652, 13662.526150050897, 39471.68314119377, 11852.3477735934, -0.082, 0.972, 0.324, 192.0, 0.0, 0.0, 0.0, 0.0, 0.0, 0.0, 0.0, 0.0, 0.0, 1.654675351376228E9, 0.0, 2022-06-08 10:02:31.376
183.0, 40368.61394269633, 30077.960202450777, -21763.267727287737, -11820.183613322213, 15871.213778402065, 13690.532885853398, 39453.01943457359, 11913.882126078859, -0.082, 0.972, 0.324, 192.0, 0.0, 0.0, 0.0, 0.0, 0.0, 0.0, 0.0, 0.0, 0.0, 1.654675351376233E9, 0.0, 2022-06-08 10:02:31.376
184.0, 40328.31374744341, 30052.121585860445, -21823.259809405783, -11873.961910481681, 15828.209022070054, 13645.695286476051, 39528.00953722114, 11969.783838961583, -0.082, 0.972, 0.324, 192.0, 0.0, 0.0, 0.0, 0.0, 0.0, 0.0, 0.0, 0.0, 0.0, 1.6546753513762383E9, 0.0, 2022-06-08 10:02:31.376
185.0, 40290.651058036216, 30016.872884854423, -21866.778655860264, -11918.2630679921, 15782.164428492122, 13600.231838253956, 39600.585651467525, 11944.660478193819, -0.082, 0.972, 0.324, 192.0, 0.0, 0.0, 0.0, 0.0, 0.0, 0.0, 0.0, 0.0, 0.0, 1.6546753513762436E9, 0.0, 2022-06-08 10:02:31.376
186.0, 40311.86286352431, 30031.714443172747, -21827.70780655239, -11881.829724529949, 15802.526867690905, 13629.892603146149, 39573.76355812116, 11893.765556069084, -0.076, 0.972, 0.33, 192.0, 253.0, 160.0, 30.0, 96.0, 10.0, 80.0, 0.0, 0.0, 0.0, 1.6546753513762488E9, 0.0, 2022-06-08 10:02:31.376
187.0, 40337.25444522553, 30054.42381553934, -21789.486323533813, -11842.781226966528, 15833.171109339131, 13662.637908773175, 39490.23508909167, 11880.801544285005, -0.076, 0.972, 0.33, 192.0, 0.0, 0.0, 0.0, 0.0, 0.0, 0.0, 0.0, 0.0, 0.0, 1.654675351376254E9, 0.0, 2022-06-08 10:02:31.376
188.0, 40350.19610526515, 30066.873737200945, -21787.854646188574, -11834.444026284698, 15844.503443777972, 13673.165580411624, 39471.12434758239, 11924.856832606416, -0.076, 0.972, 0.33, 192.0, 0.0, 0.0, 0.0, 0.0, 0.0, 0.0, 0.0, 0.0, 0.0, 1.65467535137626E9, 0.0, 2022-06-08 10:02:31.376
189.0, 40326.81618056491, 30052.725082960736, -21838.280181679747, -11877.806410527994, 15811.311103261842, 13630.160824079612, 39540.325348416016, 11954.003507376136, -0.076, 0.972, 0.33, 192.0, 0.0, 0.0, 0.0, 0.0, 0.0, 0.0, 0.0, 0.0, 0.0, 1.6546753513762653E9, 0.0, 2022-06-08 10:02:31.376
190.0, 40284.68314226665, 30011.486114440697, -21892.773734661787, -11930.020085575592, 15759.812684036815, 13568.425305894054, 39606.26299455917, 11886.188314698735, -0.076, 0.972, 0.33, 192.0, 0.0, 0.0, 0.0, 0.0, 0.0, 0.0, 0.0, 0.0, 0.0, 1.6546753513762703E9, 0.0, 2022-06-08 10:02:31.376
191.0, 40334.907512057725, 30048.94763814779, -21808.731175509834, -11866.183503411236, 15808.070100315823, 13626.02575135538, 39566.1416132619, 11846.11163689037, -0.076, 0.972, 0.33, 192.0, 0.0, 0.0, 0.0, 0.0, 0.0, 0.0, 0.0, 0.0, 0.0, 1.654675351376276E9, 0.0, 2022-06-08 10:02:31.376
192.0, 40373.486622987584, 30079.547176307104, -21750.616639926033, -11809.320665516934, 15870.364412112764, 13691.851638776261, 39485.34005705596, 11905.746091097128, -0.076, 0.972, 0.33, 192.0, 0.0, 0.0, 0.0, 0.0, 0.0, 0.0, 0.0, 0.0, 0.0, 1.6546753513762844E9, 0.0, 2022-06-08 10:02:31.376
193.0, 40371.29615203097, 30080.24008038522, -21766.665192444943, -11821.547069733986, 15864.32944110983, 13679.446420603565, 39472.33134178297, 11939.787797902562, -0.076, 0.972, 0.33, 192.0, 0.0, 0.0, 0.0, 0.0, 0.0, 0.0, 0.0, 0.0, 0.0, 1.6546753513762891E9, 0.0, 2022-06-08 10:02:31.376
194.0, 40349.7714221205, 30070.986458180723, -21815.704919779888, -11869.133933679335, 15818.977751610013, 13624.282315287866, 39536.23497918069, 11937.038533334558, -0.076, 0.972, 0.33, 192.0, 0.0, 0.0, 0.0, 0.0, 0.0, 0.0, 0.0, 0.0, 0.0, 1.654675351376294E9, 0.0, 2022-06-08 10:02:31.376
195.0, 40315.30503217042, 30034.866039140947, -21855.28985921024, -11910.104681265913, 15770.988556264469, 13586.463163669487, 39598.194014810804, 11914.016236545593, -0.076, 0.968, 0.33, 192.0, 253.0, 160.0, 30.0, 64.0, 10.0, 80.0, 0.0, 0.0, 0.0, 1.654675351376299E9, 0.0, 2022-06-08 10:02:31.376
196.0, 40342.55180866144, 30049.014693381156, -21804.730213252333, -11861.042602186513, 15802.012777568434, 13638.006286383426, 39567.46036618476, 11901.320445694977, -0.076, 0.968, 0.33, 192.0, 0.0, 0.0, 0.0, 0.0, 0.0, 0.0, 0.0, 0.0, 0.0, 1.6546753513763044E9, 0.0, 2022-06-08 10:02:31.376
197.0, 40371.34085551988, 30071.120568647453, -21755.98105859531, -11813.634552196807, 15849.823158958336, 13680.116972937223, 39486.569403001, 11906.617809130885, -0.076, 0.968, 0.33, 192.0, 0.0, 0.0, 0.0, 0.0, 0.0, 0.0, 0.0, 0.0, 0.0, 1.654675351376312E9, 0.0, 2022-06-08 10:02:31.376
198.0, 40383.16492833674, 30084.91159497638, -21759.31146851915, -11812.606371951864, 15854.04763866039, 13677.904150236149, 39473.35952202792, 11937.306754268022, -0.076, 0.968, 0.33, 192.0, 0.0, 0.0, 0.0, 0.0, 0.0, 0.0, 0.0, 0.0, 0.0, 1.6546753513763187E9, 0.0, 2022-06-08 10:02:31.376
199.0, 40332.56057888992, 30042.845611911493, -21839.688341580433, -11891.776250812562, 15778.185817979076, 13593.727480617463, 39543.387537406394, 11924.678018650773, -0.076, 0.968, 0.33, 192.0, 0.0, 0.0, 0.0, 0.0, 0.0, 0.0, 0.0, 0.0, 0.0, 1.654675351376325E9, 0.0, 2022-06-08 10:02:31.376
200.0, 40296.57427031687, 30005.1829225043, -21873.61828966359, -11927.248469263133, 15736.455111081019, 13561.384506390634, 39609.92868064984, 11882.16500069678, -0.076, 0.968, 0.33, 192.0, 0.0, 0.0, 0.0, 0.0, 0.0, 0.0, 0.0, 0.0, 0.0, 1.6546753513763309E9, 0.0, 2022-06-08 10:02:31.376
201.0, 40337.142686503255, 30035.916571130347, -21805.26665511926, -11864.618881299362, 15777.627024367694, 13615.341617505745, 39581.7431308917, 11865.512951077575, -0.076, 0.968, 0.33, 192.0, 0.0, 0.0, 0.0, 0.0, 0.0, 0.0, 0.0, 0.0, 0.0, 1.654675351376336E9, 0.0, 2022-06-08 10:02:31.376
202.0, 40375.83355615539, 30066.963144178768, -21752.293020760182, -11810.304142272968, 15830.354789537763, 13670.617481543719, 39498.19231011776, 11885.718928065173, -0.076, 0.968, 0.33, 192.0, 0.0, 0.0, 0.0, 0.0, 0.0, 0.0, 0.0, 0.0, 0.0, 1.6546753513763433E9, 0.0, 2022-06-08 10:02:31.376
203.0, 40368.7257014186, 30060.9952284092, -21770.085009346607, -11826.039770369503, 15826.666751702638, 13658.949870938048, 39476.220545318196, 11915.513803424097, -0.076, 0.968, 0.33, 192.0, 0.0, 0.0, 0.0, 0.0, 0.0, 0.0, 0.0, 0.0, 0.0, 1.6546753513763497E9, 0.0, 2022-06-08 10:02:31.376
204.0, 40344.74227961806, 30045.79604217959, -21819.348254126104, -11873.961910481681, 15784.153733748644, 13609.55251569182, 39537.35256640346, 11918.531288925564, -0.076, 0.968, 0.33, 192.0, 0.0, 0.0, 0.0, 0.0, 0.0, 0.0, 0.0, 0.0, 0.0, 1.6546753513763561E9, 0.0, 2022-06-08 10:02:31.376
205.0, 40330.303052699936, 30030.41804199434, -21838.19077470193, -11898.21355321569, 15757.935137502569, 13580.49524789992, 39598.596346211, 11877.82876227245, -0.07200000000000001, 0.9460000000000001, 0.326, 192.0, 253.0, 192.0, 29.0, 144.0, 10.0, 48.0, 0.0, 0.0, 0.0, 1.654675351376362E9, 0.0, 2022-06-08 10:02:31.376
206.0, 40330.3701079333, 30023.66781516884, -21814.833201746133, -11874.16307618178, 15767.41227715162, 13609.239591269445, 39577.652761656376, 11855.544073050509, -0.07200000000000001, 0.9460000000000001, 0.326, 192.0, 0.0, 0.0, 0.0, 0.0, 0.0, 0.0, 0.0, 0.0, 0.0, 1.6546753513763669E9, 0.0, 2022-06-08 10:02:31.376
207.0, 40357.3263117464, 30043.270295056143, -21776.768180938743, -11838.869671686849, 15809.70177766106, 13646.723466720996, 39501.38860957487, 11865.758820266583, -0.07200000000000001, 0.9460000000000001, 0.326, 192.0, 0.0, 0.0, 0.0, 0.0, 0.0, 0.0, 0.0, 0.0, 0.0, 1.654675351376372E9, 0.0, 2022-06-08 10:02:31.376
208.0, 40374.85007939936, 30062.179870865333, -21760.160834808452, -11824.832776168916, 15834.914545406646, 13665.163655896624, 39475.170013328796, 11907.98126554266, -0.07200000000000001, 0.9460000000000001, 0.326, 192.0, 0.0, 0.0, 0.0, 0.0, 0.0, 0.0, 0.0, 0.0, 0.0, 1.6546753513763778E9, 0.0, 2022-06-08 10:02:31.376
209.0, 40351.894837843756, 30057.038969640613, -21811.7486610113, -11871.100887191402, 15792.848562341758, 13620.057835585814, 39543.09696472847, 11933.618716432897, -0.07200000000000001, 0.9460000000000001, 0.326, 192.0, 0.0, 0.0, 0.0, 0.0, 0.0, 0.0, 0.0, 0.0, 0.0, 1.6546753513763843E9, 0.0, 2022-06-08 10:02:31.376
210.0, 40313.18161644717, 30022.37141399043, -21854.23932722084, -11919.492413937141, 15747.45216935303, 13572.4039164071, 39614.13080860744, 11885.003672242603, -0.07200000000000001, 0.9460000000000001, 0.326, 192.0, 0.0, 0.0, 0.0, 0.0, 0.0, 0.0, 0.0, 0.0, 0.0, 1.6546753513763893E9, 0.0, 2022-06-08 10:02:31.376
211.0, 40330.638328866764, 30027.624073937426, -21810.340501110615, -11879.92982625125, 15767.814608551815, 13612.279428515367, 39583.06188381456, 11853.890043960815, -0.07200000000000001, 0.9460000000000001, 0.326, 192.0, 0.0, 0.0, 0.0, 0.0, 0.0, 0.0, 0.0, 0.0, 0.0, 1.6546753513763947E9, 0.0, 2022-06-08 10:02:31.376
212.0, 40375.76650092203, 30069.600650024495, -21744.738131134287, -11816.38381676481, 15822.978713867513, 13668.784638498384, 39493.543147271055, 11861.802561497994, -0.07200000000000001, 0.9460000000000001, 0.326, 192.0, 0.0, 0.0, 0.0, 0.0, 0.0, 0.0, 0.0, 0.0, 0.0, 1.6546753513764E9, 0.0, 2022-06-08 10:02:31.376
213.0, 40369.79858515246, 30063.789196466114, -21761.770160409233, -11835.069875129448, 15824.498632490473, 13656.357068581232, 39468.33037952547, 11880.980358240648, -0.07200000000000001, 0.9460000000000001, 0.326, 192.0, 0.0, 0.0, 0.0, 0.0, 0.0, 0.0, 0.0, 0.0, 0.0, 1.6546753513764052E9, 0.0, 2022-06-08 10:02:31.376
214.0, 40334.03579402397, 30037.74941417568, -21817.18013491394, -11886.367128654378, 15776.889416800668, 13611.072434314781, 39536.52555185861, 11910.417605688288, -0.07200000000000001, 0.9460000000000001, 0.326, 192.0, 0.0, 0.0, 0.0, 0.0, 0.0, 0.0, 0.0, 0.0, 0.0, 1.6546753513764145E9, 0.0, 2022-06-08 10:02:31.376
215.0, 40281.755063743, 29994.83406482149, -21871.27135649578, -11937.619678690397, 15723.82637546377, 13563.552625602797, 39608.051134115594, 11882.723794308162, -0.08600000000000001, 0.974, 0.32, 192.0, 253.0, 80.0, 30.0, 112.0, 10.0, 0.0, 0.0, 0.0, 0.0, 1.6546753513764195E9, 0.0, 2022-06-08 10:02:31.376
216.0, 40299.524700584974, 30006.99341380518, -21826.83608851863, -11898.057091004503, 15749.620288565195, 13600.880038843161, 39587.24166002771, 11848.838549713917, -0.08600000000000001, 0.974, 0.32, 192.0, 0.0, 0.0, 0.0, 0.0, 0.0, 0.0, 0.0, 0.0, 0.0, 1.6546753513764243E9, 0.0, 2022-06-08 10:02:31.376
217.0, 40360.902590859245, 30055.094367873, -21749.700218403366, -11823.514023246053, 15828.521946492428, 13679.80404851485, 39504.83077822099, 11876.01827097157, -0.08600000000000001, 0.974, 0.32, 192.0, 0.0, 0.0, 0.0, 0.0, 0.0, 0.0, 0.0, 0.0, 0.0, 1.654675351376429E9, 0.0, 2022-06-08 10:02:31.376
218.0, 40366.714044417626, 30059.296495830597, -21750.907212603954, -11822.329380789923, 15843.967001911045, 13673.791429256373, 39480.71324595371, 11908.87533532087, -0.08600000000000001, 0.974, 0.32, 192.0, 0.0, 0.0, 0.0, 0.0, 0.0, 0.0, 0.0, 0.0, 0.0, 1.654675351376434E9, 0.0, 2022-06-08 10:02:31.376
219.0, 40323.865750296805, 30034.106079829467, -21826.41140537398, -11887.283550177044, 15779.236349968476, 13601.617646410186, 39546.62854035241, 11894.63727410284, -0.08600000000000001, 0.974, 0.32, 192.0, 0.0, 0.0, 0.0, 0.0, 0.0, 0.0, 0.0, 0.0, 0.0, 1.654675351376439E9, 0.0, 2022-06-08 10:02:31.376
220.0, 40304.50913959851, 30017.45403021026, -21852.74176034233, -11913.189222000745, 15736.030427936368, 13568.201788449502, 39613.16968359586, 11851.833683470928, -0.08600000000000001, 0.974, 0.32, 192.0, 0.0, 0.0, 0.0, 0.0, 0.0, 0.0, 0.0, 0.0, 0.0, 1.6546753513764439E9, 0.0, 2022-06-08 10:02:31.376
221.0, 40306.54314834394, 30007.686317883294, -21832.446376376913, -11897.744166582128, 15740.992515205446, 13588.49717241492, 39592.203747296786, 11825.928011647227, -0.08600000000000001, 0.974, 0.32, 192.0, 0.0, 0.0, 0.0, 0.0, 0.0, 0.0, 0.0, 0.0, 0.0, 1.6546753513764505E9, 0.0, 2022-06-08 10:02:31.376
222.0, 40363.85302112735, 30056.390769051406, -21753.92469810542, -11820.407130766765, 15814.619161441227, 13659.285147104878, 39506.99889743315, 11851.878386959837, -0.08600000000000001, 0.974, 0.32, 192.0, 0.0, 0.0, 0.0, 0.0, 0.0, 0.0, 0.0, 0.0, 0.0, 1.6546753513764596E9, 0.0, 2022-06-08 10:02:31.376
223.0, 40382.94141089218, 30076.641449527917, -21746.190994523884, -11809.074796327925, 15839.630763486715, 13676.47363859101, 39480.51208025361, 11899.062919504991, -0.08600000000000001, 0.974, 0.32, 192.0, 0.0, 0.0, 0.0, 0.0, 0.0, 0.0, 0.0, 0.0, 0.0, 1.654675351376465E9, 0.0, 2022-06-08 10:02:31.376
224.0, 40337.05327952543, 30044.94667589029, -21813.76031801228, -11877.694651805718, 15784.310195959832, 13612.279428515367, 39546.181505463304, 11909.88116382136, -0.08600000000000001, 0.974, 0.32, 192.0, 0.0, 0.0, 0.0, 0.0, 0.0, 0.0, 0.0, 0.0, 0.0, 1.6546753513764706E9, 0.0, 2022-06-08 10:02:31.376
225.0, 40310.49940711253, 30025.545361703083, -21842.057626492697, -11908.987094043148, 15746.669858297093, 13580.003509521905, 39612.052096373096, 11874.654814559795, -0.092, 0.96, 0.322, 192.0, 253.0, 32.0, 30.0, 0.0, 10.0, 16.0, 0.0, 0.0, 0.0, 1.654675351376475E9, 0.0, 2022-06-08 10:02:31.376
226.0, 40324.40219216373, 30029.501620471674, -21806.406594086482, -11872.441991858721, 15770.720335331003, 13614.22403028298, 39584.8947268599, 11846.178692123734, -0.092, 0.96, 0.322, 192.0, 0.0, 0.0, 0.0, 0.0, 0.0, 0.0, 0.0, 0.0, 0.0, 1.6546753513764803E9, 0.0, 2022-06-08 10:02:31.376
227.0, 40366.19995429515, 30066.58316452303, -21745.8333666126, -11807.443118982688, 15830.287734304398, 13678.977033970003, 39498.505234540135, 11859.63444228583, -0.092, 0.96, 0.322, 192.0, 0.0, 0.0, 0.0, 0.0, 0.0, 0.0, 0.0, 0.0, 0.0, 1.654675351376485E9, 0.0, 2022-06-08 10:02:31.376
228.0, 40355.64993091225, 30059.43060629733, -21763.647706943477, -11827.604392481375, 15817.860164387246, 13659.285147104878, 39480.690894209256, 11887.417660643776, -0.092, 0.96, 0.322, 192.0, 0.0, 0.0, 0.0, 0.0, 0.0, 0.0, 0.0, 0.0, 0.0, 1.6546753513764904E9, 0.0, 2022-06-08 10:02:31.376
229.0, 40324.89393054175, 30041.482155499718, -21817.40365235849, -11876.755878538595, 15776.867065056214, 13614.626361683175, 39547.29909268607, 11898.571181126974, -0.092, 0.96, 0.322, 192.0, 0.0, 0.0, 0.0, 0.0, 0.0, 0.0, 0.0, 0.0, 0.0, 1.654675351376496E9, 0.0, 2022-06-08 10:02:31.376
230.0, 40308.30893615591, 30027.0876320705, -21840.872984036563, -11899.331140438455, 15756.325811901786, 13594.241570739934, 39614.354326051995, 11881.650910574308, -0.092, 0.96, 0.322, 192.0, 0.0, 0.0, 0.0, 0.0, 0.0, 0.0, 0.0, 0.0, 0.0, 1.6546753513765016E9, 0.0, 2022-06-08 10:02:31.376
231.0, 40321.07178223989, 30031.55798096156, -21811.301626122193, -11875.213608171178, 15766.004117250934, 13612.949980849025, 39591.6449536854, 11849.419695069755, -0.092, 0.96, 0.322, 192.0, 0.0, 0.0, 0.0, 0.0, 0.0, 0.0, 0.0, 0.0, 0.0, 1.654675351376507E9, 0.0, 2022-06-08 10:02:31.376
232.0, 40347.8715238418, 30053.28387657212, -21770.062657602153, -11837.752084464084, 15805.41024272564, 13651.774960967894, 39507.40122883335, 11835.516910018554, -0.092, 0.96, 0.322, 192.0, 0.0, 0.0, 0.0, 0.0, 0.0, 0.0, 0.0, 0.0, 0.0, 1.6546753513765128E9, 0.0, 2022-06-08 10:02:31.376
233.0, 40364.32240776091, 30067.700751745793, -21754.707009161357, -11822.888174401305, 15835.56274599585, 13667.778809997895, 39478.38866453036, 11876.219436671667, -0.092, 0.96, 0.322, 192.0, 0.0, 0.0, 0.0, 0.0, 0.0, 0.0, 0.0, 0.0, 0.0, 1.6546753513765185E9, 0.0, 2022-06-08 10:02:31.376
234.0, 40309.672392567685, 30027.869943126436, -21830.859402520586, -11897.11831773738, 15776.710602845027, 13597.616684152687, 39542.9852060062, 11905.969608541682, -0.092, 0.96, 0.322, 192.0, 0.0, 0.0, 0.0, 0.0, 0.0, 0.0, 0.0, 0.0, 0.0, 1.6546753513765235E9, 0.0, 2022-06-08 10:02:31.376
235.0, 40287.991200446035, 30009.966195817735, -21856.85448132211, -11925.080350050968, 15740.567832060795, 13570.593425106219, 39611.29213706162, 11881.740317552129, -0.082, 0.966, 0.324, 192.0, 253.0, 112.0, 30.0, 48.0, 10.0, 32.0, 0.0, 0.0, 0.0, 1.6546753513765328E9, 0.0, 2022-06-08 10:02:31.376
236.0, 40311.16995944619, 30018.526913944115, -21809.759355754777, -11881.472096618665, 15771.614405109216, 13612.614704682197, 39591.488491474214, 11852.750104993595, -0.082, 0.966, 0.324, 192.0, 0.0, 0.0, 0.0, 0.0, 0.0, 0.0, 0.0, 0.0, 0.0, 1.6546753513765376E9, 0.0, 2022-06-08 10:02:31.376
237.0, 40348.34091047537, 30043.89614390089, -21752.31537250464, -11826.285639558511, 15829.125443592722, 13665.163655896624, 39505.90366195484, 11861.377878353343, -0.082, 0.966, 0.324, 192.0, 0.0, 0.0, 0.0, 0.0, 0.0, 0.0, 0.0, 0.0, 0.0, 1.654675351376542E9, 0.0, 2022-06-08 10:02:31.376
238.0, 40344.69757612915, 30042.778556678124, -21763.267727287737, -11836.3439245634, 15840.346019309285, 13653.674859246596, 39478.00868487462, 11896.201896214712, -0.082, 0.966, 0.324, 192.0, 0.0, 0.0, 0.0, 0.0, 0.0, 0.0, 0.0, 0.0, 0.0, 1.6546753513765464E9, 0.0, 2022-06-08 10:02:31.376
239.0, 40298.96590697359, 30005.60760564895, -21834.94977175591, -11908.249486476123, 15778.252873212443, 13582.216332222979, 39541.845267038974, 11884.154305953301, -0.082, 0.966, 0.324, 192.0, 0.0, 0.0, 0.0, 0.0, 0.0, 0.0, 0.0, 0.0, 0.0, 1.654675351376552E9, 0.0, 2022-06-08 10:02:31.376
240.0, 40273.3061043389, 29980.774817559104, -21862.956507558407, -11943.229966548679, 15737.773864003882, 13556.44477086601, 39612.27561381765, 11859.187407396723, -0.082, 0.966, 0.324, 192.0, 0.0, 0.0, 0.0, 0.0, 0.0, 0.0, 0.0, 0.0, 0.0, 1.654675351376557E9, 0.0, 2022-06-08 10:02:31.376
241.0, 40293.73559877105, 29994.990527032678, -21822.32103613866, -11907.333064953455, 15764.12657071669, 13596.74496611893, 39596.78585491012, 11845.686953745719, -0.082, 0.966, 0.324, 192.0, 0.0, 0.0, 0.0, 0.0, 0.0, 0.0, 0.0, 0.0, 0.0, 1.6546753518535297E9, 0.0, 2022-06-08 10:02:31.853
242.0, 40354.91232334523, 30049.104100358978, -21739.35136072056, -11828.140834348302, 15842.42473154363, 13673.634967045185, 39510.23990037917, 11857.354564351388, -0.082, 0.966, 0.324, 192.0, 0.0, 0.0, 0.0, 0.0, 0.0, 0.0, 0.0, 0.0, 0.0, 1.6546753518536959E9, 0.0, 2022-06-08 10:02:31.853
243.0, 40364.59062869437, 30060.078806886533, -21739.574878165113, -11828.967848893148, 15860.104961407776, 13671.980937955492, 39478.790995930554, 11896.425413659264, -0.082, 0.966, 0.324, 192.0, 0.0, 0.0, 0.0, 0.0, 0.0, 0.0, 0.0, 0.0, 0.0, 1.6546753518537529E9, 0.0, 2022-06-08 10:02:31.853
244.0, 40328.31374744341, 30033.793155407093, -21805.624283030545, -11894.458460147198, 15805.23142877, 13606.3115127458, 39534.17861869081, 11902.30392245101, -0.082, 0.966, 0.324, 192.0, 0.0, 0.0, 0.0, 0.0, 0.0, 0.0, 0.0, 0.0, 0.0, 1.654675351853758E9, 0.0, 2022-06-08 10:02:31.853
245.0, 40288.63940103524, 29995.974003788713, -21856.89918481102, -11948.147350328845, 15751.028448465879, 13551.661497552574, 39597.47875898823, 11846.692782246208, -0.074, 0.97, 0.318, 192.0, 253.0, 176.0, 30.0, 80.0, 9.0, 240.0, 0.0, 0.0, 0.0, 1.654675351853763E9, 0.0, 2022-06-08 10:02:31.853
246.0, 40285.53250855595, 29985.84866355046, -21837.94490551292, -11933.238736777155, 15752.458960111018, 13570.504018128398, 39580.11145354646, 11816.473223742632, -0.074, 0.97, 0.318, 192.0, 0.0, 0.0, 0.0, 0.0, 0.0, 0.0, 0.0, 0.0, 0.0, 1.6546753518537679E9, 0.0, 2022-06-08 10:02:31.853
247.0, 40316.19910194863, 30013.542474930582, -21783.630166486524, -11877.53818959453, 15796.201324010055, 13619.208469296513, 39504.11552239842, 11820.965924378148, -0.074, 0.97, 0.318, 192.0, 0.0, 0.0, 0.0, 0.0, 0.0, 0.0, 0.0, 0.0, 0.0, 1.6546753518537726E9, 0.0, 2022-06-08 10:02:31.853
248.0, 40350.33021573189, 30044.00790262317, -21753.432959727405, -11846.223395612646, 15828.834870914803, 13648.601013255242, 39472.018417360596, 11861.266119631067, -0.074, 0.97, 0.318, 192.0, 0.0, 0.0, 0.0, 0.0, 0.0, 0.0, 0.0, 0.0, 0.0, 1.6546753518537774E9, 0.0, 2022-06-08 10:02:31.853
249.0, 40331.912378300716, 30039.559905476563, -21797.13062013753, -11883.39434664182, 15799.241161255975, 13610.893620359138, 39536.39144139188, 11892.223285701668, -0.074, 0.97, 0.318, 192.0, 0.0, 0.0, 0.0, 0.0, 0.0, 0.0, 0.0, 0.0, 0.0, 1.6546753518537822E9, 0.0, 2022-06-08 10:02:31.853
250.0, 40306.230223921564, 30017.744602888182, -21833.6533705775, -11921.816995360494, 15754.649431067639, 13570.504018128398, 39609.88397716093, 11862.763686509572, -0.074, 0.97, 0.318, 192.0, 0.0, 0.0, 0.0, 0.0, 0.0, 0.0, 0.0, 0.0, 0.0, 1.654675351853787E9, 0.0, 2022-06-08 10:02:31.853
251.0, 40303.97269773158, 30009.116829528433, -21819.817640759666, -11920.006504059615, 15747.251003652931, 13573.11917222967, 39590.12503506244, 11789.561723418443, -0.074, 0.97, 0.318, 192.0, 0.0, 0.0, 0.0, 0.0, 0.0, 0.0, 0.0, 0.0, 0.0, 1.6546753518537922E9, 0.0, 2022-06-08 10:02:31.853
252.0, 40336.2709684695, 30033.32376877353, -21770.53204423571, -11876.554712838497, 15789.674614629104, 13619.767262907895, 39505.18840613227, 11768.416973163721, -0.074, 0.97, 0.318, 192.0, 0.0, 0.0, 0.0, 0.0, 0.0, 0.0, 0.0, 0.0, 0.0, 1.6546753518537967E9, 0.0, 2022-06-08 10:02:31.853
253.0, 40345.9716255631, 30037.212972308753, -21767.782779667712, -11857.511026562575, 15803.242123513475, 13632.731274691972, 39473.58303947247, 11820.183613322213, -0.074, 0.97, 0.318, 192.0, 0.0, 0.0, 0.0, 0.0, 0.0, 0.0, 0.0, 0.0, 0.0, 1.6546753518538015E9, 0.0, 2022-06-08 10:02:31.853
254.0, 40302.25161340852, 30005.048812037567, -21834.547440355713, -11926.846137862938, 15749.285012398364, 13564.513750614376, 39538.02311873712, 11845.441084556709, -0.074, 0.97, 0.318, 192.0, 0.0, 0.0, 0.0, 0.0, 0.0, 0.0, 0.0, 0.0, 0.0, 1.6546753518538065E9, 0.0, 2022-06-08 10:02:31.853
255.0, 40250.462621505576, 29960.568840571505, -21903.614330722612, -12004.920781245326, 15684.979043600446, 13490.95415961196, 39613.68377371833, 11790.679310641208, -0.07, 0.962, 0.324, 192.0, 253.0, 208.0, 30.0, 16.0, 10.0, 32.0, 0.0, 0.0, 0.0, 1.654675351853811E9, 0.0, 2022-06-08 10:02:31.853
0.0, 40276.83767996284, 29978.003201246644, -21858.08382726715, -11949.354344529433, 15709.521259012374, 13536.842290978706, 39603.446674757804, 11756.682307324685, -0.07, 0.962, 0.324, 192.0, 0.0, 0.0, 0.0, 0.0, 0.0, 0.0, 0.0, 0.0, 0.0, 1.6546753518538337E9, 0.0, 2022-06-08 10:02:31.853
1.0, 40344.474058684595, 30036.251847297175, -21771.98490762531, -11858.986241696626, 15788.22175123951, 13618.090882073748, 39520.70051678426, 11789.740537374084, -0.07, 0.962, 0.324, 192.0, 0.0, 0.0, 0.0, 0.0, 0.0, 0.0, 0.0, 0.0, 0.0, 1.6546753518538382E9, 0.0, 2022-06-08 10:02:31.853
2.0, 40354.26412275602, 30043.247943311686, -21769.79443666869, -11854.515892805564, 15804.627931669706, 13616.861536128705, 39481.47320526519, 11813.81336615245, -0.07, 0.962, 0.324, 192.0, 0.0, 0.0, 0.0, 0.0, 0.0, 0.0, 0.0, 0.0, 0.0, 1.6546753518538427E9, 0.0, 2022-06-08 10:02:31.853
3.0, 40329.78896257746, 30027.869943126436, -21819.92939948194, -11905.388463185844, 15768.283995185377, 13571.711012328984, 39533.99980473516, 11826.442101769699, -0.07, 0.962, 0.324, 192.0, 0.0, 0.0, 0.0, 0.0, 0.0, 0.0, 0.0, 0.0, 0.0, 1.6546753518538473E9, 0.0, 2022-06-08 10:02:31.853
4.0, 40301.82693026387, 30008.759201617147, -21859.491987167836, -11944.146388071345, 15728.341427843741, 13537.311677612268, 39602.61966021296, 11808.180726549714, -0.07, 0.962, 0.324, 192.0, 0.0, 0.0, 0.0, 0.0, 0.0, 0.0, 0.0, 0.0, 0.0, 1.6546753518538516E9, 0.0, 2022-06-08 10:02:31.853
5.0, 40286.5606888009, 29993.582367131996, -21852.94292604243, -11936.591498445452, 15715.846802693226, 13541.603212547687, 39592.74018916371, 11759.99036550407, -0.07, 0.962, 0.324, 192.0, 0.0, 0.0, 0.0, 0.0, 0.0, 0.0, 0.0, 0.0, 0.0, 1.654675351853856E9, 0.0, 2022-06-08 10:02:31.853
6.0, 40334.88516031327, 30037.503544986674, -21784.32307056464, -11862.428410342744, 15772.664937098616, 13615.296914016833, 39505.05429566554, 11767.61231036333, -0.07, 0.962, 0.324, 192.0, 0.0, 0.0, 0.0, 0.0, 0.0, 0.0, 0.0, 0.0, 0.0, 1.6546753518538606E9, 0.0, 2022-06-08 10:02:31.853
7.0, 40355.247599512055, 30058.42477779684, -21763.044209843185, -11846.402209568289, 15804.98555958099, 13643.527167263886, 39464.30706552351, 11820.898869144783, -0.07, 0.962, 0.324, 192.0, 0.0, 0.0, 0.0, 0.0, 0.0, 0.0, 0.0, 0.0, 0.0, 1.654675351853865E9, 0.0, 2022-06-08 10:02:31.853
8.0, 40316.310860670914, 30036.453012997274, -21819.50471633729, -11902.683902106752, 15772.486123142973, 13597.2590562414, 39520.946385973264, 11862.294299876012, -0.07, 0.962, 0.324, 192.0, 0.0, 0.0, 0.0, 0.0, 0.0, 0.0, 0.0, 0.0, 0.0, 1.6546753518538694E9, 0.0, 2022-06-08 10:02:31.853
9.0, 40279.8551654643, 30005.227625993208, -21861.950679057918, -11953.98115563168, 15720.943000429035, 13539.323334613246, 39597.59051771051, 11814.886249886305, -0.074, 0.974, 0.322, 192.0, 253.0, 176.0, 30.0, 112.0, 10.0, 16.0, 0.0, 0.0, 0.0, 1.654675351853874E9, 0.0, 2022-06-08 10:02:31.853
10.0, 40298.94355522914, 30015.12944878691, -21824.958541984386, -11926.063826807002, 15736.835090736759, 13577.433058909543, 39588.58276469502, 11785.940740816683, -0.074, 0.974, 0.322, 192.0, 0.0, 0.0, 0.0, 0.0, 0.0, 0.0, 0.0, 0.0, 0.0, 1.6546753518538785E9, 0.0, 2022-06-08 10:02:31.853
11.0, 40342.68591912817, 30051.048702126587, -21761.792512153686, -11855.119389905858, 15788.35586170624, 13640.84495792925, 39508.29529861156, 11804.783261392506, -0.074, 0.974, 0.322, 192.0, 0.0, 0.0, 0.0, 0.0, 0.0, 0.0, 0.0, 0.0, 0.0, 1.6546753518538828E9, 0.0, 2022-06-08 10:02:31.853
12.0, 40354.13001228929, 30064.459748799774, -21749.34259049208, -11833.05821812847, 15803.689158402582, 13651.283222589878, 39471.86195514941, 11837.595622252897, -0.074, 0.974, 0.322, 192.0, 0.0, 0.0, 0.0, 0.0, 0.0, 0.0, 0.0, 0.0, 0.0, 1.654675351853887E9, 0.0, 2022-06-08 10:02:31.853
13.0, 40326.34679393134, 30048.165327091854, -21794.537817780714, -11876.867637260872, 15768.887492285668, 13621.108367575212, 39523.829761008, 11870.653852302295, -0.074, 0.974, 0.322, 192.0, 0.0, 0.0, 0.0, 0.0, 0.0, 0.0, 0.0, 0.0, 0.0, 1.654675351853892E9, 0.0, 2022-06-08 10:02:31.853
14.0, 40283.453796321606, 30011.352003973963, -21852.451187664414, -11933.417550732798, 15714.326884070264, 13567.128904715646, 39596.65174444339, 11839.674334487241, -0.074, 0.974, 0.322, 192.0, 0.0, 0.0, 0.0, 0.0, 0.0, 0.0, 0.0, 0.0, 0.0, 1.6546753518538969E9, 0.0, 2022-06-08 10:02:31.853
15.0, 40279.36342708629, 30000.84668407997, -21838.906030524497, -11918.128957525369, 15714.215125347988, 13569.54289311682, 39590.46031122927, 11774.697813355662, -0.074, 0.974, 0.322, 192.0, 0.0, 0.0, 0.0, 0.0, 0.0, 0.0, 0.0, 0.0, 0.0, 1.6546753518539011E9, 0.0, 2022-06-08 10:02:31.853
16.0, 40310.45470362362, 30024.584236691506, -21787.60877699957, -11864.01538419907, 15756.102294457234, 13617.152108806624, 39508.027077678096, 11780.062232024937, -0.074, 0.974, 0.322, 192.0, 0.0, 0.0, 0.0, 0.0, 0.0, 0.0, 0.0, 0.0, 0.0, 1.6546753518539057E9, 0.0, 2022-06-08 10:02:31.853
17.0, 40340.0707650269, 30051.205164337774, -21763.17832030992, -11833.706418717673, 15791.060422785333, 13645.918803920604, 39471.66078944931, 11822.351732534378, -0.074, 0.974, 0.322, 192.0, 0.0, 0.0, 0.0, 0.0, 0.0, 0.0, 0.0, 0.0, 0.0, 1.65467535185391E9, 0.0, 2022-06-08 10:02:31.853
18.0, 40306.74431404404, 30025.23243728071, -21820.823469260155, -11885.316596664978, 15747.1168931862, 13594.107460273202, 39530.937615744784, 11844.167035122757, -0.074, 0.97, 0.322, 192.0, 253.0, 176.0, 30.0, 80.0, 10.0, 16.0, 0.0, 0.0, 0.0, 1.6546753518539147E9, 0.0, 2022-06-08 10:02:31.853
19.0, 40273.82019446137, 29998.14212300088, -21863.962336058896, -11931.271783265089, 15695.037328605335, 13546.386485861121, 39605.59244222551, 11798.882400856304, -0.074, 0.97, 0.322, 192.0, 0.0, 0.0, 0.0, 0.0, 0.0, 0.0, 0.0, 0.0, 0.0, 1.6546753518539193E9, 0.0, 2022-06-08 10:02:31.853
20.0, 40290.29343012493, 30004.89234982638, -21828.93715249743, -11903.577971884963, 15720.943000429035, 13578.617701365674, 39596.02589559864, 11780.688080869686, -0.074, 0.97, 0.322, 192.0, 0.0, 0.0, 0.0, 0.0, 0.0, 0.0, 0.0, 0.0, 0.0, 1.654675351853924E9, 0.0, 2022-06-08 10:02:31.853
21.0, 40308.86772976729, 30014.235379008696, -21793.710803235866, -11863.948328965704, 15748.88268099817, 13604.83629761175, 39517.12423767141, 11771.412106920732, -0.074, 0.97, 0.322, 192.0, 0.0, 0.0, 0.0, 0.0, 0.0, 0.0, 0.0, 0.0, 0.0, 1.6546753518539283E9, 0.0, 2022-06-08 10:02:31.853
22.0, 40337.634424881275, 30041.10217584398, -21770.822616913632, -11837.573270508441, 15774.855408055237, 13624.528184476876, 39474.14183308385, 11799.910581101249, -0.074, 0.97, 0.322, 192.0, 0.0, 0.0, 0.0, 0.0, 0.0, 0.0, 0.0, 0.0, 0.0, 1.6546753518539343E9, 0.0, 2022-06-08 10:02:31.853
23.0, 40301.58106107486, 30016.001166820668, -21832.08874846563, -11902.572143384474, 15722.082939396256, 13570.526369872854, 39525.95317673125, 11816.540278975997, -0.074, 0.97, 0.322, 192.0, 0.0, 0.0, 0.0, 0.0, 0.0, 0.0, 0.0, 0.0, 0.0, 1.6546753518539388E9, 0.0, 2022-06-08 10:02:31.853
24.0, 40256.117612852766, 29977.243241935164, -21889.823304393685, -11959.524388256597, 15659.922738066047, 13509.528459254321, 39600.36213402297, 11765.980633018093, -0.074, 0.97, 0.322, 192.0, 0.0, 0.0, 0.0, 0.0, 0.0, 0.0, 0.0, 0.0, 0.0, 1.6546753518539433E9, 0.0, 2022-06-08 10:02:31.853
25.0, 40271.11563338228, 29982.27238443761, -21855.982763288353, -11923.046341305535, 15672.372659727653, 13536.127035156136, 39590.102683317986, 11727.043894176948, -0.074, 0.97, 0.322, 192.0, 0.0, 0.0, 0.0, 0.0, 0.0, 0.0, 0.0, 0.0, 0.0, 1.654675351853948E9, 0.0, 2022-06-08 10:02:31.853
26.0, 40313.583947847364, 30017.364623232443, -21789.978061911832, -11859.053296929991, 15735.806910491814, 13599.896562087128, 39513.48090332519, 11746.065228708414, -0.074, 0.97, 0.322, 192.0, 0.0, 0.0, 0.0, 0.0, 0.0, 0.0, 0.0, 0.0, 0.0, 1.654675351853953E9, 0.0, 2022-06-08 10:02:31.853
27.0, 40317.22728219358, 30022.259655268153, -21794.046079402695, -11860.081477174936, 15753.576547333783, 13604.813945867294, 39483.08253086598, 11778.89994131326, -0.074, 0.97, 0.322, 192.0, 0.0, 0.0, 0.0, 0.0, 0.0, 0.0, 0.0, 0.0, 0.0, 1.6546753518539572E9, 0.0, 2022-06-08 10:02:31.853
28.0, 40288.617049290784, 30013.095440041478, -21853.56877488718, -11905.701387608218, 15716.718520726983, 13558.992869733915, 39534.17861869081, 11802.548086946976, -0.07, 0.962, 0.322, 192.0, 253.0, 208.0, 30.0, 16.0, 10.0, 16.0, 0.0, 0.0, 0.0, 1.654675351853962E9, 0.0, 2022-06-08 10:02:31.853
29.0, 40266.39941530221, 29996.778666589104, -21873.6629931525, -11927.941373341248, 15676.641842918616, 13522.827747205229, 39605.815959670064, 11788.511191429043, -0.07, 0.962, 0.322, 192.0, 0.0, 0.0, 0.0, 0.0, 0.0, 0.0, 0.0, 0.0, 0.0, 1.6546753518539665E9, 0.0, 2022-06-08 10:02:31.853
30.0, 40275.07189215087, 29996.55514914455, -21842.75053057081, -11909.12120450988, 15683.05679357729, 13538.921003213049, 39599.15513982238, 11737.862138493318, -0.07, 0.962, 0.322, 192.0, 0.0, 0.0, 0.0, 0.0, 0.0, 0.0, 0.0, 0.0, 0.0, 1.6546753518539708E9, 0.0, 2022-06-08 10:02:31.853
31.0, 40325.3186136864, 30038.442318253794, -21775.807055927165, -11845.06110490097, 15746.11106468571, 13607.540858690842, 39515.559615559534, 11741.684286795175, -0.07, 0.962, 0.322, 192.0, 0.0, 0.0, 0.0, 0.0, 0.0, 0.0, 0.0, 0.0, 0.0, 1.6546753518539758E9, 0.0, 2022-06-08 10:02:31.853
32.0, 40344.02702379549, 30055.027312639635, -21765.122922077528, -11839.830796698428, 15773.246082454454, 13623.678818187575, 39468.15156556983, 11794.032072309503, -0.07, 0.962, 0.322, 192.0, 0.0, 0.0, 0.0, 0.0, 0.0, 0.0, 0.0, 0.0, 0.0, 1.6546753518539803E9, 0.0, 2022-06-08 10:02:31.853
33.0, 40301.37989537477, 30020.717384900738, -21824.04212046172, -11891.083346734447, 15717.433776549553, 13575.086125741736, 39520.745220273166, 11815.19917430868, -0.07, 0.962, 0.322, 192.0, 0.0, 0.0, 0.0, 0.0, 0.0, 0.0, 0.0, 0.0, 0.0, 1.654675351853986E9, 0.0, 2022-06-08 10:02:31.853
34.0, 40289.26524987999, 30010.994376062677, -21844.717484082877, -11909.612942887896, 15701.608741475195, 13553.673154553551, 39594.9977153537, 11809.47712772812, -0.07, 0.962, 0.322, 192.0, 0.0, 0.0, 0.0, 0.0, 0.0, 0.0, 0.0, 0.0, 0.0, 1.6546753518539903E9, 0.0, 2022-06-08 10:02:31.853
35.0, 40293.91441272669, 30005.227625993208, -21826.858440263088, -11898.325311937966, 15704.514468254385, 13559.64107032312, 39592.78489265262, 11770.026298764504, -0.07, 0.962, 0.322, 192.0, 0.0, 0.0, 0.0, 0.0, 0.0, 0.0, 0.0, 0.0, 0.0, 1.654675351853995E9, 0.0, 2022-06-08 10:02:31.853
36.0, 40337.88029407028, 30039.694015943292, -21763.245375543283, -11845.441084556709, 15758.158654947121, 13618.873193129682, 39508.00472593364, 11768.886359797283, -0.07, 0.962, 0.322, 192.0, 0.0, 0.0, 0.0, 0.0, 0.0, 0.0, 0.0, 0.0, 0.0, 1.6546753518539996E9, 0.0, 2022-06-08 10:02:31.853
37.0, 40349.95023607615, 30049.12645210343, -21751.39895098197, -11816.674389442729, 15788.132344261689, 13633.915917148104, 39458.9649985987, 11806.884325371306, -0.07, 0.962, 0.322, 192.0, 0.0, 0.0, 0.0, 0.0, 0.0, 0.0, 0.0, 0.0, 0.0, 1.6546753518540041E9, 0.0, 2022-06-08 10:02:31.854
38.0, 40325.542131130955, 30032.317940273042, -21797.667062004457, -11859.34386960791, 15752.950698489036, 13592.83341083925, 39504.875481709896, 11826.86678491435, -0.068, 0.966, 0.32, 192.0, 253.0, 224.0, 30.0, 48.0, 10.0, 0.0, 0.0, 0.0, 0.0, 1.6546753518540092E9, 0.0, 2022-06-08 10:02:31.854
39.0, 40284.414921333184, 29999.12559975691, -21855.17810048796, -11929.818919875494, 15695.43966000553, 13533.48952931041, 39579.30679074607, 11795.909618843749, -0.068, 0.966, 0.32, 192.0, 0.0, 0.0, 0.0, 0.0, 0.0, 0.0, 0.0, 0.0, 0.0, 1.654675351854015E9, 0.0, 2022-06-08 10:02:31.854
40.0, 40260.34209255482, 29972.817596533016, -21864.387019203547, -11952.237719564167, 15667.455275947486, 13516.613962246653, 39582.324276247535, 11733.28003087998, -0.068, 0.966, 0.32, 192.0, 0.0, 0.0, 0.0, 0.0, 0.0, 0.0, 0.0, 0.0, 0.0, 1.65467535185402E9, 0.0, 2022-06-08 10:02:31.854
41.0, 40325.87740729778, 30025.23243728071, -21768.408628512458, -11846.58102352393, 15749.73204728747, 13602.087033043746, 39508.89879571185, 11755.005926490538, -0.068, 0.966, 0.32, 192.0, 0.0, 0.0, 0.0, 0.0, 0.0, 0.0, 0.0, 0.0, 0.0, 1.6546753518540244E9, 0.0, 2022-06-08 10:02:31.854
42.0, 40358.108622802334, 30048.500603258683, -21739.999561309764, -11813.701607430174, 15793.630873397695, 13630.02671361288, 39472.085472593964, 11810.259438784056, -0.068, 0.966, 0.32, 192.0, 0.0, 0.0, 0.0, 0.0, 0.0, 0.0, 0.0, 0.0, 0.0, 1.6546753518540468E9, 0.0, 2022-06-08 10:02:31.854
43.0, 40326.97264277609, 30026.46178322575, -21799.07522190514, -11869.87154124636, 15747.519224586396, 13575.130829230648, 39522.265138896124, 11834.891061173805, -0.068, 0.966, 0.32, 192.0, 0.0, 0.0, 0.0, 0.0, 0.0, 0.0, 0.0, 0.0, 0.0, 1.6546753518540533E9, 0.0, 2022-06-08 10:02:31.854
44.0, 40269.126328125756, 29978.629050091393, -21876.680478653965, -11955.74694344365, 15670.003374815391, 13500.699520194474, 39597.36700026596, 11790.299330985466, -0.068, 0.966, 0.32, 192.0, 0.0, 0.0, 0.0, 0.0, 0.0, 0.0, 0.0, 0.0, 0.0, 1.6546753518540576E9, 0.0, 2022-06-08 10:02:31.854
45.0, 40280.32455209787, 29979.478416380694, -21859.581394145658, -11919.157137770313, 15675.054869062289, 13523.76652047235, 39593.92483161984, 11752.793103789461, -0.068, 0.966, 0.32, 192.0, 0.0, 0.0, 0.0, 0.0, 0.0, 0.0, 0.0, 0.0, 0.0, 1.654675351854062E9, 0.0, 2022-06-08 10:02:31.854
46.0, 40325.29626194194, 30014.458896453252, -21774.44359951539, -11845.843415956906, 15728.296724354832, 13593.861591084195, 39513.48090332519, 11766.13709522928, -0.068, 0.966, 0.32, 192.0, 0.0, 0.0, 0.0, 0.0, 0.0, 0.0, 0.0, 0.0, 0.0, 1.654675351854067E9, 0.0, 2022-06-08 10:02:31.854
47.0, 40362.48956471557, 30051.0934056155, -21738.457290942348, -11827.045598869992, 15776.956472034035, 13627.009228111414, 39462.58598120046, 11816.652037698273, -0.068, 0.966, 0.32, 192.0, 0.0, 0.0, 0.0, 0.0, 0.0, 0.0, 0.0, 0.0, 0.0, 1.654675351854072E9, 0.0, 2022-06-08 10:02:31.854
48.0, 40330.012480022015, 30032.429698995318, -21798.002338171285, -11884.288416420033, 15733.30351511282, 13571.375736162156, 39509.59169978997, 11836.232165841124, -0.07200000000000001, 0.9560000000000001, 0.326, 192.0, 253.0, 192.0, 29.0, 224.0, 10.0, 48.0, 0.0, 0.0, 0.0, 1.6546753518540764E9, 0.0, 2022-06-08 10:02:31.854
49.0, 40304.08445645386, 30010.27912024011, -21840.962391014386, -11913.479794678664, 15684.86728487817, 13526.672247251541, 39583.106587303475, 11815.310933030956, -0.07200000000000001, 0.9560000000000001, 0.326, 192.0, 0.0, 0.0, 0.0, 0.0, 0.0, 0.0, 0.0, 0.0, 0.0, 1.6546753518540819E9, 0.0, 2022-06-08 10:02:31.854
50.0, 40321.898796784735, 30025.09832681398, -21812.64273078951, -11896.425413659264, 15693.405651260096, 13551.102703941191, 39581.22904076923, 11777.827057579405, -0.07200000000000001, 0.9560000000000001, 0.326, 192.0, 0.0, 0.0, 0.0, 0.0, 0.0, 0.0, 0.0, 0.0, 0.0, 1.6546753518540866E9, 0.0, 2022-06-08 10:02:31.854
51.0, 40339.33315745988, 30032.787326906604, -21772.811922170153, -11863.322480120956, 15726.665047009594, 13590.486477671442, 39506.50715905514, 11782.677386126208, -0.07200000000000001, 0.9560000000000001, 0.326, 192.0, 0.0, 0.0, 0.0, 0.0, 0.0, 0.0, 0.0, 0.0, 0.0, 1.6546753518540916E9, 0.0, 2022-06-08 10:02:31.854
52.0, 40334.415773679706, 30025.61241693645, -21780.16564609595, -11861.891968475815, 15733.236459879454, 13587.3572334477, 39466.363426013406, 11807.778395149517, -0.07200000000000001, 0.9560000000000001, 0.326, 192.0, 0.0, 0.0, 0.0, 0.0, 0.0, 0.0, 0.0, 0.0, 0.0, 1.654675351854096E9, 0.0, 2022-06-08 10:02:31.854
53.0, 40311.974622246584, 30014.19067551979, -21828.490117608326, -11904.69555910773, 15695.909046639092, 13549.135750429125, 39513.43619983628, 11822.307029045467, -0.07200000000000001, 0.9560000000000001, 0.326, 192.0, 0.0, 0.0, 0.0, 0.0, 0.0, 0.0, 0.0, 0.0, 0.0, 1.654675351854103E9, 0.0, 2022-06-08 10:02:31.854
54.0, 40286.963020201096, 29997.628032878405, -21863.828225592166, -11942.358248514922, 15661.442656689009, 13513.417662789543, 39589.27566877314, 11811.399377751277, -0.07200000000000001, 0.9560000000000001, 0.326, 192.0, 0.0, 0.0, 0.0, 0.0, 0.0, 0.0, 0.0, 0.0, 0.0, 1.6546753518541076E9, 0.0, 2022-06-08 10:02:31.854
55.0, 40283.96788644408, 29989.06731475202, -21852.76411208679, -11944.325202026988, 15664.594252657207, 13520.078482637226, 39595.757674665176, 11776.396545934265, -0.07200000000000001, 0.9560000000000001, 0.326, 192.0, 0.0, 0.0, 0.0, 0.0, 0.0, 0.0, 0.0, 0.0, 0.0, 1.654675351854112E9, 0.0, 2022-06-08 10:02:31.854
56.0, 40312.64517458024, 30011.75433537416, -21799.32109109415, -11881.78502104104, 15703.285122309342, 13566.234834937435, 39516.81131324903, 11756.749362558052, -0.07200000000000001, 0.9560000000000001, 0.326, 192.0, 0.0, 0.0, 0.0, 0.0, 0.0, 0.0, 0.0, 0.0, 0.0, 1.6546753518541174E9, 0.0, 2022-06-08 10:02:31.854
57.0, 40336.449782425145, 30034.95544611877, -21774.488303004302, -11861.176712653245, 15745.418160607596, 13594.934474818048, 39468.799766159034, 11798.837697367395, -0.07200000000000001, 0.9560000000000001, 0.326, 192.0, 0.0, 0.0, 0.0, 0.0, 0.0, 0.0, 0.0, 0.0, 0.0, 1.6546753518541265E9, 0.0, 2022-06-08 10:02:31.854
58.0, 40305.604375076815, 30014.011861564144, -21828.46776586387, -11904.896724807826, 15708.068395622779, 13549.202805662491, 39518.15241791635, 11816.3391132759, -0.07200000000000001, 0.96, 0.33, 192.0, 253.0, 192.0, 30.0, 0.0, 10.0, 80.0, 0.0, 0.0, 0.0, 1.6546753518541353E9, 0.0, 2022-06-08 10:02:31.854
59.0, 40278.11172939679, 29995.303451455053, -21872.008964062807, -11960.686678968274, 15667.499979436396, 13508.232058075913, 39592.74018916371, 11799.463546212142, -0.07200000000000001, 0.96, 0.33, 192.0, 0.0, 0.0, 0.0, 0.0, 0.0, 0.0, 0.0, 0.0, 0.0, 1.6546753518541434E9, 0.0, 2022-06-08 10:02:31.854
60.0, 40270.48978453753, 29981.93710827078, -21861.03425753525, -11929.12601579738, 15654.580671141228, 13513.10473836717, 39601.56912822356, 11772.149714487758, -0.07200000000000001, 0.96, 0.33, 192.0, 0.0, 0.0, 0.0, 0.0, 0.0, 0.0, 0.0, 0.0, 0.0, 1.6546753518541522E9, 0.0, 2022-06-08 10:02:31.854
61.0, 40314.634479836765, 30020.31505350054, -21789.240454344806, -11859.030945185536, 15709.945942157025, 13578.908274043593, 39523.740354030175, 11773.535522643986, -0.07200000000000001, 0.96, 0.33, 192.0, 0.0, 0.0, 0.0, 0.0, 0.0, 0.0, 0.0, 0.0, 0.0, 1.6546753518541622E9, 0.0, 2022-06-08 10:02:31.854
62.0, 40360.45555597014, 30062.559850521073, -21745.095759045573, -11817.411997009754, 15767.434628896073, 13626.785710666862, 39468.84446964794, 11826.352694791878, -0.07200000000000001, 0.96, 0.33, 192.0, 0.0, 0.0, 0.0, 0.0, 0.0, 0.0, 0.0, 0.0, 0.0, 1.6546753518541691E9, 0.0, 2022-06-08 10:02:31.854
63.0, 40335.26513996901, 30045.8407456685, -21797.55530328218, -11869.692727290718, 15730.77776798937, 13580.003509521905, 39513.48090332519, 11851.207834626179, -0.07200000000000001, 0.96, 0.33, 192.0, 0.0, 0.0, 0.0, 0.0, 0.0, 0.0, 0.0, 0.0, 0.0, 1.654675351854174E9, 0.0, 2022-06-08 10:02:31.854
64.0, 40287.18653764565, 30006.0322887936, -21861.16836800198, -11938.826672890982, 15671.612700416174, 13516.703369224475, 39590.90734611837, 11809.946514361682, -0.07200000000000001, 0.96, 0.33, 192.0, 0.0, 0.0, 0.0, 0.0, 0.0, 0.0, 0.0, 0.0, 0.0, 1.6546753518541856E9, 0.0, 2022-06-08 10:02:31.854
65.0, 40291.411017347695, 30006.904006827357, -21844.94100152743, -11921.057036049013, 15681.045136576313, 13534.204785132979, 39594.03659034212, 11754.961223001626, -0.07200000000000001, 0.96, 0.33, 192.0, 0.0, 0.0, 0.0, 0.0, 0.0, 0.0, 0.0, 0.0, 0.0, 1.6546753518541908E9, 0.0, 2022-06-08 10:02:31.854
66.0, 40332.940558545655, 30038.196449064788, -21789.88865493401, -11859.768552752561, 15730.844823222737, 13593.615721895185, 39512.92210971381, 11765.310080684434, -0.07200000000000001, 0.96, 0.33, 192.0, 0.0, 0.0, 0.0, 0.0, 0.0, 0.0, 0.0, 0.0, 0.0, 1.6546753518541963E9, 0.0, 2022-06-08 10:02:31.854
67.0, 40357.14749779076, 30060.48113828673, -21744.335799734094, -11832.72294196164, 15766.205282951032, 13635.257021815423, 39459.56849569899, 11828.453758770676, -0.07200000000000001, 0.96, 0.33, 192.0, 0.0, 0.0, 0.0, 0.0, 0.0, 0.0, 0.0, 0.0, 0.0, 1.6546753518542008E9, 0.0, 2022-06-08 10:02:31.854
68.0, 40309.15830244521, 30023.868980868934, -21820.17526867095, -11906.751919597617, 15711.242343335432, 13579.936454288538, 39508.25059512265, 11845.530491534531, -0.076, 0.962, 0.33, 192.0, 253.0, 160.0, 30.0, 16.0, 10.0, 80.0, 0.0, 0.0, 0.0, 1.6546753518542056E9, 0.0, 2022-06-08 10:02:31.854
69.0, 40285.66661902268, 30006.769896360627, -21856.318039455182, -11928.768387886095, 15676.306566751788, 13521.933677427016, 39589.72270366224, 11824.72101744664, -0.076, 0.962, 0.33, 192.0, 0.0, 0.0, 0.0, 0.0, 0.0, 0.0, 0.0, 0.0, 0.0, 1.6546753518542104E9, 0.0, 2022-06-08 10:02:31.854
70.0, 40275.407168317695, 29985.535739128085, -21856.787426088744, -11920.386483715354, 15665.488322435418, 13501.77240392833, 39599.78098866713, 11775.61423487833, -0.076, 0.962, 0.33, 192.0, 0.0, 0.0, 0.0, 0.0, 0.0, 0.0, 0.0, 0.0, 0.0, 1.654675351854215E9, 0.0, 2022-06-08 10:02:31.854
71.0, 40316.60143334883, 30013.922454586325, -21798.404669571482, -11870.54209358002, 15705.565000243783, 13557.182378433035, 39518.353583616445, 11754.46948462361, -0.076, 0.962, 0.33, 192.0, 0.0, 0.0, 0.0, 0.0, 0.0, 0.0, 0.0, 0.0, 0.0, 1.6546753518542197E9, 0.0, 2022-06-08 10:02:31.854
72.0, 40341.00953829403, 30037.32473103103, -21775.605890227067, -11851.654869515285, 15737.192718648044, 13580.45054441101, 39463.88238237886, 11787.281845484, -0.076, 0.962, 0.33, 192.0, 0.0, 0.0, 0.0, 0.0, 0.0, 0.0, 0.0, 0.0, 0.0, 1.654675351854224E9, 0.0, 2022-06-08 10:02:31.854
73.0, 40325.20685496412, 30031.446222239283, -21813.000358700796, -11888.714061822184, 15722.842898707737, 13550.186282418525, 39513.324441114004, 11821.43531101171, -0.076, 0.962, 0.33, 192.0, 0.0, 0.0, 0.0, 0.0, 0.0, 0.0, 0.0, 0.0, 0.0, 1.6546753518542285E9, 0.0, 2022-06-08 10:02:31.854
74.0, 40302.050447708425, 30012.26842549663, -21850.260716707795, -11928.947201841736, 15683.973215099957, 13513.708235467462, 39591.39908449639, 11807.219601538134, -0.076, 0.962, 0.33, 192.0, 0.0, 0.0, 0.0, 0.0, 0.0, 0.0, 0.0, 0.0, 0.0, 1.6546753518542333E9, 0.0, 2022-06-08 10:02:31.854
75.0, 40307.23605242206, 30013.52012318613, -21833.183983943938, -11928.366056485898, 15681.49217146542, 13530.606154275674, 39596.98702061022, 11776.642415123275, -0.076, 0.962, 0.33, 192.0, 0.0, 0.0, 0.0, 0.0, 0.0, 0.0, 0.0, 0.0, 0.0, 1.6546753518542385E9, 0.0, 2022-06-08 10:02:31.854
76.0, 40332.940558545655, 30038.17409732033, -21782.378468797026, -11912.40691094481, 15726.128605142667, 13575.3543466752, 39526.06493545353, 11754.916519512715, -0.076, 0.962, 0.33, 192.0, 0.0, 0.0, 0.0, 0.0, 0.0, 0.0, 0.0, 0.0, 0.0, 1.6546753518542435E9, 0.0, 2022-06-08 10:02:31.854
77.0, 40339.579026648884, 30042.398577022384, -21773.41541927045, -11828.3420000484, 15744.412332107107, 13577.857742054195, 39474.3653505284, 11765.913577784728, -0.076, 0.962, 0.33, 192.0, 0.0, 0.0, 0.0, 0.0, 0.0, 0.0, 0.0, 0.0, 0.0, 1.654675351854248E9, 0.0, 2022-06-08 10:02:31.854
78.0, 40300.6646395522, 30011.217893507233, -21830.635885076033, -11881.96383499668, 15706.123793855168, 13534.048322921792, 39516.476037082204, 11797.608351422352, -0.076, 0.968, 0.33, 192.0, 253.0, 160.0, 30.0, 64.0, 10.0, 80.0, 0.0, 0.0, 0.0, 1.6546753518542533E9, 0.0, 2022-06-08 10:02:31.854
79.0, 40259.11274660978, 29976.997372746155, -21885.643528180546, -11957.199806833245, 15653.95482229648, 13480.00180482886, 39593.20957579727, 11775.882455811794, -0.076, 0.968, 0.33, 192.0, 0.0, 0.0, 0.0, 0.0, 0.0, 0.0, 0.0, 0.0, 0.0, 1.6546753518542595E9, 0.0, 2022-06-08 10:02:31.854
80.0, 40270.02039790397, 29978.249070435653, -21861.146016257528, -11948.728495684683, 15668.61756665916, 13497.190296314991, 39608.02878237114, 11748.546272342954, -0.076, 0.968, 0.33, 192.0, 0.0, 0.0, 0.0, 0.0, 0.0, 0.0, 0.0, 0.0, 0.0, 1.654675351854265E9, 0.0, 2022-06-08 10:02:31.854
81.0, 40294.07087493788, 29994.342326443475, -21821.76224252728, -11883.126125708357, 15708.604837489705, 13539.882128224628, 39539.18540944879, 11738.242118149057, -0.076, 0.968, 0.33, 192.0, 0.0, 0.0, 0.0, 0.0, 0.0, 0.0, 0.0, 0.0, 0.0, 1.6546753518542707E9, 0.0, 2022-06-08 10:02:31.854
82.0, 40301.37989537477, 30002.90304456986, -21797.89057944901, -11888.222323444168, 15716.584410260251, 13554.388410376121, 39487.396417545846, 11760.727973071096, -0.076, 0.968, 0.33, 192.0, 0.0, 0.0, 0.0, 0.0, 0.0, 0.0, 0.0, 0.0, 0.0, 1.6546753518542783E9, 0.0, 2022-06-08 10:02:31.854
83.0, 40280.39160733123, 29990.408419419342, -21838.23547819084, -11924.02981806157, 15689.91877912507, 13513.685883723008, 39526.55667383155, 11777.983519790592, -0.076, 0.968, 0.33, 192.0, 0.0, 0.0, 0.0, 0.0, 0.0, 0.0, 0.0, 0.0, 0.0, 1.6546753518542848E9, 0.0, 2022-06-08 10:02:31.854
84.0, 40258.911580909684, 29972.63878257737, -21875.00409781982, -11951.902443397337, 15661.666174133561, 13484.539208953287, 39604.25133755819, 11771.054479009448, -0.076, 0.968, 0.33, 192.0, 0.0, 0.0, 0.0, 0.0, 0.0, 0.0, 0.0, 0.0, 0.0, 1.6546753518542926E9, 0.0, 2022-06-08 10:02:31.854
85.0, 40271.361502571286, 29976.93031751279, -21849.813681818687, -11946.426266005787, 15671.657403905083, 13508.299113309278, 39611.78387543963, 11741.840749006362, -0.076, 0.968, 0.33, 192.0, 0.0, 0.0, 0.0, 0.0, 0.0, 0.0, 0.0, 0.0, 0.0, 1.6546753518542993E9, 0.0, 2022-06-08 10:02:31.854
86.0, 40297.44598835063, 29993.448256665262, -21803.63497777402, -11896.693634592728, 15709.320093312275, 13545.023029449349, 39533.26219716814, 11728.60851628882, -0.076, 0.968, 0.33, 192.0, 0.0, 0.0, 0.0, 0.0, 0.0, 0.0, 0.0, 0.0, 0.0, 1.6546753518543112E9, 0.0, 2022-06-08 10:02:31.854
87.0, 40335.98039579158, 30027.579370448515, -21763.17832030992, -11858.986241696626, 15753.464788611507, 13584.339747946233, 39475.72880694018, 11763.633699850287, -0.076, 0.968, 0.33, 192.0, 0.0, 0.0, 0.0, 0.0, 0.0, 0.0, 0.0, 0.0, 0.0, 1.6546753518543155E9, 0.0, 2022-06-08 10:02:31.854
88.0, 40323.03873575196, 30023.24313202419, -21801.466858561856, -11909.769405099083, 15727.939096443546, 13550.767427774363, 39512.29626086906, 11798.882400856304, -0.074, 0.97, 0.326, 192.0, 253.0, 176.0, 30.0, 80.0, 10.0, 48.0, 0.0, 0.0, 0.0, 1.6546753518543203E9, 0.0, 2022-06-08 10:02:31.854
89.0, 40258.19632508711, 29969.420131375806, -21885.129438058073, -11956.663364966318, 15645.796435570293, 13470.345851224167, 39594.908308375874, 11754.916519512715, -0.074, 0.97, 0.326, 192.0, 0.0, 0.0, 0.0, 0.0, 0.0, 0.0, 0.0, 0.0, 0.0, 1.654675351854326E9, 0.0, 2022-06-08 10:02:31.854
90.0, 40269.08162463685, 29976.997372746155, -21857.010943533296, -11941.575937458985, 15659.587461899218, 13500.09602309418, 39612.65559347339, 11721.053626662926, -0.074, 0.97, 0.326, 192.0, 0.0, 0.0, 0.0, 0.0, 0.0, 0.0, 0.0, 0.0, 0.0, 1.6546753518543308E9, 0.0, 2022-06-08 10:02:31.854
91.0, 40304.285622153955, 30005.540550415582, -21797.868227704555, -11887.752936810606, 15705.430889777052, 13553.941375487017, 39538.73837455969, 11722.350027841334, -0.074, 0.97, 0.326, 192.0, 0.0, 0.0, 0.0, 0.0, 0.0, 0.0, 0.0, 0.0, 0.0, 1.6546753518543365E9, 0.0, 2022-06-08 10:02:31.854
92.0, 40321.65292759573, 30016.694070898782, -21781.59615774109, -11875.68299480474, 15728.766110988392, 13559.484608111932, 39478.41101627481, 11735.89518498125, -0.074, 0.97, 0.326, 192.0, 0.0, 0.0, 0.0, 0.0, 0.0, 0.0, 0.0, 0.0, 0.0, 1.654675351854342E9, 0.0, 2022-06-08 10:02:31.854
93.0, 40310.27588966798, 30011.530817929604, -21814.54262906821, -11906.59545738643, 15709.431852034551, 13530.829671720228, 39509.971679445705, 11766.919406285217, -0.074, 0.97, 0.326, 192.0, 0.0, 0.0, 0.0, 0.0, 0.0, 0.0, 0.0, 0.0, 0.0, 1.6546753518543477E9, 0.0, 2022-06-08 10:02:31.854
94.0, 40263.739557712026, 29974.046942478057, -21877.84276936564, -11986.882923469893, 15645.394104170098, 13472.893950092071, 39593.83542464202, 11752.860159022828, -0.074, 0.97, 0.326, 192.0, 0.0, 0.0, 0.0, 0.0, 0.0, 0.0, 0.0, 0.0, 0.0, 1.6546753518543673E9, 0.0, 2022-06-08 10:02:31.854
95.0, 40255.6035227303, 29962.80401501704, -21875.674650153476, -12017.102481973468, 15636.498109876886, 13474.726793137408, 39617.39416329791, 11706.882620678261, -0.074, 0.97, 0.326, 192.0, 0.0, 0.0, 0.0, 0.0, 0.0, 0.0, 0.0, 0.0, 0.0, 1.6546753518543742E9, 0.0, 2022-06-08 10:02:31.854
96.0, 40315.55090135943, 30011.664928396338, -21788.301681077683, -11871.950253480703, 15706.146145599621, 13551.773256274852, 39543.946331017774, 11709.006036401515, -0.074, 0.97, 0.326, 192.0, 0.0, 0.0, 0.0, 0.0, 0.0, 0.0, 0.0, 0.0, 0.0, 1.6546753518543794E9, 0.0, 2022-06-08 10:02:31.854
97.0, 40346.12808777429, 30038.352911275975, -21757.500977218268, -11856.080514917436, 15752.414256622107, 13582.283387456346, 39483.90954541082, 11751.295536910957, -0.074, 0.97, 0.326, 192.0, 0.0, 0.0, 0.0, 0.0, 0.0, 0.0, 0.0, 0.0, 0.0, 1.6546753518543847E9, 0.0, 2022-06-08 10:02:31.854
98.0, 40309.806503034415, 30009.742678373183, -21828.46776586387, -11894.480811891654, 15703.195715331522, 13525.241735606402, 39519.53822607258, 11771.657976109742, -0.07, 0.966, 0.324, 192.0, 253.0, 208.0, 30.0, 48.0, 10.0, 32.0, 0.0, 0.0, 0.0, 1.654675351854389E9, 0.0, 2022-06-08 10:02:31.854
99.0, 40273.41786306118, 29982.45119839325, -21875.3617257311, -11952.416533519809, 15649.70799084997, 13477.341947238678, 39595.02006709815, 11741.661935050719, -0.07, 0.966, 0.324, 192.0, 0.0, 0.0, 0.0, 0.0, 0.0, 0.0, 0.0, 0.0, 0.0, 1.6546753518543944E9, 0.0, 2022-06-08 10:02:31.854
100.0, 40280.92804919816, 29986.675678095304, -21840.001266002808, -11922.487547694152, 15659.028668287834, 13498.464345748944, 39610.152198094394, 11719.08667315086, -0.07, 0.966, 0.324, 192.0, 0.0, 0.0, 0.0, 0.0, 0.0, 0.0, 0.0, 0.0, 0.0, 1.6546753518544E9, 0.0, 2022-06-08 10:02:31.854
101.0, 40309.15830244521, 30008.80390510606, -21796.482419548323, -11879.92982625125, 15693.562113471284, 13536.082331667225, 39540.191237949286, 11710.45889979111, -0.07, 0.966, 0.324, 192.0, 0.0, 0.0, 0.0, 0.0, 0.0, 0.0, 0.0, 0.0, 0.0, 1.6546753518544044E9, 0.0, 2022-06-08 10:02:31.854
102.0, 40346.64217789676, 30041.03512061061, -21758.35034350757, -11840.300183331989, 15742.11010242821, 13568.648823338608, 39483.48486226617, 11734.218804147102, -0.07, 0.966, 0.324, 192.0, 0.0, 0.0, 0.0, 0.0, 0.0, 0.0, 0.0, 0.0, 0.0, 1.6546753518544092E9, 0.0, 2022-06-08 10:02:31.854
103.0, 40331.17477073369, 30032.65321643987, -21792.615567757555, -11871.726736036151, 15724.027541163869, 13539.815072991261, 39521.81810400702, 11766.2265022071, -0.07, 0.966, 0.324, 192.0, 0.0, 0.0, 0.0, 0.0, 0.0, 0.0, 0.0, 0.0, 0.0, 1.654675351854414E9, 0.0, 2022-06-08 10:02:31.854
104.0, 40293.89206098224, 30002.947748058767, -21850.193661474426, -11936.435036234265, 15675.859531862681, 13488.942502610982, 39602.28438404613, 11761.554987615942, -0.07, 0.966, 0.324, 192.0, 0.0, 0.0, 0.0, 0.0, 0.0, 0.0, 0.0, 0.0, 0.0, 1.6546753518544185E9, 0.0, 2022-06-08 10:02:31.854
105.0, 40289.24289813553, 29993.98469853219, -21845.164518971982, -11930.444768720243, 15662.314374722764, 13496.452688747966, 39620.09872437701, 11714.728082982074, -0.07, 0.966, 0.324, 192.0, 0.0, 0.0, 0.0, 0.0, 0.0, 0.0, 0.0, 0.0, 0.0, 1.654675352333246E9, 0.0, 2022-06-08 10:02:32.333
106.0, 40297.02130520598, 29996.108114255443, -21813.64855929, -11898.414718915787, 15674.518427195362, 13523.498299538887, 39554.92103754533, 11687.101326835314, -0.07, 0.966, 0.324, 192.0, 0.0, 0.0, 0.0, 0.0, 0.0, 0.0, 0.0, 0.0, 0.0, 1.6546753523333144E9, 0.0, 2022-06-08 10:02:32.333
107.0, 40347.80446860844, 30040.588085721505, -21755.60107893957, -11841.261308343568, 15736.097483169733, 13568.112381471681, 39493.76666471561, 11720.159556884713, -0.07200000000000001, 0.966, 0.328, 192.0, 253.0, 192.0, 30.0, 48.0, 10.0, 64.0, 0.0, 0.0, 0.0, 1.6546753523333724E9, 0.0, 2022-06-08 10:02:32.333
108.0, 40320.20006420613, 30021.007957578655, -21801.824486473142, -11898.54882938252, 15704.358006043198, 13525.442901306498, 39526.02023196462, 11755.922348013204, -0.07200000000000001, 0.966, 0.328, 192.0, 0.0, 0.0, 0.0, 0.0, 0.0, 0.0, 0.0, 0.0, 0.0, 1.6546753523333788E9, 0.0, 2022-06-08 10:02:32.333
109.0, 40280.2574968645, 29989.402590918853, -21856.787426088744, -11949.868434651904, 15649.462121660963, 13468.177732012002, 39604.899538147394, 11740.901975739238, -0.07200000000000001, 0.966, 0.328, 192.0, 0.0, 0.0, 0.0, 0.0, 0.0, 0.0, 0.0, 0.0, 0.0, 1.6546753523333893E9, 0.0, 2022-06-08 10:02:32.333
110.0, 40287.58886904584, 29990.74369558617, -21840.04596949172, -11931.987039087659, 15658.380467698631, 13478.012499572338, 39624.12203837896, 11699.50654500801, -0.07200000000000001, 0.966, 0.328, 192.0, 0.0, 0.0, 0.0, 0.0, 0.0, 0.0, 0.0, 0.0, 0.0, 1.6546753523333976E9, 0.0, 2022-06-08 10:02:32.333
111.0, 40320.222415950586, 30015.55413193156, -21788.055811888673, -11868.217512156667, 15697.58542747324, 13535.165910144558, 39550.674206098825, 11702.83695493185, -0.07200000000000001, 0.966, 0.328, 192.0, 0.0, 0.0, 0.0, 0.0, 0.0, 0.0, 0.0, 0.0, 0.0, 1.6546753523334117E9, 0.0, 2022-06-08 10:02:32.333
112.0, 40352.4759831996, 30041.07982409952, -21754.6846574169, -11832.924107661738, 15734.354047102219, 13567.151256460102, 39488.33519081297, 11732.028333190481, -0.07200000000000001, 0.966, 0.328, 192.0, 0.0, 0.0, 0.0, 0.0, 0.0, 0.0, 0.0, 0.0, 0.0, 1.654675352333421E9, 0.0, 2022-06-08 10:02:32.333
113.0, 40352.4759831996, 30050.847536426492, -21771.068486102642, -11858.762724252072, 15732.230631378965, 13552.82378826425, 39522.53335982959, 11774.876627311305, -0.07200000000000001, 0.966, 0.328, 192.0, 0.0, 0.0, 0.0, 0.0, 0.0, 0.0, 0.0, 0.0, 0.0, 1.6546753523334284E9, 0.0, 2022-06-08 10:02:32.333
114.0, 40281.1068631538, 29990.31901244152, -21871.450170451426, -11972.622510507406, 15642.086045990713, 13460.220510985913, 39611.40389578389, 11738.778560015984, -0.07200000000000001, 0.966, 0.328, 192.0, 0.0, 0.0, 0.0, 0.0, 0.0, 0.0, 0.0, 0.0, 0.0, 1.6546753523334365E9, 0.0, 2022-06-08 10:02:32.333
115.0, 40262.286694322436, 29965.150948184844, -21883.900092113032, -12008.47470861372, 15623.243525414888, 13451.548034137253, 39634.53795129513, 11671.455105716599, -0.07200000000000001, 0.966, 0.328, 192.0, 0.0, 0.0, 0.0, 0.0, 0.0, 0.0, 0.0, 0.0, 0.0, 1.6546753523334427E9, 0.0, 2022-06-08 10:02:32.333
116.0, 40339.08728827087, 30030.12746931642, -21759.534985963703, -11835.025171640536, 15707.978988644958, 13555.215424920969, 39555.479831156714, 11695.639693217241, -0.07200000000000001, 0.966, 0.328, 192.0, 0.0, 0.0, 0.0, 0.0, 0.0, 0.0, 0.0, 0.0, 0.0, 1.6546753523334496E9, 0.0, 2022-06-08 10:02:32.333
117.0, 40378.29224804548, 30061.509318531673, -21723.749843090754, -11777.648243623764, 15751.296669399342, 13590.911160816093, 39491.173862358795, 11747.383981631277, -0.078, 0.97, 0.322, 192.0, 253.0, 144.0, 30.0, 80.0, 10.0, 16.0, 0.0, 0.0, 0.0, 1.654675352333455E9, 0.0, 2022-06-08 10:02:32.333
118.0, 40344.29524472896, 30031.937960617302, -21785.708878720867, -11854.448837572198, 15706.43671827754, 13533.668343266052, 39526.623729064915, 11757.911653269728, -0.078, 0.97, 0.322, 192.0, 0.0, 0.0, 0.0, 0.0, 0.0, 0.0, 0.0, 0.0, 0.0, 1.6546753523334608E9, 0.0, 2022-06-08 10:02:32.333
119.0, 40287.700627768114, 29983.144102471368, -21855.759245843798, -11933.17168154379, 15640.297906434287, 13470.926996580005, 39606.26299455917, 11735.805778003429, -0.078, 0.97, 0.322, 192.0, 0.0, 0.0, 0.0, 0.0, 0.0, 0.0, 0.0, 0.0, 0.0, 1.654675352333466E9, 0.0, 2022-06-08 10:02:32.333
120.0, 40280.88334570925, 29970.917698254314, -21850.484234152347, -11929.818919875494, 15628.026798728324, 13477.09607804967, 39630.08995414853, 11695.349120539322, -0.078, 0.97, 0.322, 192.0, 0.0, 0.0, 0.0, 0.0, 0.0, 0.0, 0.0, 0.0, 0.0, 1.654675352333472E9, 0.0, 2022-06-08 10:02:32.333
121.0, 40327.53143638747, 30011.396707462874, -21777.461085016857, -11861.467285331164, 15689.270578535865, 13540.373866602644, 39557.62559862442, 11683.525047722465, -0.078, 0.97, 0.322, 192.0, 0.0, 0.0, 0.0, 0.0, 0.0, 0.0, 0.0, 0.0, 0.0, 1.6546753523334801E9, 0.0, 2022-06-08 10:02:32.333
122.0, 40355.94050359017, 30038.732890931715, -21741.228907254805, -11831.694761716695, 15735.941020958546, 13577.790686820828, 39492.917298426306, 11714.12458588178, -0.078, 0.97, 0.322, 192.0, 0.0, 0.0, 0.0, 0.0, 0.0, 0.0, 0.0, 0.0, 0.0, 1.6546753523334863E9, 0.0, 2022-06-08 10:02:32.333
123.0, 40327.576139876386, 30017.69989939927, -21792.615567757555, -11885.003672242603, 15703.083956609245, 13535.478834566931, 39524.38855461938, 11746.691077553163, -0.078, 0.97, 0.322, 192.0, 0.0, 0.0, 0.0, 0.0, 0.0, 0.0, 0.0, 0.0, 0.0, 1.6546753523334923E9, 0.0, 2022-06-08 10:02:32.333
124.0, 40288.88527022425, 29989.469646152218, -21845.499795138814, -11944.101684582434, 15646.556394881773, 13472.268101247324, 39600.4962444897, 11732.497719824043, -0.078, 0.97, 0.322, 192.0, 0.0, 0.0, 0.0, 0.0, 0.0, 0.0, 0.0, 0.0, 0.0, 1.6546753523334975E9, 0.0, 2022-06-08 10:02:32.333
125.0, 40277.21765961858, 29975.008067489634, -21844.89629803852, -11948.12499858439, 15635.894612776592, 13472.022232058316, 39626.13369537994, 11697.137260095747, -0.078, 0.97, 0.322, 192.0, 0.0, 0.0, 0.0, 0.0, 0.0, 0.0, 0.0, 0.0, 0.0, 1.654675352333505E9, 0.0, 2022-06-08 10:02:32.333
126.0, 40329.654852110725, 30017.90106509937, -21766.039343600198, -11852.951270693693, 15697.518372239874, 13545.715933527463, 39563.54881090508, 11697.69605370713, -0.078, 0.97, 0.322, 192.0, 0.0, 0.0, 0.0, 0.0, 0.0, 0.0, 0.0, 0.0, 0.0, 1.6546753523335102E9, 0.0, 2022-06-08 10:02:32.333
127.0, 40338.14851500375, 30022.483172712706, -21758.953840607865, -11842.356543821877, 15714.528049770362, 13554.522520842853, 39502.03681016407, 11713.40933005921, -0.076, 0.968, 0.326, 192.0, 253.0, 160.0, 30.0, 64.0, 10.0, 48.0, 0.0, 0.0, 0.0, 1.6546753523335154E9, 0.0, 2022-06-08 10:02:32.333
128.0, 40298.004781962016, 29991.883634553393, -21821.13639368253, -11905.902553308315, 15671.925624838546, 13508.746148198385, 39530.82585702251, 11713.968123670593, -0.076, 0.968, 0.326, 192.0, 0.0, 0.0, 0.0, 0.0, 0.0, 0.0, 0.0, 0.0, 0.0, 1.6546753523335311E9, 0.0, 2022-06-08 10:02:32.333
129.0, 40266.91350542468, 29974.426922133796, -21867.85153959412, -11956.216330077212, 15635.514633120853, 13458.857054574139, 39615.6507272304, 11707.642579989742, -0.076, 0.968, 0.326, 192.0, 0.0, 0.0, 0.0, 0.0, 0.0, 0.0, 0.0, 0.0, 0.0, 1.6546753523335364E9, 0.0, 2022-06-08 10:02:32.333
130.0, 40251.11082209478, 29955.070311435502, -21874.55706293071, -11983.530161801596, 15614.861621244148, 13445.155435223036, 39646.69730027882, 11668.281158003945, -0.076, 0.968, 0.326, 192.0, 0.0, 0.0, 0.0, 0.0, 0.0, 0.0, 0.0, 0.0, 0.0, 1.654675352333541E9, 0.0, 2022-06-08 10:02:32.333
131.0, 40298.98825871805, 29990.74369558617, -21802.919721951454, -11893.07265199097, 15669.645746904105, 13512.277723822323, 39582.10075880298, 11657.038230542927, -0.076, 0.968, 0.326, 192.0, 0.0, 0.0, 0.0, 0.0, 0.0, 0.0, 0.0, 0.0, 0.0, 1.6546753523335466E9, 0.0, 2022-06-08 10:02:32.333
132.0, 40345.323424973896, 30030.37333850543, -21759.24441328578, -11848.503273547087, 15724.586334775251, 13568.15708496059, 39514.39732484786, 11710.548306768931, -0.076, 0.968, 0.326, 192.0, 0.0, 0.0, 0.0, 0.0, 0.0, 0.0, 0.0, 0.0, 0.0, 1.654675352333552E9, 0.0, 2022-06-08 10:02:32.333
133.0, 40321.69763108464, 30016.42584996532, -21793.487285791314, -11874.2524831596, 15707.911933411591, 13527.76748272985, 39537.19610419227, 11736.74455127055, -0.076, 0.968, 0.326, 192.0, 0.0, 0.0, 0.0, 0.0, 0.0, 0.0, 0.0, 0.0, 0.0, 1.6546753523335617E9, 0.0, 2022-06-08 10:02:32.333
134.0, 40263.69485422312, 29969.80011103155, -21860.877795324064, -11946.716838683706, 15633.011237741857, 13450.050467258749, 39615.69543071931, 11701.898181664728, -0.076, 0.968, 0.326, 192.0, 0.0, 0.0, 0.0, 0.0, 0.0, 0.0, 0.0, 0.0, 0.0, 1.654675352333567E9, 0.0, 2022-06-08 10:02:32.333
135.0, 40249.277979049446, 29953.88566897937, -21872.344240229635, -11970.32028082851, 15612.335874120698, 13444.194310211458, 39642.04813743212, 11641.168491979659, -0.076, 0.968, 0.326, 192.0, 0.0, 0.0, 0.0, 0.0, 0.0, 0.0, 0.0, 0.0, 0.0, 1.6546753523335733E9, 0.0, 2022-06-08 10:02:32.333
136.0, 40288.2594213795, 29985.60279436145, -21811.70395752239, -11936.926774612282, 15664.393086957109, 13498.866677149139, 39577.161023278364, 11627.243355184002, -0.076, 0.968, 0.326, 192.0, 0.0, 0.0, 0.0, 0.0, 0.0, 0.0, 0.0, 0.0, 0.0, 1.6546753523335786E9, 0.0, 2022-06-08 10:02:32.333
137.0, 40339.06493652641, 30025.120678558433, -21758.082122574106, -11831.314782060956, 15727.268544109887, 13551.214462663469, 39506.66362126632, 11673.936149351139, -0.074, 0.964, 0.328, 192.0, 253.0, 176.0, 30.0, 32.0, 10.0, 64.0, 0.0, 0.0, 0.0, 1.6546753523335884E9, 0.0, 2022-06-08 10:02:32.333
138.0, 40335.30984345792, 30023.578408191017, -21784.032497886717, -11860.930843464237, 15719.691302739539, 13531.477872309431, 39528.41186862133, 11715.532745782464, -0.074, 0.964, 0.328, 192.0, 0.0, 0.0, 0.0, 0.0, 0.0, 0.0, 0.0, 0.0, 0.0, 1.6546753523335936E9, 0.0, 2022-06-08 10:02:32.333
139.0, 40301.44695060813, 29997.89625381187, -21834.301571166703, -11914.753844112616, 15672.596177172207, 13479.510066450843, 39612.78970394012, 11712.202335858625, -0.074, 0.964, 0.328, 192.0, 0.0, 0.0, 0.0, 0.0, 0.0, 0.0, 0.0, 0.0, 0.0, 1.6546753523335996E9, 0.0, 2022-06-08 10:02:32.333
140.0, 40279.54224104193, 29970.537718598574, -21848.09259749563, -11925.102701795424, 15643.829482058227, 13461.38280169759, 39644.93151246685, 11671.320995249867, -0.074, 0.964, 0.328, 192.0, 0.0, 0.0, 0.0, 0.0, 0.0, 0.0, 0.0, 0.0, 0.0, 1.6546753523336048E9, 0.0, 2022-06-08 10:02:32.333
141.0, 40304.8667675098, 29985.044000750066, -21800.50573355028, -11891.843306045927, 15677.357098741186, 13513.618828489642, 39576.75869187817, 11641.436712913122, -0.074, 0.964, 0.328, 192.0, 0.0, 0.0, 0.0, 0.0, 0.0, 0.0, 0.0, 0.0, 0.0, 1.6546753523336103E9, 0.0, 2022-06-08 10:02:32.333
142.0, 40336.69565161415, 30009.429753950808, -21768.185111067905, -11864.842398743916, 15721.859421951704, 13536.931697956526, 39506.283641610586, 11657.68643113213, -0.074, 0.964, 0.328, 192.0, 0.0, 0.0, 0.0, 0.0, 0.0, 0.0, 0.0, 0.0, 0.0, 1.6546753523336155E9, 0.0, 2022-06-08 10:02:32.333
143.0, 40340.87542782729, 30012.22372200772, -21790.581559012124, -11875.906512249294, 15713.678683481061, 13511.763633699851, 39526.467266853724, 11690.185867570146, -0.074, 0.964, 0.328, 192.0, 0.0, 0.0, 0.0, 0.0, 0.0, 0.0, 0.0, 0.0, 0.0, 1.6546753523336215E9, 0.0, 2022-06-08 10:02:32.333
144.0, 40305.894947754736, 29996.666907866827, -21844.27044919377, -11930.042437320048, 15663.655479390083, 13465.160246510535, 39604.20663406928, 11690.923475137171, -0.074, 0.964, 0.328, 192.0, 0.0, 0.0, 0.0, 0.0, 0.0, 0.0, 0.0, 0.0, 0.0, 1.65467535233363E9, 0.0, 2022-06-08 10:02:32.333
145.0, 40269.79688045941, 29968.056674964035, -21855.871004566074, -11943.252318293133, 15635.984019754413, 13453.537339393777, 39634.98498618424, 11659.54162592192, -0.074, 0.964, 0.328, 192.0, 0.0, 0.0, 0.0, 0.0, 0.0, 0.0, 0.0, 0.0, 0.0, 1.654675352333635E9, 0.0, 2022-06-08 10:02:32.333
146.0, 40299.36823837379, 29994.744657843672, -21797.622358515546, -11885.49541062062, 15672.596177172207, 13508.097947609182, 39565.18048825031, 11631.713704075064, -0.074, 0.964, 0.328, 192.0, 0.0, 0.0, 0.0, 0.0, 0.0, 0.0, 0.0, 0.0, 0.0, 1.6546753523336399E9, 0.0, 2022-06-08 10:02:32.333
147.0, 40330.012480022015, 30024.740698902693, -21754.6846574169, -11838.065008886459, 15717.97021841648, 13557.092971455213, 39491.19621410325, 11663.944919579617, -0.074, 0.964, 0.332, 192.0, 253.0, 176.0, 30.0, 32.0, 10.0, 96.0, 0.0, 0.0, 0.0, 1.654675352333645E9, 0.0, 2022-06-08 10:02:32.333
148.0, 40305.1126366988, 30009.385050461897, -21792.526160779737, -11886.188314698735, 15702.301645553309, 13526.87341295164, 39522.421601107315, 11705.899143922228, -0.074, 0.964, 0.332, 192.0, 0.0, 0.0, 0.0, 0.0, 0.0, 0.0, 0.0, 0.0, 0.0, 1.6546753523336513E9, 0.0, 2022-06-08 10:02:32.333
149.0, 40254.508287251985, 29973.532852355584, -21866.197510504426, -11943.565242715507, 15643.628316358128, 13461.405153442045, 39613.12498010695, 11688.59889371382, -0.074, 0.964, 0.332, 192.0, 0.0, 0.0, 0.0, 0.0, 0.0, 0.0, 0.0, 0.0, 0.0, 1.654675352333657E9, 0.0, 2022-06-08 10:02:32.333
150.0, 40236.470429476554, 29959.563012071016, -21858.88849006754, -11927.762559385606, 15625.165775438045, 13451.480978903888, 39646.36202411199, 11642.576651880343, -0.074, 0.964, 0.332, 192.0, 0.0, 0.0, 0.0, 0.0, 0.0, 0.0, 0.0, 0.0, 0.0, 1.6546753523336668E9, 0.0, 2022-06-08 10:02:32.333
