%OpenBCI Raw EEG Data
%Number of channels = 8
%Sample Rate = 250 Hz
%Board = OpenBCI_GUI$BoardCytonSerial
Sample Index, EXG Channel 0, EXG Channel 1, EXG Channel 2, EXG Channel 3, EXG Channel 4, EXG Channel 5, EXG Channel 6, EXG Channel 7, Accel Channel 0, Accel Channel 1, Accel Channel 2, Other, Other, Other, Other, Other, Other, Other, Analog Channel 0, Analog Channel 1, Analog Channel 2, Timestamp, Other, Timestamp (Formatted)
0.0, 0.0, 0.0, 0.0, 0.0, 0.0, 0.0, 0.0, 0.0, 0.0, 0.0, 0.0, 192.0, 0.0, 0.0, 0.0, 0.0, 0.0, 0.0, 0.0, 0.0, 0.0, 1.654674996858216E9, 0.0, 2022-06-08 09:56:36.858
1.0, 22687.44530528132, 38717.9376146719, -9966.06170726558, -12444.825463870224, 3929.257861287339, 4716.55335623662, 15508.266151936788, 311.8068351515335, -0.022, 0.878, 0.456, 192.0, 255.0, 80.0, 27.0, 112.0, 14.0, 64.0, 0.0, 0.0, 0.0, 1.6546749973398244E9, 0.0, 2022-06-08 09:56:37.339
2.0, 22706.734860746248, 38731.08044041162, -9951.108390224981, -12418.964495535434, 3948.122733607618, 4729.450312787332, 15516.245724707333, 318.4229515103044, -0.022, 0.878, 0.456, 192.0, 0.0, 0.0, 0.0, 0.0, 0.0, 0.0, 0.0, 0.0, 0.0, 1.654674997339904E9, 0.0, 2022-06-08 09:56:37.339
3.0, 22732.417015125397, 38753.85686801158, -9926.566174813053, -12384.83338175218, 3972.799059486277, 4754.953653210838, 15542.151396531035, 375.91163824935416, -0.022, 0.878, 0.456, 192.0, 0.0, 0.0, 0.0, 0.0, 0.0, 0.0, 0.0, 0.0, 0.0, 1.654674997339913E9, 0.0, 2022-06-08 09:56:37.339
4.0, 22738.07200647259, 38747.77719351974, -9930.477730092733, -12393.684672556481, 3965.7806117273108, 4742.324917593589, 15534.104768527124, 355.30332986156105, -0.022, 0.878, 0.456, 192.0, 0.0, 0.0, 0.0, 0.0, 0.0, 0.0, 0.0, 0.0, 0.0, 1.6546749973399217E9, 0.0, 2022-06-08 09:56:37.339
5.0, 22739.994256495746, 38737.271873625745, -9943.86642502146, -12408.101547730155, 3958.4715912904253, 4715.234603313756, 15526.728692856872, 301.1897565352627, -0.022, 0.878, 0.456, 192.0, 0.0, 0.0, 0.0, 0.0, 0.0, 0.0, 0.0, 0.0, 0.0, 1.65467499733993E9, 0.0, 2022-06-08 09:56:37.339
6.0, 22738.854317528527, 38741.13872541651, -9949.610823346475, -12407.319236674219, 3948.7932859412776, 4711.770082923184, 15530.841413836648, 357.6055595404577, -0.022, 0.878, 0.456, 192.0, 0.0, 0.0, 0.0, 0.0, 0.0, 0.0, 0.0, 0.0, 0.0, 1.6546749973399365E9, 0.0, 2022-06-08 09:56:37.339
7.0, 22743.324666419587, 38752.62752206654, -9937.496177851699, -12391.963588233422, 3962.1819808700066, 4729.115036620502, 15545.258289010322, 411.36150495547116, -0.022, 0.878, 0.456, 192.0, 0.0, 0.0, 0.0, 0.0, 0.0, 0.0, 0.0, 0.0, 0.0, 1.6546749973399448E9, 0.0, 2022-06-08 09:56:37.339
8.0, 22745.381026909476, 38762.68580707143, -9925.940325968306, -12377.993747948856, 3977.291760121794, 4738.860397203016, 15565.397210764553, 421.41978996035937, -0.014, 0.902, 0.426, 192.0, 255.0, 144.0, 28.0, 48.0, 13.0, 80.0, 0.0, 0.0, 0.0, 1.654674997339952E9, 0.0, 2022-06-08 09:56:37.339
9.0, 22737.02147448319, 38759.13187970303, -9928.4437213473, -12377.703175270937, 3968.7980972287774, 4729.427961042877, 15565.956004375936, 428.0806098080409, -0.014, 0.902, 0.426, 192.0, 0.0, 0.0, 0.0, 0.0, 0.0, 0.0, 0.0, 0.0, 0.0, 1.65467499733996E9, 0.0, 2022-06-08 09:56:37.339
10.0, 22731.478241858273, 38745.13968767401, -9945.766323300162, -12386.755631775337, 3961.9137599365426, 4720.889594660949, 15555.517739715307, 401.43733041731485, -0.014, 0.902, 0.426, 192.0, 0.0, 0.0, 0.0, 0.0, 0.0, 0.0, 0.0, 0.0, 0.0, 1.654674997339968E9, 0.0, 2022-06-08 09:56:37.339
11.0, 22722.336378376054, 38734.544960802195, -9962.68659385283, -12397.864448769624, 3953.8894836770874, 4714.049960857626, 15545.191233776955, 384.7629290536558, -0.014, 0.902, 0.426, 192.0, 0.0, 0.0, 0.0, 0.0, 0.0, 0.0, 0.0, 0.0, 0.0, 1.654674997339974E9, 0.0, 2022-06-08 09:56:37.339
12.0, 22736.507384360717, 38751.42052786595, -9950.795465802606, -12386.196838163953, 3967.5016960503694, 4726.656344730419, 15558.401114750042, 407.0476182755969, -0.014, 0.902, 0.426, 192.0, 0.0, 0.0, 0.0, 0.0, 0.0, 0.0, 0.0, 0.0, 0.0, 1.6546749973399808E9, 0.0, 2022-06-08 09:56:37.339
13.0, 22737.89319251695, 38757.16492619097, -9948.11325646797, -12375.847980481147, 3976.330635110216, 4734.948841923338, 15564.1231613306, 417.95526956978676, -0.014, 0.902, 0.426, 192.0, 0.0, 0.0, 0.0, 0.0, 0.0, 0.0, 0.0, 0.0, 0.0, 1.6546749973399887E9, 0.0, 2022-06-08 09:56:37.339
14.0, 22746.945649021345, 38767.22321119585, -9941.094808709004, -12363.129837886077, 3988.9146672385536, 4736.871091946494, 15573.220321323912, 408.36637119846006, -0.014, 0.902, 0.426, 192.0, 0.0, 0.0, 0.0, 0.0, 0.0, 0.0, 0.0, 0.0, 0.0, 1.6546749973399963E9, 0.0, 2022-06-08 09:56:37.339
15.0, 22739.770739051193, 38757.20962967988, -9954.952890271294, -12377.770230504302, 3976.2412281323946, 4722.878899917472, 15566.380687520586, 400.45385366128136, -0.014, 0.902, 0.426, 192.0, 0.0, 0.0, 0.0, 0.0, 0.0, 0.0, 0.0, 0.0, 0.0, 1.6546749973400028E9, 0.0, 2022-06-08 09:56:37.340
16.0, 22737.133233205466, 38749.498277842795, -9969.749745100708, -12387.157963175532, 3966.004129171864, 4709.557260222109, 15559.161074061523, 363.14879216537383, -0.014, 0.902, 0.426, 192.0, 0.0, 0.0, 0.0, 0.0, 0.0, 0.0, 0.0, 0.0, 0.0, 1.6546749973400087E9, 0.0, 2022-06-08 09:56:37.340
17.0, 22754.589945625063, 38761.70233031539, -9962.977166530749, -12371.757611245825, 3975.9506554544755, 4719.302620804622, 15574.136742846578, 382.2818854191167, -0.014, 0.902, 0.426, 192.0, 0.0, 0.0, 0.0, 0.0, 0.0, 0.0, 0.0, 0.0, 0.0, 1.654674997340015E9, 0.0, 2022-06-08 09:56:37.340
18.0, 22773.61128015653, 38775.76157757778, -9954.192930959813, -12361.051125651733, 3993.8320510187214, 4722.2754028171785, 15587.905417431048, 396.5422983816026, 0.004, 0.9440000000000001, 0.424, 192.0, 0.0, 32.0, 29.0, 128.0, 13.0, 64.0, 0.0, 0.0, 0.0, 1.6546749973400223E9, 0.0, 2022-06-08 09:56:37.340
19.0, 22768.69389637636, 38770.17364146395, -9957.97037577276, -12366.236730365365, 3988.512335838358, 4710.808957911606, 15587.65954824204, 415.80950210207726, 0.004, 0.9440000000000001, 0.424, 192.0, 0.0, 0.0, 0.0, 0.0, 0.0, 0.0, 0.0, 0.0, 0.0, 1.654674997340031E9, 0.0, 2022-06-08 09:56:37.340
20.0, 22760.669620116907, 38768.027873996245, -9963.73712584223, -12370.930596700979, 3981.8515159906765, 4705.3104287756005, 15593.225132611411, 450.0076711186971, 0.004, 0.9440000000000001, 0.424, 192.0, 0.0, 0.0, 0.0, 0.0, 0.0, 0.0, 0.0, 0.0, 0.0, 1.6546749973400395E9, 0.0, 2022-06-08 09:56:37.340
21.0, 22764.73763760777, 38772.76644382077, -9971.73905035723, -12373.769268246802, 3974.095460664685, 4701.980018851759, 15586.631367997095, 427.76768538566654, 0.004, 0.9440000000000001, 0.424, 192.0, 0.0, 0.0, 0.0, 0.0, 0.0, 0.0, 0.0, 0.0, 0.0, 1.6546749973400476E9, 0.0, 2022-06-08 09:56:37.340
22.0, 22790.866826876027, 38798.91798483348, -9959.669108351363, -12352.624517992082, 3990.5910480727016, 4706.405664253911, 15604.825687983715, 396.7658158261557, 0.004, 0.9440000000000001, 0.424, 192.0, 0.0, 0.0, 0.0, 0.0, 0.0, 0.0, 0.0, 0.0, 0.0, 1.6546749973400793E9, 0.0, 2022-06-08 09:56:37.340
23.0, 22802.9814723708, 38809.46800821638, -9950.147265213403, -12335.413674761496, 4011.6910948385116, 4718.274440559679, 15628.205612683967, 450.7005751968116, 0.004, 0.9440000000000001, 0.424, 192.0, 0.0, 0.0, 0.0, 0.0, 0.0, 0.0, 0.0, 0.0, 0.0, 1.6546749973400867E9, 0.0, 2022-06-08 09:56:37.340
24.0, 22792.923187365912, 38795.095836531626, -9959.579701373543, -12349.025887134778, 4008.673609337045, 4714.2958300466335, 15622.483566103409, 474.23696210824994, 0.004, 0.9440000000000001, 0.424, 192.0, 0.0, 0.0, 0.0, 0.0, 0.0, 0.0, 0.0, 0.0, 0.0, 1.654674997340094E9, 0.0, 2022-06-08 09:56:37.340
25.0, 22777.008745313735, 38776.990923522826, -9979.472753938766, -12372.9199019575, 3988.758205027367, 4693.843983870028, 15605.742109506382, 437.17776980135085, 0.004, 0.9440000000000001, 0.424, 192.0, 0.0, 0.0, 0.0, 0.0, 0.0, 0.0, 0.0, 0.0, 0.0, 1.654674997340099E9, 0.0, 2022-06-08 09:56:37.340
26.0, 22764.581175396583, 38773.92873453245, -9988.324044743067, -12382.26293113982, 3975.101289165174, 4683.115146531481, 15599.70713850345, 421.30803123808283, 0.004, 0.9440000000000001, 0.424, 192.0, 0.0, 0.0, 0.0, 0.0, 0.0, 0.0, 0.0, 0.0, 0.0, 1.6546749973401058E9, 0.0, 2022-06-08 09:56:37.340
27.0, 22774.79592261266, 38788.77029285077, -9975.36003295899, -12368.40484957753, 3988.0876526937072, 4690.357111735, 15607.887876974093, 456.2885113106384, 0.038, 0.916, 0.42, 192.0, 1.0, 48.0, 28.0, 160.0, 13.0, 32.0, 0.0, 0.0, 0.0, 1.6546749973401115E9, 0.0, 2022-06-08 09:56:37.340
28.0, 22782.21670177182, 38794.91702257598, -9972.476657924255, -12365.409715820519, 3979.1469549115845, 4679.4047569519, 15619.689598046494, 469.9007236839204, 0.038, 0.916, 0.42, 192.0, 0.0, 0.0, 0.0, 0.0, 0.0, 0.0, 0.0, 0.0, 0.0, 1.6546749973401177E9, 0.0, 2022-06-08 09:56:37.340
29.0, 22782.194350027366, 38794.11235977559, -9977.908131826895, -12373.836323480169, 3963.5007337928696, 4670.017024280671, 15625.23283067141, 431.58983368752405, 0.038, 0.916, 0.42, 192.0, 0.0, 0.0, 0.0, 0.0, 0.0, 0.0, 0.0, 0.0, 0.0, 1.6546749973401232E9, 0.0, 2022-06-08 09:56:37.340
30.0, 22759.909660805424, 38769.45838564139, -10004.909039128905, -12403.40768139454, 3965.557094282758, 4639.462189610265, 15598.500144302863, 397.59283037100204, 0.038, 0.916, 0.42, 192.0, 0.0, 0.0, 0.0, 0.0, 0.0, 0.0, 0.0, 0.0, 0.0, 1.654674997340129E9, 0.0, 2022-06-08 09:56:37.340
31.0, 22760.69197186136, 38766.59736235111, -10010.608733965008, -12407.430995396495, 3981.3821293571154, 4637.741105287208, 15595.884990201592, 438.6976884243117, 0.038, 0.916, 0.42, 192.0, 0.0, 0.0, 0.0, 0.0, 0.0, 0.0, 0.0, 0.0, 0.0, 1.654674997340135E9, 0.0, 2022-06-08 09:56:37.340
32.0, 22771.107884777535, 38779.71783634637, -10010.228754309268, -12391.158925433032, 3977.783498499811, 4646.30182341359, 15611.553563064763, 459.8424386790322, 0.038, 0.916, 0.42, 192.0, 0.0, 0.0, 0.0, 0.0, 0.0, 0.0, 0.0, 0.0, 0.0, 1.6546749973401408E9, 0.0, 2022-06-08 09:56:37.340
33.0, 22792.051469332157, 38801.55549067921, -10003.83615539505, -12372.40581183503, 4001.141071455607, 4660.316367187067, 15622.70708354796, 436.0378308341302, 0.038, 0.916, 0.42, 192.0, 0.0, 0.0, 0.0, 0.0, 0.0, 0.0, 0.0, 0.0, 0.0, 1.6546749973401463E9, 0.0, 2022-06-08 09:56:37.340
34.0, 22783.401344227954, 38791.47485392986, -10028.333667318067, -12393.59526557866, 3991.8650975066544, 4640.065686710559, 15598.254275113855, 420.5704236710577, 0.038, 0.916, 0.42, 192.0, 0.0, 0.0, 0.0, 0.0, 0.0, 0.0, 0.0, 0.0, 0.0, 1.6546749973401515E9, 0.0, 2022-06-08 09:56:37.340
35.0, 22764.380009696488, 38773.682865343435, -10047.13148440498, -12416.706969345447, 3967.099364650174, 4638.903395998883, 15557.261175782822, 427.83474061903246, 0.038, 0.916, 0.42, 192.0, 0.0, 0.0, 0.0, 0.0, 0.0, 0.0, 0.0, 0.0, 0.0, 1.6546749973401568E9, 0.0, 2022-06-08 09:56:37.340
36.0, 22757.339210193066, 38772.922906031956, -10050.193673395357, -12407.654512841049, 3957.555169767758, 4636.064724453059, 15532.36133245961, 386.93104826582055, 0.038, 0.916, 0.42, 192.0, 0.0, 0.0, 0.0, 0.0, 0.0, 0.0, 0.0, 0.0, 0.0, 1.6546749973401623E9, 0.0, 2022-06-08 09:56:37.340
37.0, 22746.1186344765, 38758.01429248027, -10058.709688032828, -12415.097643744666, 3950.0896871196855, 4615.165843387347, 15573.46619051292, 352.15173389336275, 0.068, 0.876, 0.418, 192.0, 2.0, 32.0, 27.0, 96.0, 13.0, 16.0, 0.0, 0.0, 0.0, 1.6546749973401673E9, 0.0, 2022-06-08 09:56:37.340
38.0, 22755.036980514167, 38763.11049021608, -10051.154798406935, -12409.822632053212, 3959.678585491012, 4618.228032377724, 15618.90728699056, 369.9437224797872, 0.068, 0.876, 0.418, 192.0, 0.0, 0.0, 0.0, 0.0, 0.0, 0.0, 0.0, 0.0, 0.0, 1.654674997340172E9, 0.0, 2022-06-08 09:56:37.340
39.0, 22756.288678203666, 38770.73243507534, -10052.2723856297, -12408.25800994134, 3958.136315123596, 4619.278564367123, 15616.694464289483, 387.7580628106669, 0.068, 0.876, 0.418, 192.0, 0.0, 0.0, 0.0, 0.0, 0.0, 0.0, 0.0, 0.0, 0.0, 1.6546749973401773E9, 0.0, 2022-06-08 09:56:37.340
40.0, 22730.673579057882, 38742.926864972935, -10079.47445863181, -12433.850757342669, 3935.5387014792805, 4591.808270431551, 15598.254275113855, 359.12547816341856, 0.068, 0.876, 0.418, 192.0, 0.0, 0.0, 0.0, 0.0, 0.0, 0.0, 0.0, 0.0, 0.0, 1.6546749973401825E9, 0.0, 2022-06-08 09:56:37.340
41.0, 22732.12644244748, 38733.67324276844, -10087.655197102451, -12444.13255979211, 3926.620355441613, 4580.408880759344, 15588.866542442625, 335.9243674188098, 0.068, 0.876, 0.418, 192.0, 0.0, 0.0, 0.0, 0.0, 0.0, 0.0, 0.0, 0.0, 0.0, 1.6546749973401883E9, 0.0, 2022-06-08 09:56:37.340
42.0, 22715.27322712818, 38724.2408066083, -10091.94673203787, -12448.446446471984, 3917.2549745148394, 4588.589619229987, 15590.207647109944, 393.07777799103, 0.068, 0.876, 0.418, 192.0, 0.0, 0.0, 0.0, 0.0, 0.0, 0.0, 0.0, 0.0, 0.0, 1.654674997340194E9, 0.0, 2022-06-08 09:56:37.340
43.0, 22722.537544076153, 38738.27770212623, -10072.031327728191, -12428.262821228842, 3932.521215977814, 4607.409788061355, 15596.354376835154, 443.525665226658, 0.068, 0.876, 0.418, 192.0, 0.0, 0.0, 0.0, 0.0, 0.0, 0.0, 0.0, 0.0, 0.0, 1.6546749973402026E9, 0.0, 2022-06-08 09:56:37.340
44.0, 22711.20520963731, 38729.515818299755, -10080.055603987646, -12446.144216793087, 3920.9206606055095, 4589.2601715636465, 15582.138667361578, 413.08258927852984, 0.068, 0.876, 0.418, 192.0, 0.0, 0.0, 0.0, 0.0, 0.0, 0.0, 0.0, 0.0, 0.0, 1.654674997340208E9, 0.0, 2022-06-08 09:56:37.340
45.0, 22698.263549597687, 38715.56832975964, -10096.70765360685, -12474.75444969588, 3903.419244697004, 4570.328244010001, 15560.613937451119, 380.06906271804127, 0.068, 0.876, 0.418, 192.0, 0.0, 0.0, 0.0, 0.0, 0.0, 0.0, 0.0, 0.0, 0.0, 1.6546749973402133E9, 0.0, 2022-06-08 09:56:37.340
46.0, 22695.894264685427, 38711.07562912412, -10099.546325152674, -12461.768086167347, 3900.2452969843507, 4566.975482341705, 15573.645004468563, 387.62395234393506, 0.068, 0.876, 0.418, 192.0, 0.0, 0.0, 0.0, 0.0, 0.0, 0.0, 0.0, 0.0, 0.0, 1.6546749973402183E9, 0.0, 2022-06-08 09:56:37.340
47.0, 22703.58326477805, 38712.68495472491, -10094.874810561516, -12459.063525088255, 3903.5310034192808, 4562.505133450643, 15584.999690651857, 372.8270975145218, 0.082, 0.898, 0.428, 192.0, 2.0, 144.0, 28.0, 16.0, 13.0, 96.0, 0.0, 0.0, 0.0, 1.654674997340224E9, 0.0, 2022-06-08 09:56:37.340
48.0, 22713.485087571753, 38721.737411229304, -10083.073089489113, -12454.861397130657, 3905.944991820454, 4567.869552119917, 15596.332025090698, 350.81062922604434, 0.082, 0.898, 0.428, 192.0, 0.0, 0.0, 0.0, 0.0, 0.0, 0.0, 0.0, 0.0, 0.0, 1.6546749973402295E9, 0.0, 2022-06-08 09:56:37.340
49.0, 22702.666843255385, 38712.64025123599, -10096.19356348438, -12470.731135693924, 3886.9236572889877, 4551.105743778437, 15561.820931651704, 324.5696812355139, 0.082, 0.898, 0.428, 192.0, 0.0, 0.0, 0.0, 0.0, 0.0, 0.0, 0.0, 0.0, 0.0, 1.6546749973402352E9, 0.0, 2022-06-08 09:56:37.340
50.0, 22703.1585816334, 38717.2894140827, -10104.70957812185, -12476.699051463493, 3889.494107901348, 4542.790894841063, 15549.058085567724, 321.5521957340474, 0.082, 0.898, 0.428, 192.0, 0.0, 0.0, 0.0, 0.0, 0.0, 0.0, 0.0, 0.0, 0.0, 1.6546749973402405E9, 0.0, 2022-06-08 09:56:37.340
51.0, 22700.342261832033, 38718.09407688309, -10107.771767112228, -12473.279234561829, 3898.0995295166413, 4560.247607260658, 15552.41084723602, 356.1526961508627, 0.082, 0.898, 0.428, 192.0, 0.0, 0.0, 0.0, 0.0, 0.0, 0.0, 0.0, 0.0, 0.0, 1.6546749973402452E9, 0.0, 2022-06-08 09:56:37.340
52.0, 22684.80779943559, 38695.183538816396, -10118.47825270632, -12486.04208064581, 3880.419299652493, 4543.081467518981, 15538.351599973632, 362.0535566870638, 0.082, 0.898, 0.428, 192.0, 0.0, 0.0, 0.0, 0.0, 0.0, 0.0, 0.0, 0.0, 0.0, 1.6546749973402505E9, 0.0, 2022-06-08 09:56:37.340
53.0, 22706.57839853506, 38717.46822803834, -10105.536592666698, -12467.668946703548, 3903.6204103971018, 4553.18445601278, 15568.593510221663, 359.03607118559734, 0.082, 0.898, 0.428, 192.0, 0.0, 0.0, 0.0, 0.0, 0.0, 0.0, 0.0, 0.0, 0.0, 1.654674997340256E9, 0.0, 2022-06-08 09:56:37.340
54.0, 22712.16633464889, 38729.515818299755, -10091.164420981935, -12459.823484399734, 3904.6262388975906, 4560.918159594316, 15579.344699304665, 349.44717281427063, 0.082, 0.898, 0.428, 192.0, 0.0, 0.0, 0.0, 0.0, 0.0, 0.0, 0.0, 0.0, 0.0, 1.654674997340262E9, 0.0, 2022-06-08 09:56:37.340
55.0, 22687.266491325678, 38705.9347278994, -10114.253773004268, -12479.962406153967, 3885.0684624991973, 4536.465351160211, 15555.942422859958, 323.5191492461144, 0.082, 0.898, 0.428, 192.0, 0.0, 0.0, 0.0, 0.0, 0.0, 0.0, 0.0, 0.0, 0.0, 1.6546749973402672E9, 0.0, 2022-06-08 09:56:37.340
56.0, 22692.16152336139, 38702.22433831982, -10119.349970740077, -12483.963368411467, 3883.839116554155, 4530.005697012627, 15551.025039079792, 327.47540801470376, 0.082, 0.898, 0.428, 192.0, 0.0, 0.0, 0.0, 0.0, 0.0, 0.0, 0.0, 0.0, 0.0, 1.654674997340273E9, 0.0, 2022-06-08 09:56:37.340
57.0, 22691.02158439417, 38708.50517851176, -10109.269333990733, -12478.218970086453, 3901.5640499072138, 4532.889072047362, 15569.46522825542, 353.112858904941, 0.066, 0.906, 0.436, 192.0, 2.0, 16.0, 28.0, 80.0, 13.0, 160.0, 0.0, 0.0, 0.0, 1.6546749973402777E9, 0.0, 2022-06-08 09:56:37.340
58.0, 22680.91859590037, 38706.87350116653, -10105.268371733233, -12478.554246253283, 3904.492128430859, 4532.79966506954, 15570.627518967096, 368.49085909019226, 0.066, 0.906, 0.436, 192.0, 0.0, 0.0, 0.0, 0.0, 0.0, 0.0, 0.0, 0.0, 0.0, 1.6546749973402827E9, 0.0, 2022-06-08 09:56:37.340
59.0, 22684.181950590846, 38715.098943126075, -10103.56963915463, -12475.492057262905, 3899.0606545282194, 4532.553795880532, 15568.682917199483, 358.76785025213366, 0.066, 0.906, 0.436, 192.0, 0.0, 0.0, 0.0, 0.0, 0.0, 0.0, 0.0, 0.0, 0.0, 1.654674997340288E9, 0.0, 2022-06-08 09:56:37.340
60.0, 22672.648450451907, 38701.553785986165, -10112.398578214477, -12487.293778335308, 3891.2822474577724, 4521.333220163968, 15564.369030519609, 336.9301959192987, 0.066, 0.906, 0.436, 192.0, 0.0, 0.0, 0.0, 0.0, 0.0, 0.0, 0.0, 0.0, 0.0, 1.6546749973402932E9, 0.0, 2022-06-08 09:56:37.340
61.0, 22657.225746777745, 38682.55480319915, -10128.737703411307, -12503.387034343128, 3872.864410026599, 4499.786138509052, 15546.152358788535, 306.017733337609, 0.066, 0.906, 0.436, 192.0, 0.0, 0.0, 0.0, 0.0, 0.0, 0.0, 0.0, 0.0, 0.0, 1.6546749973402984E9, 0.0, 2022-06-08 09:56:37.340
62.0, 22672.402581262897, 38691.36139051454, -10127.709523166362, -12498.581409285238, 3870.271607669784, 4497.953295463717, 15539.849166852138, 308.96816360570955, 0.066, 0.906, 0.436, 192.0, 0.0, 0.0, 0.0, 0.0, 0.0, 0.0, 0.0, 0.0, 0.0, 1.6546749973403037E9, 0.0, 2022-06-08 09:56:37.340
63.0, 22684.58428199104, 38694.065951593635, -10116.868927105537, -12488.120792880154, 3877.8264972956777, 4507.3186763904905, 15538.12808252908, 322.1333410898854, 0.066, 0.906, 0.436, 192.0, 0.0, 0.0, 0.0, 0.0, 0.0, 0.0, 0.0, 0.0, 0.0, 1.6546749973403087E9, 0.0, 2022-06-08 09:56:37.340
64.0, 22666.97110736026, 38687.65100093496, -10119.774653884728, -12495.787441228324, 3877.066537984197, 4498.467385586189, 15521.3642741876, 276.6251893788802, 0.066, 0.906, 0.436, 192.0, 0.0, 0.0, 0.0, 0.0, 0.0, 0.0, 0.0, 0.0, 0.0, 1.654674997340316E9, 0.0, 2022-06-08 09:56:37.340
65.0, 22666.881700382437, 38694.28946903819, -10118.411197472955, -12497.799098229301, 3873.8925902715437, 4502.55775482151, 15509.629608348563, 263.5941223614362, 0.066, 0.906, 0.436, 192.0, 0.0, 0.0, 0.0, 0.0, 0.0, 0.0, 0.0, 0.0, 0.0, 1.6546749973403215E9, 0.0, 2022-06-08 09:56:37.340
66.0, 22658.991534589713, 38686.80163464566, -10132.783369157716, -12505.71161576648, 3855.3853458625495, 4498.579144308465, 15483.478067335853, 300.4968524571481, 0.066, 0.906, 0.436, 192.0, 0.0, 0.0, 0.0, 0.0, 0.0, 0.0, 0.0, 0.0, 0.0, 1.6546749973403268E9, 0.0, 2022-06-08 09:56:37.340
67.0, 22663.640697436418, 38688.27684977971, -10122.233345774812, -12495.42981331704, 3867.0529564682197, 4507.542193835044, 15499.16899194348, 343.23338785569524, 0.042, 0.93, 0.438, 192.0, 1.0, 80.0, 29.0, 16.0, 13.0, 176.0, 0.0, 0.0, 0.0, 1.6546749973403327E9, 0.0, 2022-06-08 09:56:37.340
68.0, 22662.72427591375, 38690.3332102696, -10105.558944411152, -12488.031385902332, 3893.740939347856, 4517.399313139834, 15610.99476945338, 360.3995275973711, 0.042, 0.93, 0.438, 192.0, 0.0, 0.0, 0.0, 0.0, 0.0, 0.0, 0.0, 0.0, 0.0, 1.654674997340338E9, 0.0, 2022-06-08 09:56:37.340
69.0, 22663.841863136517, 38702.62666972002, -10087.498734891264, -12479.582426498226, 3904.1792040084847, 4521.377923652879, 15651.317316450753, 361.60652179795767, 0.042, 0.93, 0.438, 192.0, 0.0, 0.0, 0.0, 0.0, 0.0, 0.0, 0.0, 0.0, 0.0, 1.6546749973403435E9, 0.0, 2022-06-08 09:56:37.340
70.0, 22658.499796211698, 38693.10482658206, -10095.634769872997, -12491.42885105954, 3885.3366834326607, 4512.236060170658, 15613.095833432179, 346.78731522408907, 0.042, 0.93, 0.438, 192.0, 0.0, 0.0, 0.0, 0.0, 0.0, 0.0, 0.0, 0.0, 0.0, 1.654674997340349E9, 0.0, 2022-06-08 09:56:37.340
71.0, 22645.75930187217, 38672.16124202743, -10117.472424205831, -12515.300514137807, 3864.7954302782337, 4488.274990114569, 15576.908359159037, 316.56775672051396, 0.042, 0.93, 0.438, 192.0, 0.0, 0.0, 0.0, 0.0, 0.0, 0.0, 0.0, 0.0, 0.0, 1.6546749973403544E9, 0.0, 2022-06-08 09:56:37.340
72.0, 22666.59112770452, 38688.09803582407, -10105.558944411152, -12503.118813409665, 3876.8877240285547, 4495.181679151258, 15585.379670307599, 310.28691652857265, 0.042, 0.93, 0.438, 192.0, 0.0, 0.0, 0.0, 0.0, 0.0, 0.0, 0.0, 0.0, 0.0, 1.6546749973403597E9, 0.0, 2022-06-08 09:56:37.340
73.0, 22678.459904010288, 38693.17188181542, -10101.736796109295, -12502.872944220657, 3876.2171716948956, 4497.036873941049, 15579.791734193772, 293.3442942314499, 0.042, 0.93, 0.438, 192.0, 0.0, 0.0, 0.0, 0.0, 0.0, 0.0, 0.0, 0.0, 0.0, 1.654674997340365E9, 0.0, 2022-06-08 09:56:37.340
74.0, 22658.812720634072, 38682.241878776775, -10110.677493891419, -12512.305380380796, 3858.827514508667, 4492.208897138703, 15565.84424565366, 281.8778493258774, 0.042, 0.93, 0.438, 192.0, 0.0, 0.0, 0.0, 0.0, 0.0, 0.0, 0.0, 0.0, 0.0, 1.6546749973403704E9, 0.0, 2022-06-08 09:56:37.340
75.0, 22622.62524636093, 38662.28177097819, -10126.368418499043, -12530.700866067513, 3842.7119067563904, 4477.07676614246, 15550.756818146327, 279.93324755826563, 0.042, 0.93, 0.438, 192.0, 0.0, 0.0, 0.0, 0.0, 0.0, 0.0, 0.0, 0.0, 0.0, 1.6546749973403757E9, 0.0, 2022-06-08 09:56:37.340
76.0, 22641.892450081403, 38679.82789037561, -10106.274200233722, -12504.14699365461, 3861.2862063987504, 4505.977571723172, 15566.291280542766, 358.09729791847445, 0.042, 0.93, 0.438, 192.0, 0.0, 0.0, 0.0, 0.0, 0.0, 0.0, 0.0, 0.0, 0.0, 1.654674997340381E9, 0.0, 2022-06-08 09:56:37.340
77.0, 22664.44536023681, 38697.88809989549, -10090.76208958174, -12485.952673667989, 3864.2366366668507, 4520.9979439971385, 15570.426353266997, 409.4616066767701, 0.038, 0.914, 0.442, 192.0, 1.0, 48.0, 28.0, 144.0, 13.0, 208.0, 0.0, 0.0, 0.0, 1.6546749973403864E9, 0.0, 2022-06-08 09:56:37.340
78.0, 22693.346165817522, 38717.959966416354, -10073.975929495804, -12476.363775296662, 3881.1792589639736, 4527.70346733373, 15580.886969672081, 393.14483322439594, 0.038, 0.914, 0.442, 192.0, 0.0, 0.0, 0.0, 0.0, 0.0, 0.0, 0.0, 0.0, 0.0, 1.654674997340392E9, 0.0, 2022-06-08 09:56:37.340
79.0, 22691.513322772185, 38716.26123383775, -10072.165438194925, -12481.147048610097, 3883.012102009309, 4523.903670776328, 15579.74703070486, 349.6706902588237, 0.038, 0.914, 0.442, 192.0, 0.0, 0.0, 0.0, 0.0, 0.0, 0.0, 0.0, 0.0, 0.0, 1.6546749973403974E9, 0.0, 2022-06-08 09:56:37.340
80.0, 22673.29665104111, 38701.129102841514, -10086.04587150167, -12502.09063316472, 3873.6243693380798, 4507.519842090588, 15566.917129387515, 312.9691258632095, 0.038, 0.914, 0.442, 192.0, 0.0, 0.0, 0.0, 0.0, 0.0, 0.0, 0.0, 0.0, 0.0, 1.6546749973404033E9, 0.0, 2022-06-08 09:56:37.340
81.0, 22652.464825208765, 38686.17578580091, -10104.977799055314, -12520.731988040447, 3854.625386551069, 4498.020350697083, 15551.628536180084, 325.2402335691731, 0.038, 0.914, 0.442, 192.0, 0.0, 0.0, 0.0, 0.0, 0.0, 0.0, 0.0, 0.0, 0.0, 1.6546749973404088E9, 0.0, 2022-06-08 09:56:37.340
82.0, 22646.13928152791, 38675.51400369573, -10109.224630501823, -12522.944810741523, 3848.009270192298, 4485.928056946762, 15541.83847210866, 352.0623269155415, 0.038, 0.914, 0.442, 192.0, 0.0, 0.0, 0.0, 0.0, 0.0, 0.0, 0.0, 0.0, 0.0, 1.6546749973404152E9, 0.0, 2022-06-08 09:56:37.340
83.0, 22663.886566625424, 38690.19909980286, -10097.266447218233, -12508.974970456955, 3863.4766773553706, 4496.679246029764, 15545.88413785507, 338.74068722017853, 0.038, 0.914, 0.442, 192.0, 0.0, 0.0, 0.0, 0.0, 0.0, 0.0, 0.0, 0.0, 0.0, 1.6546749973404205E9, 0.0, 2022-06-08 09:56:37.340
84.0, 22667.596956205005, 38688.36625675753, -10102.921438565427, -12516.395749616117, 3862.783773277256, 4492.208897138703, 15531.467262681397, 285.4764801831818, 0.038, 0.914, 0.442, 192.0, 0.0, 0.0, 0.0, 0.0, 0.0, 0.0, 0.0, 0.0, 0.0, 1.654674997340425E9, 0.0, 2022-06-08 09:56:37.340
85.0, 22645.178156516333, 38664.24872449025, -10123.797967886683, -12537.406389404106, 3843.918900956977, 4473.880466685351, 15512.691797338939, 291.33263723047224, 0.038, 0.914, 0.442, 192.0, 0.0, 0.0, 0.0, 0.0, 0.0, 0.0, 0.0, 0.0, 0.0, 1.6546749973404303E9, 0.0, 2022-06-08 09:56:37.340
86.0, 22649.156767029377, 38657.40909068693, -10134.079770336124, -12536.065284736787, 3833.9053194409994, 4469.320710816469, 15491.390584873032, 331.56577725002495, 0.038, 0.914, 0.442, 192.0, 0.0, 0.0, 0.0, 0.0, 0.0, 0.0, 0.0, 0.0, 0.0, 1.654674997340438E9, 0.0, 2022-06-08 09:56:37.340
87.0, 22656.309325255075, 38669.21081175933, -10126.547232454686, -12522.698941552513, 3849.082153926153, 4470.661815483787, 15494.385718630043, 317.6406404543687, 0.038, 0.924, 0.452, 192.0, 1.0, 48.0, 28.0, 224.0, 14.0, 32.0, 0.0, 0.0, 0.0, 1.654674997340443E9, 0.0, 2022-06-08 09:56:37.340
88.0, 22681.16446508938, 38700.212681318844, -10102.899086820971, -12494.513391794371, 3877.133593217563, 4491.337179104946, 15506.053329235714, 328.36947779291603, 0.038, 0.924, 0.452, 192.0, 0.0, 0.0, 0.0, 0.0, 0.0, 0.0, 0.0, 0.0, 0.0, 1.654674997340448E9, 0.0, 2022-06-08 09:56:37.340
89.0, 22689.121686115468, 38710.29331806819, -10091.969083782325, -12482.868132933156, 3890.7681573353, 4514.806510783018, 15547.180539033478, 377.36450163894915, 0.038, 0.924, 0.452, 192.0, 0.0, 0.0, 0.0, 0.0, 0.0, 0.0, 0.0, 0.0, 0.0, 1.6546749973404531E9, 0.0, 2022-06-08 09:56:37.340
90.0, 22696.09543038552, 38714.87542568152, -10093.80192682766, -12483.315167822262, 3895.640837626557, 4509.889127002851, 15599.03658616979, 402.5102141511696, 0.038, 0.924, 0.452, 192.0, 0.0, 0.0, 0.0, 0.0, 0.0, 0.0, 0.0, 0.0, 0.0, 1.6546749973404584E9, 0.0, 2022-06-08 09:56:37.340
91.0, 22713.59684629403, 38724.889007197504, -10084.123621478513, -12466.998394369888, 3918.7748931378, 4513.241888671147, 15647.092836748701, 416.36829571346, 0.038, 0.924, 0.452, 192.0, 0.0, 0.0, 0.0, 0.0, 0.0, 0.0, 0.0, 0.0, 0.0, 1.6546749973404634E9, 0.0, 2022-06-08 09:56:37.340
92.0, 22714.245046883232, 38724.08434439711, -10079.206237698345, -12470.105286849177, 3933.482340989392, 4514.582993338465, 15628.42913012852, 413.6190311454572, 0.038, 0.924, 0.452, 192.0, 0.0, 0.0, 0.0, 0.0, 0.0, 0.0, 0.0, 0.0, 0.0, 1.6546749973404684E9, 0.0, 2022-06-08 09:56:37.340
93.0, 22731.791166280647, 38751.71110054387, -10055.46868508681, -12425.714722360937, 3954.7612017108445, 4534.140769736859, 15648.85862456067, 428.54999644160233, 0.038, 0.924, 0.452, 192.0, 0.0, 0.0, 0.0, 0.0, 0.0, 0.0, 0.0, 0.0, 0.0, 1.6546749973404737E9, 0.0, 2022-06-08 09:56:37.340
94.0, 22747.75031182174, 38762.75286230479, -10045.70097275984, -12415.388216422585, 3959.2539023463614, 4542.455618674233, 15647.696333848995, 436.57427270105757, 0.038, 0.924, 0.452, 192.0, 0.0, 0.0, 0.0, 0.0, 0.0, 0.0, 0.0, 0.0, 0.0, 1.6546749973404832E9, 0.0, 2022-06-08 09:56:37.340
95.0, 22772.136065022478, 38774.37576942155, -10039.867167457005, -12400.83723078218, 3988.9370189830092, 4553.698546135252, 15642.890708791103, 447.86190365098764, 0.038, 0.924, 0.452, 192.0, 0.0, 0.0, 0.0, 0.0, 0.0, 0.0, 0.0, 0.0, 0.0, 1.654674997340489E9, 0.0, 2022-06-08 09:56:37.340
96.0, 22796.32065252312, 38788.74794110632, -10036.223833110791, -12391.49420159986, 3988.64644630509, 4569.054194576049, 15650.266784461355, 448.3312902845491, 0.038, 0.924, 0.452, 192.0, 0.0, 0.0, 0.0, 0.0, 0.0, 0.0, 0.0, 0.0, 0.0, 1.6546749973404942E9, 0.0, 2022-06-08 09:56:37.340
97.0, 22810.692824207883, 38806.45052271492, -10014.833213667062, -12383.536980573772, 3998.1459376985954, 4584.074566850015, 15693.830334404747, 472.67233999637847, 0.012, 0.9420000000000001, 0.462, 192.0, 0.0, 96.0, 29.0, 112.0, 14.0, 112.0, 0.0, 0.0, 0.0, 1.6546749973404996E9, 0.0, 2022-06-08 09:56:37.340
98.0, 22823.209801102854, 38826.65649970251, -9995.610713435497, -12365.789695476258, 4030.2653944808717, 4588.4331570188, 15711.242343335432, 477.8355929655544, 0.012, 0.9420000000000001, 0.462, 192.0, 0.0, 0.0, 0.0, 0.0, 0.0, 0.0, 0.0, 0.0, 0.0, 1.654674997340505E9, 0.0, 2022-06-08 09:56:37.340
99.0, 22811.721004452826, 38826.88001714707, -9993.956684345805, -12356.848997694135, 4040.7260108859555, 4594.7810524441065, 15714.215125347988, 481.0765959115739, 0.012, 0.9420000000000001, 0.462, 192.0, 0.0, 0.0, 0.0, 0.0, 0.0, 0.0, 0.0, 0.0, 0.0, 1.65467499734051E9, 0.0, 2022-06-08 09:56:37.340
100.0, 22786.642347173973, 38809.17743553846, -10011.547507232131, -12379.625425294093, 4018.5754321307463, 4568.137773053381, 15685.470781978463, 473.3875958189483, 0.012, 0.9420000000000001, 0.462, 192.0, 0.0, 0.0, 0.0, 0.0, 0.0, 0.0, 0.0, 0.0, 0.0, 1.654674997340515E9, 0.0, 2022-06-08 09:56:37.340
101.0, 22783.06606806112, 38799.78970286724, -10027.864280684506, -12400.747823804359, 4013.6580483505786, 4556.000775814149, 15682.877979621648, 468.22434284977237, 0.012, 0.9420000000000001, 0.462, 192.0, 0.0, 0.0, 0.0, 0.0, 0.0, 0.0, 0.0, 0.0, 0.0, 1.6546749973405197E9, 0.0, 2022-06-08 09:56:37.340
102.0, 22819.767632456736, 38831.93151139397, -10003.83615539505, -12378.619596793604, 4033.126417771151, 4600.1231193689255, 15696.758412928393, 485.4575378248141, 0.012, 0.9420000000000001, 0.462, 192.0, 0.0, 0.0, 0.0, 0.0, 0.0, 0.0, 0.0, 0.0, 0.0, 1.6546749973405244E9, 0.0, 2022-06-08 09:56:37.340
103.0, 22834.788004730704, 38838.52527600828, -9984.010158063193, -12345.315497555197, 4012.3839989166263, 4592.009436131649, 15681.96155809898, 478.8637732104985, 0.012, 0.9420000000000001, 0.462, 192.0, 0.0, 0.0, 0.0, 0.0, 0.0, 0.0, 0.0, 0.0, 0.0, 1.6546749973405297E9, 0.0, 2022-06-08 09:56:37.340
104.0, 22822.56160051365, 38824.0636973457, -9983.83134410755, -12370.081230411677, 4015.22267046245, 4563.0862788064815, 15675.323089995754, 465.02804339266345, 0.012, 0.9420000000000001, 0.462, 192.0, 0.0, 0.0, 0.0, 0.0, 0.0, 0.0, 0.0, 0.0, 0.0, 1.6546749973405347E9, 0.0, 2022-06-08 09:56:37.340
105.0, 22807.09419335058, 38811.70318266191, -10002.003312349714, -12386.06272769722, 4036.613289906179, 4545.383697197878, 15671.746810882905, 449.94061588533117, 0.012, 0.9420000000000001, 0.462, 192.0, 0.0, 0.0, 0.0, 0.0, 0.0, 0.0, 0.0, 0.0, 0.0, 1.6546749973405397E9, 0.0, 2022-06-08 09:56:37.340
106.0, 22804.389632271486, 38810.45148497242, -10011.16752757639, -12386.733280030881, 4023.93985080002, 4563.242741017669, 15678.787610386325, 469.9677789172863, 0.012, 0.9420000000000001, 0.462, 192.0, 0.0, 0.0, 0.0, 0.0, 0.0, 0.0, 0.0, 0.0, 0.0, 1.6546749973405457E9, 0.0, 2022-06-08 09:56:37.340
107.0, 22841.38176934502, 38843.57677025518, -9982.64670165142, -12367.153151888031, 4052.0806970692515, 4589.237819819191, 15707.86722992268, 491.44780533883636, 0.002, 0.9380000000000001, 0.464, 192.0, 0.0, 16.0, 29.0, 80.0, 14.0, 128.0, 0.0, 0.0, 0.0, 1.6546749973405552E9, 0.0, 2022-06-08 09:56:37.340
108.0, 22845.047455435688, 38849.58938951366, -9968.989785789227, -12357.251329094332, 4053.4665052254804, 4582.465241249232, 15705.073261865768, 473.34289233003767, 0.002, 0.9380000000000001, 0.464, 192.0, 0.0, 0.0, 0.0, 0.0, 0.0, 0.0, 0.0, 0.0, 0.0, 1.6546749973405612E9, 0.0, 2022-06-08 09:56:37.340
109.0, 22828.171888371933, 38832.80322942772, -9970.219131734268, -12367.197855376942, 4046.649223166612, 4587.539087240588, 15699.038290862834, 472.4264708073701, 0.002, 0.9380000000000001, 0.464, 192.0, 0.0, 0.0, 0.0, 0.0, 0.0, 0.0, 0.0, 0.0, 0.0, 1.654674997340567E9, 0.0, 2022-06-08 09:56:37.340
110.0, 22811.162210841445, 38813.3125082627, -9993.107318056504, -12394.914018501524, 4011.7581500718775, 4558.347708981956, 15681.380412743141, 474.97456967527506, 0.002, 0.9380000000000001, 0.464, 192.0, 0.0, 0.0, 0.0, 0.0, 0.0, 0.0, 0.0, 0.0, 0.0, 1.6546749973405733E9, 0.0, 2022-06-08 09:56:37.340
111.0, 22815.56550449914, 38819.52629322127, -9996.102451813515, -12395.74103304637, 4026.6891153680226, 4546.545987909554, 15678.944072597513, 448.89008389593175, 0.002, 0.9380000000000001, 0.464, 192.0, 0.0, 0.0, 0.0, 0.0, 0.0, 0.0, 0.0, 0.0, 0.0, 1.6546749973405793E9, 0.0, 2022-06-08 09:56:37.340
112.0, 22814.067937620635, 38814.72066816338, -10001.198649549324, -12394.31052140123, 4052.550083702813, 4549.652880388842, 15667.634089903127, 385.7687575541446, 0.002, 0.9380000000000001, 0.464, 192.0, 0.0, 0.0, 0.0, 0.0, 0.0, 0.0, 0.0, 0.0, 0.0, 1.6546749973405852E9, 0.0, 2022-06-08 09:56:37.340
113.0, 22850.65774329397, 38839.97813939788, -9978.69044288283, -12366.147323387542, 4075.326511302771, 4566.416688730323, 15685.694299423016, 427.49946445220286, 0.002, 0.9380000000000001, 0.464, 192.0, 0.0, 0.0, 0.0, 0.0, 0.0, 0.0, 0.0, 0.0, 0.0, 1.6546749973405907E9, 0.0, 2022-06-08 09:56:37.340
114.0, 22857.76559803076, 38854.88675294957, -9966.039355521127, -12351.39517204704, 4075.8853049141535, 4593.685816965797, 15699.127697840655, 501.10375894352904, 0.002, 0.9380000000000001, 0.464, 192.0, 0.0, 0.0, 0.0, 0.0, 0.0, 0.0, 0.0, 0.0, 0.0, 1.654674997340597E9, 0.0, 2022-06-08 09:56:37.340
115.0, 22828.261295349756, 38837.69826146344, -9982.981977818248, -12369.142457144555, 4038.4908364404246, 4580.4535842482555, 15705.29677931032, 560.3805852390034, 0.002, 0.9380000000000001, 0.464, 192.0, 0.0, 0.0, 0.0, 0.0, 0.0, 0.0, 0.0, 0.0, 0.0, 1.6546749978052824E9, 0.0, 2022-06-08 09:56:37.805
116.0, 22820.95227491287, 38815.860607130606, -9994.783698890651, -12386.196838163953, 4051.007813335397, 4554.23498800218, 15704.425061276563, 572.6740446894222, -0.012, 0.922, 0.46, 192.0, 255.0, 160.0, 28.0, 208.0, 14.0, 96.0, 0.0, 0.0, 0.0, 1.654674997805406E9, 0.0, 2022-06-08 09:56:37.805
117.0, 22827.70250173837, 38804.55062443622, -10001.22100129378, -12384.654567796537, 4039.876644596654, 4563.354499739945, 15696.467840250474, 550.3223002341152, -0.012, 0.922, 0.46, 192.0, 0.0, 0.0, 0.0, 0.0, 0.0, 0.0, 0.0, 0.0, 0.0, 1.6546749978054144E9, 0.0, 2022-06-08 09:56:37.805
118.0, 22824.75207147027, 38817.671098431485, -9996.348321002522, -12377.54671305975, 4043.0505923093074, 4552.983290312683, 15703.285122309342, 530.2057302243388, -0.012, 0.922, 0.46, 192.0, 0.0, 0.0, 0.0, 0.0, 0.0, 0.0, 0.0, 0.0, 0.0, 1.6546749978054228E9, 0.0, 2022-06-08 09:56:37.805
119.0, 22810.022271874222, 38809.91504310549, -9997.018873336181, -12381.234750894875, 4087.195287608539, 4544.400220441845, 15695.640825705628, 505.685866556867, -0.012, 0.922, 0.46, 192.0, 0.0, 0.0, 0.0, 0.0, 0.0, 0.0, 0.0, 0.0, 0.0, 1.6546749978054333E9, 0.0, 2022-06-08 09:56:37.805
120.0, 22817.37599580002, 38816.687621675446, -9984.613655163486, -12364.78386697577, 4097.834717969265, 4541.740362851663, 15681.29100576532, 529.5798813795902, -0.012, 0.922, 0.46, 192.0, 0.0, 0.0, 0.0, 0.0, 0.0, 0.0, 0.0, 0.0, 0.0, 1.6546749978054407E9, 0.0, 2022-06-08 09:56:37.805
121.0, 22822.136917369, 38822.94611012293, -9984.680710396851, -12357.005459905322, 4068.1068978437065, 4551.239854245169, 15679.547569697806, 540.0852012735845, -0.012, 0.922, 0.46, 192.0, 0.0, 0.0, 0.0, 0.0, 0.0, 0.0, 0.0, 0.0, 0.0, 1.6546749978054478E9, 0.0, 2022-06-08 09:56:37.805
122.0, 22838.833670477114, 38832.44560151644, -9984.926579585861, -12345.181387088465, 4062.5636652187904, 4564.695604407264, 15707.084918866745, 516.5264626176909, -0.012, 0.922, 0.46, 192.0, 0.0, 0.0, 0.0, 0.0, 0.0, 0.0, 0.0, 0.0, 0.0, 1.654674997805454E9, 0.0, 2022-06-08 09:56:37.805
123.0, 22846.679132780926, 38833.71965095039, -9984.345434230023, -12342.20860507591, 4087.5529155198237, 4568.987139342683, 15725.435701064553, 501.17081417689496, -0.012, 0.922, 0.46, 192.0, 0.0, 0.0, 0.0, 0.0, 0.0, 0.0, 0.0, 0.0, 0.0, 1.6546749978054605E9, 0.0, 2022-06-08 09:56:37.805
124.0, 22857.027990463735, 38839.39699404204, -9981.93144582885, -12340.308706797208, 4096.04657841284, 4568.80832538704, 15718.886639939146, 525.19893946635, -0.012, 0.922, 0.46, 192.0, 0.0, 0.0, 0.0, 0.0, 0.0, 0.0, 0.0, 0.0, 0.0, 1.654674997805468E9, 0.0, 2022-06-08 09:56:37.805
125.0, 22882.017240764766, 38857.524258795296, -9974.73418411424, -12329.043427591734, 4102.617991282701, 4595.742177455685, 15718.640770750138, 576.9432278803858, -0.012, 0.922, 0.46, 192.0, 0.0, 0.0, 0.0, 0.0, 0.0, 0.0, 0.0, 0.0, 0.0, 1.6546749978054736E9, 0.0, 2022-06-08 09:56:37.805
126.0, 22941.58463973816, 38905.80402681876, -9937.607936573975, -12277.209732199875, 4139.766590567421, 4628.0627999380595, 15758.382172391675, 623.3678011140587, -0.016, 0.904, 0.466, 192.0, 255.0, 128.0, 28.0, 64.0, 14.0, 144.0, 0.0, 0.0, 0.0, 1.6546749978054795E9, 0.0, 2022-06-08 09:56:37.805
127.0, 23012.70789059495, 38976.43553929753, -9861.388487981378, -12187.22160902281, 4219.204690361582, 4688.926600089861, 15838.870804175236, 717.6251074820885, -0.016, 0.904, 0.466, 192.0, 0.0, 0.0, 0.0, 0.0, 0.0, 0.0, 0.0, 0.0, 0.0, 1.6546749978054857E9, 0.0, 2022-06-08 09:56:37.805
128.0, 23033.718530382936, 39007.9067954906, -9829.649010854842, -12173.631748393984, 4237.376658603747, 4717.358019037011, 15837.619106485738, 733.5619012787225, -0.016, 0.904, 0.466, 192.0, 0.0, 0.0, 0.0, 0.0, 0.0, 0.0, 0.0, 0.0, 0.0, 1.6546749978055043E9, 0.0, 2022-06-08 09:56:37.805
129.0, 23008.99750101537, 38989.354847592695, -9845.362287206923, -12208.433414510897, 4211.135710613216, 4686.959646577793, 15806.03609157039, 666.8419440796309, -0.016, 0.904, 0.466, 192.0, 0.0, 0.0, 0.0, 0.0, 0.0, 0.0, 0.0, 0.0, 0.0, 1.6546749978055112E9, 0.0, 2022-06-08 09:56:37.805
130.0, 22965.501006305338, 38941.969149347446, -9870.105668318947, -12253.963917966357, 4182.704291666066, 4641.965584989261, 15831.382969782708, 594.3105333221595, -0.016, 0.904, 0.466, 192.0, 0.0, 0.0, 0.0, 0.0, 0.0, 0.0, 0.0, 0.0, 0.0, 1.654674997805518E9, 0.0, 2022-06-08 09:56:37.805
131.0, 22941.91991590499, 38918.43276243601, -9898.15710761036, -12283.311758436175, 4165.672262391122, 4598.111462367948, 15809.522963705418, 501.8860699994648, -0.016, 0.904, 0.466, 192.0, 0.0, 0.0, 0.0, 0.0, 0.0, 0.0, 0.0, 0.0, 0.0, 1.6546749978055265E9, 0.0, 2022-06-08 09:56:37.805
132.0, 22912.81794462418, 38893.26469817933, -9921.089997421503, -12300.321435966664, 4159.570236154823, 4579.291293536579, 15790.881608829692, 524.1931109658613, -0.016, 0.904, 0.466, 192.0, 0.0, 0.0, 0.0, 0.0, 0.0, 0.0, 0.0, 0.0, 0.0, 1.6546749978055327E9, 0.0, 2022-06-08 09:56:37.805
133.0, 22897.663461883483, 38870.95765721294, -9952.181273958835, -12330.33982877014, 4094.1019766452287, 4549.518769922111, 15723.245230107932, 562.8839806179977, -0.016, 0.904, 0.466, 192.0, 0.0, 0.0, 0.0, 0.0, 0.0, 0.0, 0.0, 0.0, 0.0, 1.6546749978055372E9, 0.0, 2022-06-08 09:56:37.805
134.0, 22884.274766954753, 38855.04321516075, -9968.430992177844, -12355.910224427013, 4080.4003572941256, 4524.395409154345, 15699.820601918771, 540.554587907146, -0.016, 0.904, 0.466, 192.0, 0.0, 0.0, 0.0, 0.0, 0.0, 0.0, 0.0, 0.0, 0.0, 1.6546749978055415E9, 0.0, 2022-06-08 09:56:37.805
135.0, 22867.645069080005, 38850.25994184732, -9974.533018414142, -12364.761515231314, 4075.795897936332, 4515.0076764831165, 15734.465805824497, 564.0239195852184, -0.016, 0.904, 0.466, 192.0, 0.0, 0.0, 0.0, 0.0, 0.0, 0.0, 0.0, 0.0, 0.0, 1.6546749978055458E9, 0.0, 2022-06-08 09:56:37.805
136.0, 22847.640257792504, 38840.916912665, -9997.64472218093, -12383.894608485058, 4044.034069065341, 4487.760899992097, 15713.119889869678, 516.2135381953166, -0.042, 0.88, 0.47600000000000003, 192.0, 254.0, 176.0, 27.0, 128.0, 14.0, 224.0, 0.0, 0.0, 0.0, 1.6546749978055503E9, 0.0, 2022-06-08 09:56:37.805
137.0, 22822.963931913848, 38813.893653618536, -10024.4668155273, -12410.783757064792, 4027.6949438685115, 4455.574387976455, 15678.139409797122, 465.8774096819651, -0.042, 0.88, 0.47600000000000003, 192.0, 0.0, 0.0, 0.0, 0.0, 0.0, 0.0, 0.0, 0.0, 0.0, 1.6546749978055549E9, 0.0, 2022-06-08 09:56:37.805
138.0, 22814.045585876178, 38801.71195289039, -10029.942992918848, -12412.124861732109, 4022.2187664769613, 4464.380975291846, 15665.935357324524, 489.9055349714202, -0.042, 0.88, 0.47600000000000003, 192.0, 0.0, 0.0, 0.0, 0.0, 0.0, 0.0, 0.0, 0.0, 0.0, 1.6546749978055592E9, 0.0, 2022-06-08 09:56:37.805
139.0, 22806.155420083454, 38799.566185422686, -10040.783588979673, -12413.287152443785, 4009.992362259908, 4480.094251643926, 15662.224967744944, 512.9054800159312, -0.042, 0.88, 0.47600000000000003, 192.0, 0.0, 0.0, 0.0, 0.0, 0.0, 0.0, 0.0, 0.0, 0.0, 1.6546749978055637E9, 0.0, 2022-06-08 09:56:37.805
140.0, 22785.41300122893, 38789.686714373434, -10070.310243405132, -12434.70012363197, 3976.5765042992243, 4464.045699125016, 15624.42816787102, 489.9949419492414, -0.042, 0.88, 0.47600000000000003, 192.0, 0.0, 0.0, 0.0, 0.0, 0.0, 0.0, 0.0, 0.0, 0.0, 1.6546749978055687E9, 0.0, 2022-06-08 09:56:37.805
141.0, 22756.847471815046, 38756.360263390576, -10107.727063623317, -12464.360888524163, 3947.3180708072273, 4427.053562051483, 15593.828629711705, 465.5644852595908, -0.042, 0.88, 0.47600000000000003, 192.0, 0.0, 0.0, 0.0, 0.0, 0.0, 0.0, 0.0, 0.0, 0.0, 1.6546749978055732E9, 0.0, 2022-06-08 09:56:37.805
142.0, 22772.85132084505, 38751.24171391031, -10111.951543325371, -12458.907062877068, 3950.06733537523, 4428.238204507614, 15591.191123865978, 456.7131944552892, -0.042, 0.88, 0.47600000000000003, 192.0, 0.0, 0.0, 0.0, 0.0, 0.0, 0.0, 0.0, 0.0, 0.0, 1.654674997805579E9, 0.0, 2022-06-08 09:56:37.805
143.0, 22752.377122923986, 38732.35448984557, -10131.755188912772, -12480.56590325426, 3939.4726085034144, 4413.150777000282, 15583.792696451272, 423.8114266170772, -0.042, 0.88, 0.47600000000000003, 192.0, 0.0, 0.0, 0.0, 0.0, 0.0, 0.0, 0.0, 0.0, 0.0, 1.6546749978055832E9, 0.0, 2022-06-08 09:56:37.805
144.0, 22739.524869862184, 38736.4448590809, -10137.946622126892, -12478.353080553185, 3939.271442803317, 4395.604657602866, 15580.75285920535, 388.2498011886837, -0.042, 0.88, 0.47600000000000003, 192.0, 0.0, 0.0, 0.0, 0.0, 0.0, 0.0, 0.0, 0.0, 0.0, 1.6546749978055885E9, 0.0, 2022-06-08 09:56:37.805
145.0, 22701.236331610246, 38706.784094188704, -10167.54033178572, -12498.514354051871, 3905.2744394867946, 4378.326759138913, 15550.13096930158, 340.66293724333497, -0.042, 0.88, 0.47600000000000003, 192.0, 0.0, 0.0, 0.0, 0.0, 0.0, 0.0, 0.0, 0.0, 0.0, 1.6546749978055928E9, 0.0, 2022-06-08 09:56:37.805
146.0, 22675.73299118674, 38691.22728004781, -10180.437288336432, -12510.226668146452, 3896.423148682493, 4360.378308341302, 15535.088245283157, 327.43070452579315, -0.048, 0.862, 0.484, 192.0, 254.0, 128.0, 26.0, 240.0, 15.0, 32.0, 0.0, 0.0, 0.0, 1.6546749978055973E9, 0.0, 2022-06-08 09:56:37.805
147.0, 22687.11002911449, 38700.27973655221, -10176.72689875685, -12502.112984909176, 3909.610677911124, 4363.686366520687, 15548.722809400895, 340.88645468788803, -0.048, 0.862, 0.484, 192.0, 0.0, 0.0, 0.0, 0.0, 0.0, 0.0, 0.0, 0.0, 0.0, 1.6546749978056028E9, 0.0, 2022-06-08 09:56:37.805
148.0, 22705.661977012394, 38707.23112907781, -10175.832828978639, -12500.838935475223, 3919.132521049085, 4362.479372320101, 15556.300050771244, 375.3751963824268, -0.048, 0.862, 0.484, 192.0, 0.0, 0.0, 0.0, 0.0, 0.0, 0.0, 0.0, 0.0, 0.0, 1.6546749978056073E9, 0.0, 2022-06-08 09:56:37.805
149.0, 22691.915654172382, 38677.637419418985, -10200.643265324028, -12530.365589900684, 3890.231715468373, 4338.920633664207, 15529.008570791313, 373.63176031491287, -0.048, 0.862, 0.484, 192.0, 0.0, 0.0, 0.0, 0.0, 0.0, 0.0, 0.0, 0.0, 0.0, 1.6546749978056116E9, 0.0, 2022-06-08 09:56:37.805
150.0, 22671.597918462507, 38663.242895989766, -10219.128157988567, -12545.229499963463, 3874.6301978385686, 4338.987688897573, 15516.178669473968, 388.9650570112535, -0.048, 0.862, 0.484, 192.0, 0.0, 0.0, 0.0, 0.0, 0.0, 0.0, 0.0, 0.0, 0.0, 1.6546749978056188E9, 0.0, 2022-06-08 09:56:37.805
151.0, 22661.38317124643, 38659.398395943455, -10238.909451831514, -12561.590976904748, 3859.6098255646025, 4321.799197411442, 15492.418765117976, 350.85533271495495, -0.048, 0.862, 0.484, 192.0, 0.0, 0.0, 0.0, 0.0, 0.0, 0.0, 0.0, 0.0, 0.0, 1.6546749978056233E9, 0.0, 2022-06-08 09:56:37.805
152.0, 22656.53284269963, 38665.522773924204, -10232.673315128484, -12552.560872144804, 3863.8566570111107, 4325.688400946665, 15491.904674995503, 323.67561145730156, -0.048, 0.862, 0.484, 192.0, 0.0, 0.0, 0.0, 0.0, 0.0, 0.0, 0.0, 0.0, 0.0, 1.6546749978056293E9, 0.0, 2022-06-08 09:56:37.805
153.0, 22653.850633364993, 38662.34882621156, -10226.057198769713, -12530.030313733854, 3874.116107716097, 4336.551348751945, 15494.743346541329, 328.14596034836296, -0.048, 0.862, 0.484, 192.0, 0.0, 0.0, 0.0, 0.0, 0.0, 0.0, 0.0, 0.0, 0.0, 1.654674997805637E9, 0.0, 2022-06-08 09:56:37.805
154.0, 22641.154842514377, 38650.65886386143, -10239.580004165175, -12543.642526107136, 3864.080174455664, 4328.437665514668, 15499.280750665755, 340.8193994545221, -0.048, 0.862, 0.484, 192.0, 0.0, 0.0, 0.0, 0.0, 0.0, 0.0, 0.0, 0.0, 0.0, 1.6546749978056424E9, 0.0, 2022-06-08 09:56:37.805
155.0, 22639.254944235676, 38646.121459737, -10252.879292116082, -12554.505473912415, 3855.653566796013, 4313.037313584961, 15492.59757907362, 310.1304543173855, -0.048, 0.862, 0.484, 192.0, 0.0, 0.0, 0.0, 0.0, 0.0, 0.0, 0.0, 0.0, 0.0, 1.654674997805648E9, 0.0, 2022-06-08 09:56:37.805
156.0, 22616.322054424534, 38627.368346138996, -10278.203818583945, -12574.77850613338, 3842.8013137342114, 4296.720540132587, 15485.377965614554, 303.8719658698995, -0.036000000000000004, 0.86, 0.506, 192.0, 254.0, 224.0, 26.0, 224.0, 15.0, 208.0, 0.0, 0.0, 0.0, 1.6546749978056526E9, 0.0, 2022-06-08 09:56:37.805
157.0, 22591.5339698236, 38611.431552342365, -10297.649836260061, -12590.469430741005, 3819.466092522871, 4278.637978868243, 15463.2497386038, 300.4297972237822, -0.036000000000000004, 0.86, 0.506, 192.0, 0.0, 0.0, 0.0, 0.0, 0.0, 0.0, 0.0, 0.0, 0.0, 1.6546749978056576E9, 0.0, 2022-06-08 09:56:37.805
158.0, 22581.833312729992, 38599.763941736695, -10317.90051673657, -12611.435367040083, 3781.959865326866, 4258.208484436093, 15416.735758392306, 313.72908517468994, -0.036000000000000004, 0.86, 0.506, 192.0, 0.0, 0.0, 0.0, 0.0, 0.0, 0.0, 0.0, 0.0, 0.0, 1.6546749978056629E9, 0.0, 2022-06-08 09:56:37.805
159.0, 22544.550602978543, 38570.01376986668, -10355.04911602129, -12668.253501445473, 3724.314716376629, 4216.522481026946, 15348.629993036986, 241.97998547315427, -0.036000000000000004, 0.86, 0.506, 192.0, 0.0, 0.0, 0.0, 0.0, 0.0, 0.0, 0.0, 0.0, 0.0, 1.6546749978056693E9, 0.0, 2022-06-08 09:56:37.805
160.0, 22379.885301576294, 38408.07538128798, -10477.581379125284, -12828.8284336124, 3575.2956360930966, 4077.5393340038463, 15189.373813792923, 46.46927672258338, -0.036000000000000004, 0.86, 0.506, 192.0, 0.0, 0.0, 0.0, 0.0, 0.0, 0.0, 0.0, 0.0, 0.0, 1.6546749978056748E9, 0.0, 2022-06-08 09:56:37.805
161.0, 22266.450198465613, 38288.784121130004, -10593.966912504067, -12928.98660051663, 3488.1461844618543, 3979.6610450340568, 15099.251580149124, -56.90754138321178, -0.036000000000000004, 0.86, 0.506, 192.0, 0.0, 0.0, 0.0, 0.0, 0.0, 0.0, 0.0, 0.0, 0.0, 1.654674997805679E9, 0.0, 2022-06-08 09:56:37.805
162.0, 22286.49971324202, 38296.070789822435, -10587.440203123118, -12883.299634849982, 3523.059609301044, 4005.9466965134975, 15140.110569013426, -29.07961953635449, -0.036000000000000004, 0.86, 0.506, 192.0, 0.0, 0.0, 0.0, 0.0, 0.0, 0.0, 0.0, 0.0, 0.0, 1.6546749978056839E9, 0.0, 2022-06-08 09:56:37.805
163.0, 22311.533667031967, 38326.58092100393, -10553.912586440158, -12841.367762251826, 3544.897263633879, 4033.394638704615, 15171.62652869541, -0.3799796557402201, -0.036000000000000004, 0.86, 0.506, 192.0, 0.0, 0.0, 0.0, 0.0, 0.0, 0.0, 0.0, 0.0, 0.0, 1.6546749978056881E9, 0.0, 2022-06-08 09:56:37.805
164.0, 22349.933964006184, 38338.33793858742, -10539.473359522028, -12823.508718432036, 3570.8699906909455, 4063.770659419377, 15193.285369072602, 45.79872438892417, -0.036000000000000004, 0.86, 0.506, 192.0, 0.0, 0.0, 0.0, 0.0, 0.0, 0.0, 0.0, 0.0, 0.0, 1.6546749978057065E9, 0.0, 2022-06-08 09:56:37.805
165.0, 22377.426609686212, 38366.948171490214, -10525.70468493756, -12805.806136823432, 3593.311142124074, 4093.1855551225613, 15220.487442074711, 83.01437890701042, -0.036000000000000004, 0.86, 0.506, 192.0, 0.0, 0.0, 0.0, 0.0, 0.0, 0.0, 0.0, 0.0, 0.0, 1.6546749978057249E9, 0.0, 2022-06-08 09:56:37.805
166.0, 22392.446981960176, 38363.64011331083, -10490.187762998077, -12772.524389329481, 3634.86303506649, 4126.489654360968, 15269.281300220646, 115.91614674522242, -0.032, 0.888, 0.54, 192.0, 255.0, 0.0, 27.0, 192.0, 16.0, 224.0, 0.0, 0.0, 0.0, 1.6546749978057346E9, 0.0, 2022-06-08 09:56:37.805
167.0, 22412.407089758766, 38370.099767458414, -10455.251986414432, -12740.874319180766, 3670.692881428347, 4152.708250607044, 15305.55818147161, 153.8023535969679, -0.032, 0.888, 0.54, 192.0, 0.0, 0.0, 0.0, 0.0, 0.0, 0.0, 0.0, 0.0, 0.0, 1.6546749978057475E9, 0.0, 2022-06-08 09:56:37.805
168.0, 22442.827813962438, 38405.92961382027, -10416.494061528929, -12703.7480716405, 3709.9648964363214, 4195.645951705689, 15349.3228971151, 197.00827562907645, -0.032, 0.888, 0.54, 192.0, 0.0, 0.0, 0.0, 0.0, 0.0, 0.0, 0.0, 0.0, 0.0, 1.654674997805752E9, 0.0, 2022-06-08 09:56:37.805
169.0, 22477.271852168065, 38443.61465497192, -10405.899334657113, -12694.539152924914, 3728.0921611895756, 4199.222230818538, 15360.096437942559, 190.68273194822456, -0.032, 0.888, 0.54, 192.0, 0.0, 0.0, 0.0, 0.0, 0.0, 0.0, 0.0, 0.0, 0.0, 1.6546749978057563E9, 0.0, 2022-06-08 09:56:37.805
170.0, 22500.227093723668, 38480.51738506763, -10412.135471360145, -12700.283551249928, 3732.3836961249945, 4196.048283105884, 15357.347173374555, 179.99859809858776, -0.032, 0.888, 0.54, 192.0, 0.0, 0.0, 0.0, 0.0, 0.0, 0.0, 0.0, 0.0, 0.0, 1.654674997805761E9, 0.0, 2022-06-08 09:56:37.805
171.0, 22509.63717813935, 38467.57572502801, -10400.087881098734, -12678.132972494719, 3745.3477079090726, 4203.536117498412, 15363.13627518848, 189.00635111407652, -0.032, 0.888, 0.54, 192.0, 0.0, 0.0, 0.0, 0.0, 0.0, 0.0, 0.0, 0.0, 0.0, 1.654674997805771E9, 0.0, 2022-06-08 09:56:37.805
172.0, 22514.152230519325, 38468.49214655068, -10384.084032068735, -12648.382800624706, 3768.235894231307, 4239.142446415716, 15384.99628126577, 234.58155805844763, -0.032, 0.888, 0.54, 192.0, 0.0, 0.0, 0.0, 0.0, 0.0, 0.0, 0.0, 0.0, 0.0, 1.654674997805776E9, 0.0, 2022-06-08 09:56:37.805
173.0, 22532.279495272578, 38493.79432127409, -10352.389258431109, -12606.070948370809, 3804.8480516491, 4277.98977827904, 15420.133223549514, 279.68737836925726, -0.032, 0.888, 0.54, 192.0, 0.0, 0.0, 0.0, 0.0, 0.0, 0.0, 0.0, 0.0, 0.0, 1.654674997805781E9, 0.0, 2022-06-08 09:56:37.805
174.0, 22540.527288976587, 38501.61743183344, -10349.282365951822, -12601.555895990838, 3812.1570720859854, 4280.336711446847, 15424.514165462753, 286.23643949466225, -0.032, 0.888, 0.54, 192.0, 0.0, 0.0, 0.0, 0.0, 0.0, 0.0, 0.0, 0.0, 0.0, 1.654674997805786E9, 0.0, 2022-06-08 09:56:37.805
175.0, 22540.907268632327, 38499.62812657692, -10368.326052227743, -12617.984428165488, 3802.501118481293, 4280.984912036051, 15409.940828077893, 280.5143929141036, -0.032, 0.888, 0.54, 192.0, 0.0, 0.0, 0.0, 0.0, 0.0, 0.0, 0.0, 0.0, 0.0, 1.65467499780579E9, 0.0, 2022-06-08 09:56:37.805
176.0, 22561.493225275663, 38517.397763418885, -10371.81292436277, -12624.913468946634, 3805.742121427312, 4277.766260834487, 15412.444223456887, 267.1704014742853, -0.012, 0.928, 0.55, 192.0, 255.0, 160.0, 29.0, 0.0, 17.0, 48.0, 0.0, 0.0, 0.0, 1.6546749978057964E9, 0.0, 2022-06-08 09:56:37.805
177.0, 22581.85566447445, 38519.431772164324, -10367.610796405173, -12613.536431018882, 3824.13760711403, 4292.697226130632, 15409.650255399974, 254.98870074614297, -0.012, 0.928, 0.55, 192.0, 0.0, 0.0, 0.0, 0.0, 0.0, 0.0, 0.0, 0.0, 0.0, 1.654674997805801E9, 0.0, 2022-06-08 09:56:37.805
178.0, 22586.61658604343, 38519.94586228679, -10355.920834055047, -12593.084584842276, 3825.7469327148124, 4309.438682727657, 15424.402406740477, 280.4249859362824, -0.012, 0.928, 0.55, 192.0, 0.0, 0.0, 0.0, 0.0, 0.0, 0.0, 0.0, 0.0, 0.0, 1.6546749978058057E9, 0.0, 2022-06-08 09:56:37.805
179.0, 22598.217141415735, 38526.427868178835, -10355.80907533277, -12598.471355256004, 3831.200758361907, 4290.37264470728, 15416.691054903396, 262.7671078165898, -0.012, 0.928, 0.55, 192.0, 0.0, 0.0, 0.0, 0.0, 0.0, 0.0, 0.0, 0.0, 0.0, 1.6546749978058107E9, 0.0, 2022-06-08 09:56:37.805
180.0, 22604.05094671857, 38523.835065822015, -10356.501979410885, -12607.21088733803, 3835.9169764419767, 4276.335749189348, 15410.47726994482, 210.0840461354311, -0.012, 0.928, 0.55, 192.0, 0.0, 0.0, 0.0, 0.0, 0.0, 0.0, 0.0, 0.0, 0.0, 1.654674997805816E9, 0.0, 2022-06-08 09:56:37.805
181.0, 22615.1374119684, 38534.40744094938, -10363.47572368094, -12618.364407821227, 3825.4787117813485, 4275.307568944403, 15412.064243801147, 255.30162516851726, -0.012, 0.928, 0.55, 192.0, 0.0, 0.0, 0.0, 0.0, 0.0, 0.0, 0.0, 0.0, 0.0, 1.6546749978058224E9, 0.0, 2022-06-08 09:56:37.805
182.0, 22638.13735701291, 38561.07307208456, -10350.467008407952, -12602.11468960222, 3841.57196778917, 4287.936304561652, 15428.269258531245, 323.5191492461144, -0.012, 0.928, 0.55, 192.0, 0.0, 0.0, 0.0, 0.0, 0.0, 0.0, 0.0, 0.0, 0.0, 1.6546749978058276E9, 0.0, 2022-06-08 09:56:37.805
183.0, 22639.590220402508, 38553.138202802926, -10338.553528613273, -12587.250779539441, 3855.139476673541, 4298.531031433467, 15441.635601715518, 315.09254158646365, -0.012, 0.928, 0.55, 192.0, 0.0, 0.0, 0.0, 0.0, 0.0, 0.0, 0.0, 0.0, 0.0, 1.6546749978058324E9, 0.0, 2022-06-08 09:56:37.805
184.0, 22644.86523209396, 38555.17221154836, -10340.587537358706, -12590.044747596354, 3840.7896567332336, 4300.319170989892, 15447.089427362613, 314.9137276308212, -0.012, 0.928, 0.55, 192.0, 0.0, 0.0, 0.0, 0.0, 0.0, 0.0, 0.0, 0.0, 0.0, 1.6546749978058372E9, 0.0, 2022-06-08 09:56:37.805
185.0, 22664.11008406998, 38562.52593547415, -10341.168682714544, -12595.29740754335, 3846.198778891418, 4293.367778464291, 15446.15065409549, 309.57166070600283, -0.012, 0.928, 0.55, 192.0, 0.0, 0.0, 0.0, 0.0, 0.0, 0.0, 0.0, 0.0, 0.0, 1.6546749978058417E9, 0.0, 2022-06-08 09:56:37.805
186.0, 22664.66887768136, 38556.96035110478, -10351.428133419531, -12611.16714610662, 3833.6147467630803, 4279.397938179724, 15428.313962020155, 288.27044824009516, 0.048, 0.966, 0.5660000000000001, 192.0, 1.0, 128.0, 30.0, 48.0, 17.0, 176.0, 0.0, 0.0, 0.0, 1.6546749978058462E9, 0.0, 2022-06-08 09:56:37.805
187.0, 22678.281090054643, 38558.83789763902, -10363.185151003021, -12622.45477705655, 3817.856766922089, 4265.964539762084, 15419.462671215853, 265.33755842895016, 0.048, 0.966, 0.5660000000000001, 192.0, 0.0, 0.0, 0.0, 0.0, 0.0, 0.0, 0.0, 0.0, 0.0, 1.6546749978058507E9, 0.0, 2022-06-08 09:56:37.805
188.0, 22701.169276376877, 38586.53170901915, -10349.349421185187, -12612.195326351562, 3835.2911275972283, 4278.257999212504, 15444.854252917083, 292.29376224205043, 0.048, 0.966, 0.5660000000000001, 192.0, 0.0, 0.0, 0.0, 0.0, 0.0, 0.0, 0.0, 0.0, 0.0, 1.654674997805856E9, 0.0, 2022-06-08 09:56:37.805
189.0, 22678.86223541048, 38603.20611038281, -10355.026764276834, -12616.129233375697, 3833.525339785259, 4273.184153221149, 15446.48593026232, 278.8603638244109, 0.048, 0.966, 0.5660000000000001, 192.0, 0.0, 0.0, 0.0, 0.0, 0.0, 0.0, 0.0, 0.0, 0.0, 1.6546749978058624E9, 0.0, 2022-06-08 09:56:37.805
190.0, 22643.322961726542, 38580.98847639424, -10383.413479735074, -12643.152492422163, 3810.4359877629267, 4254.296929156414, 15434.840671401105, 242.20350291770734, 0.048, 0.966, 0.5660000000000001, 192.0, 0.0, 0.0, 0.0, 0.0, 0.0, 0.0, 0.0, 0.0, 0.0, 1.6546749978058677E9, 0.0, 2022-06-08 09:56:37.805
191.0, 22644.060569293568, 38573.83591816854, -10396.10927058569, -12647.712248291045, 3805.071569093653, 4253.2687489114705, 15425.832918385617, 224.79149398702313, 0.048, 0.966, 0.5660000000000001, 192.0, 0.0, 0.0, 0.0, 0.0, 0.0, 0.0, 0.0, 0.0, 0.0, 1.6546749978058727E9, 0.0, 2022-06-08 09:56:37.805
192.0, 22654.81175837657, 38583.40246479541, -10397.115099086179, -12641.185538910097, 3815.822758176656, 4256.12977220175, 15445.01071512827, 235.69914528121296, 0.048, 0.966, 0.5660000000000001, 192.0, 0.0, 0.0, 0.0, 0.0, 0.0, 0.0, 0.0, 0.0, 0.0, 1.65467499780589E9, 0.0, 2022-06-08 09:56:37.805
193.0, 22667.19462480481, 38595.74062773474, -10389.202581549, -12634.07768417331, 3826.685705981935, 4272.580656120856, 15468.949433439904, 293.2325355091734, 0.048, 0.966, 0.5660000000000001, 192.0, 0.0, 0.0, 0.0, 0.0, 0.0, 0.0, 0.0, 0.0, 0.0, 1.6546749978058958E9, 0.0, 2022-06-08 09:56:37.805
194.0, 22680.96329938928, 38607.028258684666, -10380.86538086717, -12632.960096950543, 3826.1269123705524, 4292.317246474891, 15484.01450920278, 329.0623818710306, 0.048, 0.966, 0.5660000000000001, 192.0, 0.0, 0.0, 0.0, 0.0, 0.0, 0.0, 0.0, 0.0, 0.0, 1.6546749978059003E9, 0.0, 2022-06-08 09:56:37.805
195.0, 22675.688287697827, 38597.28289810215, -10395.14814557411, -12659.491617618993, 3802.9705051148544, 4284.784708593454, 15425.72115966334, 304.07313156999726, 0.048, 0.966, 0.5660000000000001, 192.0, 0.0, 0.0, 0.0, 0.0, 0.0, 0.0, 0.0, 0.0, 0.0, 1.6546749978059049E9, 0.0, 2022-06-08 09:56:37.805
196.0, 22660.176177045843, 38586.57641250806, -10412.493099271429, -12677.50712364997, 3788.6430369190025, 4292.18313600816, 15390.226589468311, 287.7563581176231, 0.084, 0.88, 0.544, 192.0, 2.0, 160.0, 27.0, 128.0, 17.0, 0.0, 0.0, 0.0, 0.0, 1.6546749978059094E9, 0.0, 2022-06-08 09:56:37.805
197.0, 22667.97693586075, 38588.11868287548, -10398.97029387597, -12677.8423998168, 3815.75570294329, 4309.148110049738, 15465.551968282696, 281.76609060360084, 0.084, 0.88, 0.544, 192.0, 0.0, 0.0, 0.0, 0.0, 0.0, 0.0, 0.0, 0.0, 0.0, 1.6546749978059137E9, 0.0, 2022-06-08 09:56:37.805
198.0, 22690.842770438525, 38608.50347381872, -10378.876075610648, -12661.615033342247, 3829.0326391497424, 4321.28510728897, 15513.585867117152, 239.78951451653415, 0.084, 0.88, 0.544, 192.0, 0.0, 0.0, 0.0, 0.0, 0.0, 0.0, 0.0, 0.0, 0.0, 1.6546749978059213E9, 0.0, 2022-06-08 09:56:37.805
199.0, 22705.036128167645, 38618.36059312351, -10369.220122005954, -12634.681181273601, 3825.3446013146167, 4318.088807831861, 15508.936704270447, 230.17826440075214, 0.084, 0.88, 0.544, 192.0, 0.0, 0.0, 0.0, 0.0, 0.0, 0.0, 0.0, 0.0, 0.0, 1.654674997805926E9, 0.0, 2022-06-08 09:56:37.805
200.0, 22695.760154218693, 38610.35866860851, -10382.72057565696, -12642.705457533057, 3798.27663877924, 4313.953735107629, 15450.844520431105, 280.60379989192484, 0.084, 0.88, 0.544, 192.0, 0.0, 0.0, 0.0, 0.0, 0.0, 0.0, 0.0, 0.0, 0.0, 1.654674997805931E9, 0.0, 2022-06-08 09:56:37.805
201.0, 22695.827209452058, 38613.7114302768, -10372.282310996332, -12658.977527496521, 3799.975371357843, 4320.882775888775, 15437.254659802278, 300.76507339061186, 0.084, 0.88, 0.544, 192.0, 0.0, 0.0, 0.0, 0.0, 0.0, 0.0, 0.0, 0.0, 0.0, 1.6546749978059363E9, 0.0, 2022-06-08 09:56:37.805
202.0, 22711.07109917058, 38630.45288687383, -10345.99665951689, -12641.163187165641, 3818.1920430889186, 4329.488197504067, 15482.49459057982, 304.9448496037543, 0.084, 0.88, 0.544, 192.0, 0.0, 0.0, 0.0, 0.0, 0.0, 0.0, 0.0, 0.0, 0.0, 1.6546749978059423E9, 0.0, 2022-06-08 09:56:37.805
203.0, 22717.039014940146, 38632.91157876392, -10343.225043204433, -12620.487823544481, 3821.94713615741, 4336.774866196498, 15525.722864356383, 321.4404370117709, 0.084, 0.88, 0.544, 192.0, 0.0, 0.0, 0.0, 0.0, 0.0, 0.0, 0.0, 0.0, 0.0, 1.6546749978059483E9, 0.0, 2022-06-08 09:56:37.805
204.0, 22728.684273801362, 38634.990290998256, -10335.647801834084, -12615.59279150877, 3824.294069325217, 4332.393924283258, 15516.558649129707, 281.14024175885226, 0.084, 0.88, 0.544, 192.0, 0.0, 0.0, 0.0, 0.0, 0.0, 0.0, 0.0, 0.0, 0.0, 1.654674997805954E9, 0.0, 2022-06-08 09:56:37.805
205.0, 22741.514175118707, 38638.43245964438, -10331.065694220746, -12623.773529979413, 3830.1278746280523, 4334.740857451065, 15494.720994796873, 275.082919011464, 0.11, 0.8320000000000001, 0.514, 192.0, 3.0, 112.0, 26.0, 0.0, 16.0, 16.0, 0.0, 0.0, 0.0, 1.6546749978059585E9, 0.0, 2022-06-08 09:56:37.805
206.0, 22726.40439586692, 38619.23231115727, -10343.85089204918, -12649.522739591926, 3804.3786650155384, 4323.453226501135, 15456.052476889192, 287.7340063731678, 0.11, 0.8320000000000001, 0.514, 192.0, 0.0, 0.0, 0.0, 0.0, 0.0, 0.0, 0.0, 0.0, 0.0, 1.654674997805963E9, 0.0, 2022-06-08 09:56:37.805
207.0, 22737.82613728358, 38626.742497294246, -10333.032647732813, -12627.662733514635, 3804.401016759994, 4322.849729400841, 15482.472238835364, 301.41327397981576, 0.11, 0.8320000000000001, 0.514, 192.0, 0.0, 0.0, 0.0, 0.0, 0.0, 0.0, 0.0, 0.0, 0.0, 1.654674997805968E9, 0.0, 2022-06-08 09:56:37.805
208.0, 22764.201195740843, 38639.058308489126, -10322.974362727924, -12608.864916427723, 3832.877139196055, 4337.490122019068, 15513.630570606063, 330.0235068826088, 0.11, 0.8320000000000001, 0.514, 192.0, 0.0, 0.0, 0.0, 0.0, 0.0, 0.0, 0.0, 0.0, 0.0, 1.6546749978059733E9, 0.0, 2022-06-08 09:56:37.805
209.0, 22747.839718799558, 38645.11563123651, -10315.687694035494, -12614.363445563728, 3827.579775760147, 4335.523168507, 15501.806497789205, 315.45016949774856, 0.11, 0.8320000000000001, 0.514, 192.0, 0.0, 0.0, 0.0, 0.0, 0.0, 0.0, 0.0, 0.0, 0.0, 1.6546749978059783E9, 0.0, 2022-06-08 09:56:37.805
210.0, 22711.33932010404, 38634.40914564242, -10332.585612843706, -12629.048541670865, 3808.647848206502, 4304.588354180855, 15476.079639921147, 263.0800322389641, 0.11, 0.8320000000000001, 0.514, 192.0, 0.0, 0.0, 0.0, 0.0, 0.0, 0.0, 0.0, 0.0, 0.0, 1.6546749978059835E9, 0.0, 2022-06-08 09:56:37.805
211.0, 22717.93308471836, 38639.035956744665, -10335.200766944978, -12621.11367238923, 3812.4029412749937, 4304.364836736302, 15479.834732989639, 249.02078497657598, 0.11, 0.8320000000000001, 0.514, 192.0, 0.0, 0.0, 0.0, 0.0, 0.0, 0.0, 0.0, 0.0, 0.0, 1.6546749978059888E9, 0.0, 2022-06-08 09:56:37.805
212.0, 22734.74159654875, 38648.60250337154, -10321.499147593875, -12618.029131654399, 3821.701266968402, 4296.0052843100175, 15478.2030556444, 219.22590961765167, 0.11, 0.8320000000000001, 0.514, 192.0, 0.0, 0.0, 0.0, 0.0, 0.0, 0.0, 0.0, 0.0, 0.0, 1.6546749978059936E9, 0.0, 2022-06-08 09:56:37.805
213.0, 22743.704646075326, 38654.61512263002, -10311.574973055718, -12612.441195540572, 3811.598278474603, 4291.579638907867, 15482.11461092408, 249.69133731023518, 0.11, 0.8320000000000001, 0.514, 192.0, 0.0, 0.0, 0.0, 0.0, 0.0, 0.0, 0.0, 0.0, 0.0, 1.6546749978060007E9, 0.0, 2022-06-08 09:56:37.806
214.0, 22758.680314860383, 38654.10103250755, -10309.764481754837, -12600.080680856787, 3808.781958673234, 4292.451356941624, 15478.448924833408, 292.04789305304206, 0.11, 0.8320000000000001, 0.514, 192.0, 0.0, 0.0, 0.0, 0.0, 0.0, 0.0, 0.0, 0.0, 0.0, 1.6546749978060105E9, 0.0, 2022-06-08 09:56:37.806
215.0, 22753.092378746558, 38646.85906730402, -10310.122109666123, -12603.522849502904, 3839.04622066572, 4281.946037047629, 15471.676346263452, 302.32969550248333, 0.124, 0.8260000000000001, 0.488, 192.0, 3.0, 224.0, 25.0, 208.0, 15.0, 64.0, 0.0, 0.0, 0.0, 1.6546749978060153E9, 0.0, 2022-06-08 09:56:37.806
216.0, 22754.858166558526, 38641.44994514584, -10315.866507991137, -12611.457718784539, 3830.753723472801, 4272.155972976205, 15456.097180378101, 308.856404883433, 0.124, 0.8260000000000001, 0.488, 192.0, 0.0, 0.0, 0.0, 0.0, 0.0, 0.0, 0.0, 0.0, 0.0, 1.6546749978060198E9, 0.0, 2022-06-08 09:56:37.806
217.0, 22749.136119977968, 38644.847410303046, -10318.839290003692, -12615.34692231976, 3815.5992407321028, 4271.373661920269, 15460.00873565778, 300.0274658235867, 0.124, 0.8260000000000001, 0.488, 192.0, 0.0, 0.0, 0.0, 0.0, 0.0, 0.0, 0.0, 0.0, 0.0, 1.6546749978060257E9, 0.0, 2022-06-08 09:56:37.806
218.0, 22767.397495197954, 38664.74046286827, -10296.979283926403, -12594.693910443058, 3827.3786100600496, 4290.1938307516375, 15477.510151566286, 304.56486994801406, 0.124, 0.8260000000000001, 0.488, 192.0, 0.0, 0.0, 0.0, 0.0, 0.0, 0.0, 0.0, 0.0, 0.0, 1.654674997806033E9, 0.0, 2022-06-08 09:56:37.806
219.0, 22766.41401844192, 38658.16904999841, -10285.646949487562, -12590.134154574174, 3848.2104358923957, 4293.747758120031, 15498.900771010016, 268.0868229969529, 0.124, 0.8260000000000001, 0.488, 192.0, 0.0, 0.0, 0.0, 0.0, 0.0, 0.0, 0.0, 0.0, 0.0, 1.6546749978060377E9, 0.0, 2022-06-08 09:56:37.806
220.0, 22748.465567644307, 38634.990290998256, -10302.008426428847, -12606.607390237736, 3824.2493658363064, 4279.353234690814, 15485.243855147823, 291.8914308418549, 0.124, 0.8260000000000001, 0.488, 192.0, 0.0, 0.0, 0.0, 0.0, 0.0, 0.0, 0.0, 0.0, 0.0, 1.654674997806043E9, 0.0, 2022-06-08 09:56:37.806
221.0, 22754.88051830298, 38640.53352362318, -10302.74603399587, -12605.199230337052, 3806.949115627899, 4270.032557252951, 15456.253642589289, 322.7815416790893, 0.124, 0.8260000000000001, 0.488, 192.0, 0.0, 0.0, 0.0, 0.0, 0.0, 0.0, 0.0, 0.0, 0.0, 1.6546749978060489E9, 0.0, 2022-06-08 09:56:37.806
222.0, 22777.45578020284, 38665.36631171302, -10272.951158636948, -12584.814439393813, 3835.984031675343, 4274.525257888467, 15521.565439887696, 373.89998124837655, 0.124, 0.8260000000000001, 0.488, 192.0, 0.0, 0.0, 0.0, 0.0, 0.0, 0.0, 0.0, 0.0, 0.0, 1.6546749978060586E9, 0.0, 2022-06-08 09:56:37.806
223.0, 22789.168094297424, 38668.18263151439, -10259.160132308023, -12577.930102101578, 3854.983014462354, 4274.592313121833, 15557.350582760642, 342.8087047110444, 0.124, 0.8260000000000001, 0.488, 192.0, 0.0, 0.0, 0.0, 0.0, 0.0, 0.0, 0.0, 0.0, 0.0, 1.6546749978060675E9, 0.0, 2022-06-08 09:56:37.806
224.0, 22792.900835621458, 38684.767625900226, -10259.808332897226, -12577.572474190292, 3843.494217812326, 4272.737118332043, 15547.381704733576, 309.7728264061006, 0.124, 0.8260000000000001, 0.488, 192.0, 0.0, 0.0, 0.0, 0.0, 0.0, 0.0, 0.0, 0.0, 0.0, 1.6546749978060727E9, 0.0, 2022-06-08 09:56:37.806
225.0, 22804.814315416137, 38705.890024410495, -10234.237937240356, -12559.758133859414, 3851.7643632607897, 4305.460072214612, 15563.117332830112, 318.93704163277647, 0.1, 0.876, 0.482, 192.0, 3.0, 32.0, 27.0, 96.0, 15.0, 16.0, 0.0, 0.0, 0.0, 1.6546749978060784E9, 0.0, 2022-06-08 09:56:37.806
226.0, 22769.36444871002, 38666.37214021351, -10250.93469034847, -12578.421840479594, 3837.079267153653, 4280.381414935758, 15535.848204594638, 312.4550357407374, 0.1, 0.876, 0.482, 192.0, 0.0, 0.0, 0.0, 0.0, 0.0, 0.0, 0.0, 0.0, 0.0, 1.654674997806084E9, 0.0, 2022-06-08 09:56:37.806
227.0, 22755.908698547926, 38655.330378452585, -10258.824856141193, -12587.228427794986, 3853.641909795035, 4286.2599237275035, 15532.540146415253, 307.18002404928495, 0.1, 0.876, 0.482, 192.0, 0.0, 0.0, 0.0, 0.0, 0.0, 0.0, 0.0, 0.0, 0.0, 1.6546749978060908E9, 0.0, 2022-06-08 09:56:37.806
228.0, 22782.17199828291, 38672.2282972608, -10241.614012910606, -12570.285805497862, 3864.2813401557614, 4293.345426719836, 15522.92889629947, 309.1916810502626, 0.1, 0.876, 0.482, 192.0, 0.0, 0.0, 0.0, 0.0, 0.0, 0.0, 0.0, 0.0, 0.0, 1.6546749978060975E9, 0.0, 2022-06-08 09:56:37.806
229.0, 22796.633576945493, 38672.29535249416, -10234.081475029168, -12562.239177493952, 3850.646776038024, 4298.106348288817, 15465.261395604777, 297.4793669556817, 0.1, 0.876, 0.482, 192.0, 0.0, 0.0, 0.0, 0.0, 0.0, 0.0, 0.0, 0.0, 0.0, 1.654674997806106E9, 0.0, 2022-06-08 09:56:37.806
230.0, 22813.95617889836, 38680.006704331245, -10217.228259709867, -12551.823264577779, 3854.2230551508733, 4323.676743945688, 15478.180703899945, 284.2247824936846, 0.1, 0.876, 0.482, 192.0, 0.0, 0.0, 0.0, 0.0, 0.0, 0.0, 0.0, 0.0, 0.0, 1.654674997806112E9, 0.0, 2022-06-08 09:56:37.806
231.0, 22772.203120255843, 38641.31583467911, -10239.2670797428, -12584.166238804608, 3836.2075491198957, 4293.680702886665, 15507.014454247292, 293.83603260946666, 0.1, 0.876, 0.482, 192.0, 0.0, 0.0, 0.0, 0.0, 0.0, 0.0, 0.0, 0.0, 0.0, 1.65467499780612E9, 0.0, 2022-06-08 09:56:37.806
232.0, 22771.42080919991, 38626.87660776098, -10244.765608878804, -12602.964055891522, 3838.040392165231, 4276.961598034096, 15507.103861225112, 311.1809863067849, 0.1, 0.876, 0.482, 192.0, 0.0, 0.0, 0.0, 0.0, 0.0, 0.0, 0.0, 0.0, 0.0, 1.654674997806126E9, 0.0, 2022-06-08 09:56:37.806
233.0, 22799.628710702505, 38645.9202940369, -10229.745236604838, -12594.850372654246, 3843.3601073455943, 4280.671987613677, 15531.288448725754, 311.8515386404441, 0.1, 0.876, 0.482, 192.0, 0.0, 0.0, 0.0, 0.0, 0.0, 0.0, 0.0, 0.0, 0.0, 1.6546749978061328E9, 0.0, 2022-06-08 09:56:37.806
234.0, 22805.998957872267, 38674.061140306134, -10220.066931255691, -12578.734764901968, 3844.4106393349934, 4287.221048739082, 15535.937611572459, 309.66106768382406, 0.1, 0.876, 0.482, 192.0, 0.0, 0.0, 0.0, 0.0, 0.0, 0.0, 0.0, 0.0, 0.0, 1.6546749978061416E9, 0.0, 2022-06-08 09:56:37.806
235.0, 22776.002916813246, 38660.38187269949, -10219.262268455299, -12564.921386828588, 3844.5671015461808, 4297.972237822084, 15549.058085567724, 325.75432369164514, 0.08600000000000001, 0.92, 0.488, 192.0, 2.0, 176.0, 28.0, 192.0, 15.0, 64.0, 0.0, 0.0, 0.0, 1.6546749982861493E9, 0.0, 2022-06-08 09:56:38.286
236.0, 22750.119596734, 38640.33235792308, -10218.994047521835, -12562.261529238407, 3841.95194744491, 4314.512528719011, 15552.70141991394, 320.61342246692453, 0.08600000000000001, 0.92, 0.488, 192.0, 0.0, 0.0, 0.0, 0.0, 0.0, 0.0, 0.0, 0.0, 0.0, 1.6546749982862296E9, 0.0, 2022-06-08 09:56:38.286
237.0, 22747.102111232532, 38630.74345955175, -10221.720960345383, -12569.525846186381, 3846.5117033137926, 4308.678723416177, 15550.175672790489, 265.0469857510312, 0.08600000000000001, 0.92, 0.488, 192.0, 0.0, 0.0, 0.0, 0.0, 0.0, 0.0, 0.0, 0.0, 0.0, 1.6546749982862356E9, 0.0, 2022-06-08 09:56:38.286
238.0, 22758.03211427118, 38635.191456698354, -10219.955172533415, -12571.895131098645, 3852.971357461376, 4300.050950056428, 15520.783128831761, 172.4213567282387, 0.08600000000000001, 0.92, 0.488, 192.0, 0.0, 0.0, 0.0, 0.0, 0.0, 0.0, 0.0, 0.0, 0.0, 1.6546749982862403E9, 0.0, 2022-06-08 09:56:38.286
239.0, 22766.056390530634, 38637.00194799923, -10215.104843986612, -12548.537558142849, 3854.245406895329, 4335.85844467383, 15508.936704270447, 301.32386700199453, 0.08600000000000001, 0.92, 0.488, 192.0, 0.0, 0.0, 0.0, 0.0, 0.0, 0.0, 0.0, 0.0, 0.0, 1.6546749982862487E9, 0.0, 2022-06-08 09:56:38.286
240.0, 22735.76977679369, 38617.243005900746, -10218.748178332828, -12550.079828510265, 3847.0257934362644, 4356.62321527281, 15530.2155649919, 447.6607379508898, 0.08600000000000001, 0.92, 0.488, 192.0, 0.0, 0.0, 0.0, 0.0, 0.0, 0.0, 0.0, 0.0, 0.0, 1.654674998286254E9, 0.0, 2022-06-08 09:56:38.286
241.0, 22703.06917465558, 38595.137130634444, -10232.606259895118, -12567.290671740851, 3841.2143398778844, 4353.404564071246, 15555.763608904315, 438.6976884243117, 0.08600000000000001, 0.92, 0.488, 192.0, 0.0, 0.0, 0.0, 0.0, 0.0, 0.0, 0.0, 0.0, 0.0, 1.654674998286262E9, 0.0, 2022-06-08 09:56:38.286
242.0, 22691.133343116446, 38578.66389497089, -10246.285527501766, -12577.080735812277, 3837.2804328537504, 4343.323927321902, 15560.189254306468, 390.7979000565887, 0.08600000000000001, 0.92, 0.488, 192.0, 0.0, 0.0, 0.0, 0.0, 0.0, 0.0, 0.0, 0.0, 0.0, 1.65467499828627E9, 0.0, 2022-06-08 09:56:38.286
243.0, 22699.1576193759, 38583.71538921778, -10229.029980782268, -12541.876738295166, 3859.2521976533176, 4358.858389718341, 15599.237751869889, 376.0904522049966, 0.08600000000000001, 0.92, 0.488, 192.0, 0.0, 0.0, 0.0, 0.0, 0.0, 0.0, 0.0, 0.0, 0.0, 1.6546749982862763E9, 0.0, 2022-06-08 09:56:38.286
244.0, 22692.96618616178, 38579.51326126019, -10228.627649382073, -12531.661991079092, 3867.7905640352446, 4367.284997377992, 15628.47383361743, 366.1662776668403, 0.08600000000000001, 0.92, 0.488, 192.0, 0.0, 0.0, 0.0, 0.0, 0.0, 0.0, 0.0, 0.0, 0.0, 1.6546749982862825E9, 0.0, 2022-06-08 09:56:38.286
245.0, 22658.142168300412, 38544.01869106516, -10266.647966700551, -12579.047689324343, 3847.04814518072, 4327.498892247545, 15585.960815663437, 360.9583212087538, 0.08, 0.912, 0.502, 192.0, 2.0, 128.0, 28.0, 128.0, 15.0, 176.0, 0.0, 0.0, 0.0, 1.6546749982862892E9, 0.0, 2022-06-08 09:56:38.286
246.0, 22652.665990908863, 38548.10906030048, -10251.538187448763, -12556.718296613491, 3866.4718111123816, 4356.5785117839, 15593.068670400224, 409.7745310991444, 0.08, 0.912, 0.502, 192.0, 0.0, 0.0, 0.0, 0.0, 0.0, 0.0, 0.0, 0.0, 0.0, 1.654674998286297E9, 0.0, 2022-06-08 09:56:38.286
247.0, 22649.514394940663, 38546.00799632168, -10250.353544992631, -12546.972936030978, 3872.5961890931358, 4364.043994431972, 15599.483621058896, 400.40915017237074, 0.08, 0.912, 0.502, 192.0, 0.0, 0.0, 0.0, 0.0, 0.0, 0.0, 0.0, 0.0, 0.0, 1.6546749982863033E9, 0.0, 2022-06-08 09:56:38.286
248.0, 22651.77192113065, 38535.90500782788, -10254.26510027231, -12543.329601684762, 3877.1782967064737, 4350.2976715919585, 15581.289301072276, 377.31979815003854, 0.08, 0.912, 0.502, 192.0, 0.0, 0.0, 0.0, 0.0, 0.0, 0.0, 0.0, 0.0, 0.0, 1.6546749982863097E9, 0.0, 2022-06-08 09:56:38.286
249.0, 22639.9925518027, 38540.28594974112, -10236.897794830536, -12534.634773091648, 3880.0840234856637, 4355.840904216874, 15581.46811502792, 373.54235333709164, 0.08, 0.912, 0.502, 192.0, 0.0, 0.0, 0.0, 0.0, 0.0, 0.0, 0.0, 0.0, 0.0, 1.6546749982863178E9, 0.0, 2022-06-08 09:56:38.286
250.0, 22634.67283662234, 38541.53764743062, -10251.895815360049, -12552.203244233518, 3875.524267616781, 4344.709735478132, 15577.46715277042, 352.4199548268265, 0.08, 0.912, 0.502, 192.0, 0.0, 0.0, 0.0, 0.0, 0.0, 0.0, 0.0, 0.0, 0.0, 1.6546749982863245E9, 0.0, 2022-06-08 09:56:38.286
251.0, 22635.90218256738, 38533.423964193345, -10255.896777617549, -12550.996250032933, 3879.0558432407197, 4346.43081980119, 15588.46421104243, 340.8417511989774, 0.08, 0.912, 0.502, 192.0, 0.0, 0.0, 0.0, 0.0, 0.0, 0.0, 0.0, 0.0, 0.0, 1.6546749982863307E9, 0.0, 2022-06-08 09:56:38.286
252.0, 22643.702941382282, 38546.835010866525, -10249.191254280955, -12536.802892303813, 3893.2492009698394, 4366.547389810967, 15600.690615259484, 380.3596353959603, 0.08, 0.912, 0.502, 192.0, 0.0, 0.0, 0.0, 0.0, 0.0, 0.0, 0.0, 0.0, 0.0, 1.6546749982863364E9, 0.0, 2022-06-08 09:56:38.286
253.0, 22672.089656840522, 38570.63961871143, -10242.93276583347, -12533.025447490865, 3898.814785339211, 4363.194628142671, 15592.778097722305, 387.4227866438373, 0.08, 0.912, 0.502, 192.0, 0.0, 0.0, 0.0, 0.0, 0.0, 0.0, 0.0, 0.0, 0.0, 1.654674998286343E9, 0.0, 2022-06-08 09:56:38.286
254.0, 22660.95848810178, 38555.06045282608, -10242.396323966543, -12541.496758639427, 3889.2929422012503, 4359.9312734521955, 15564.614899708618, 393.86008904696575, 0.08, 0.912, 0.502, 192.0, 0.0, 0.0, 0.0, 0.0, 0.0, 0.0, 0.0, 0.0, 0.0, 1.6546749982863512E9, 0.0, 2022-06-08 09:56:38.286
255.0, 22663.037200336123, 38569.92436288886, -10241.748123377338, -12544.24602320743, 3898.2783434722837, 4369.184895656693, 15587.41367905303, 427.6112231744794, 0.05, 0.886, 0.51, 192.0, 1.0, 144.0, 27.0, 176.0, 15.0, 240.0, 0.0, 0.0, 0.0, 1.6546749982863564E9, 0.0, 2022-06-08 09:56:38.286
0.0, 22672.62609870745, 38585.414121796384, -10242.038696055257, -12534.075979480265, 3919.6242594271016, 4376.180991671204, 15609.385443852598, 432.5062552101917, 0.05, 0.886, 0.51, 192.0, 0.0, 0.0, 0.0, 0.0, 0.0, 0.0, 0.0, 0.0, 0.0, 1.65467499828639E9, 0.0, 2022-06-08 09:56:38.286
1.0, 22674.883624897437, 38602.64731677143, -10244.318573989698, -12539.038066749343, 3910.7506168783448, 4357.651395517754, 15611.933542720502, 435.5013889672028, 0.05, 0.886, 0.51, 192.0, 0.0, 0.0, 0.0, 0.0, 0.0, 0.0, 0.0, 0.0, 0.0, 1.6546749982863972E9, 0.0, 2022-06-08 09:56:38.286
2.0, 22711.674596270874, 38633.40331714193, -10219.128157988567, -12503.096461665209, 3938.0197451138197, 4411.8767275663295, 15632.608906341662, 447.68308969534513, 0.05, 0.886, 0.51, 192.0, 0.0, 0.0, 0.0, 0.0, 0.0, 0.0, 0.0, 0.0, 0.0, 1.654674998286406E9, 0.0, 2022-06-08 09:56:38.286
3.0, 22739.144890206444, 38645.9202940369, -10197.759890289295, -12481.862304432667, 3946.736925451389, 4418.090512524905, 15637.99567675539, 431.9698133432643, 0.05, 0.886, 0.51, 192.0, 0.0, 0.0, 0.0, 0.0, 0.0, 0.0, 0.0, 0.0, 0.0, 1.654674998286415E9, 0.0, 2022-06-08 09:56:38.286
4.0, 22746.208041454323, 38657.52084940921, -10197.558724589197, -12476.497885763394, 3936.9915648688752, 4419.118692769849, 15620.941295735991, 413.5743276565466, 0.05, 0.886, 0.51, 192.0, 0.0, 0.0, 0.0, 0.0, 0.0, 0.0, 0.0, 0.0, 0.0, 1.654674998286421E9, 0.0, 2022-06-08 09:56:38.286
5.0, 22726.672616800384, 38648.915427793916, -10209.405149150509, -12491.004167914889, 3929.8613583876327, 4391.648398834276, 15589.626501754106, 389.70266457827864, 0.05, 0.886, 0.51, 192.0, 0.0, 0.0, 0.0, 0.0, 0.0, 0.0, 0.0, 0.0, 0.0, 1.6546749982864273E9, 0.0, 2022-06-08 09:56:38.286
6.0, 22744.062273986612, 38667.422672202905, -10192.596637320119, -12475.715574707458, 3942.2442248158727, 4408.702779853676, 15594.677996001006, 453.04750836461886, 0.05, 0.886, 0.51, 192.0, 0.0, 0.0, 0.0, 0.0, 0.0, 0.0, 0.0, 0.0, 0.0, 1.6546749982864313E9, 0.0, 2022-06-08 09:56:38.286
7.0, 22766.995163797757, 38686.46635847883, -10177.017471434769, -12462.081010589722, 3952.2131028429394, 4422.985544560617, 15616.180374167012, 472.96291267429746, 0.05, 0.886, 0.51, 192.0, 0.0, 0.0, 0.0, 0.0, 0.0, 0.0, 0.0, 0.0, 0.0, 1.6546749982864385E9, 0.0, 2022-06-08 09:56:38.286
8.0, 22773.119541778513, 38689.05916083565, -10178.358576102088, -12465.32201353574, 3953.487152276892, 4412.033189777517, 15625.322237649232, 436.21664478977266, 0.05, 0.886, 0.51, 192.0, 0.0, 0.0, 0.0, 0.0, 0.0, 0.0, 0.0, 0.0, 0.0, 1.6546749982864437E9, 0.0, 2022-06-08 09:56:38.286
9.0, 22766.63753588647, 38692.83660564859, -10180.25847438079, -12465.634937958115, 3948.390954541082, 4408.278096709025, 15617.365016623142, 424.2808132506387, 0.022, 0.868, 0.526, 192.0, 0.0, 176.0, 27.0, 32.0, 16.0, 112.0, 0.0, 0.0, 0.0, 1.6546749982864492E9, 0.0, 2022-06-08 09:56:38.286
10.0, 22752.26536420171, 38681.79484388767, -10192.842506509127, -12477.459010774972, 3932.3200502777163, 4403.20425071767, 15593.873333200614, 444.5314937271469, 0.022, 0.868, 0.526, 192.0, 0.0, 0.0, 0.0, 0.0, 0.0, 0.0, 0.0, 0.0, 0.0, 1.654674998286456E9, 0.0, 2022-06-08 09:56:38.286
11.0, 22764.625878885494, 38691.13787306999, -10188.05923319569, -12466.596062969693, 3938.645593958568, 4409.418035676245, 15578.718850459916, 485.03285468016327, 0.022, 0.868, 0.526, 192.0, 0.0, 0.0, 0.0, 0.0, 0.0, 0.0, 0.0, 0.0, 0.0, 1.6546749982864635E9, 0.0, 2022-06-08 09:56:38.286
12.0, 22773.99125981227, 38703.3866290315, -10181.82309649266, -12455.777818653325, 3943.7194399499226, 4409.0604077649605, 15578.294167315265, 446.9007786394094, 0.022, 0.868, 0.526, 192.0, 0.0, 0.0, 0.0, 0.0, 0.0, 0.0, 0.0, 0.0, 0.0, 1.6546749982864711E9, 0.0, 2022-06-08 09:56:38.286
13.0, 22774.304184234643, 38703.5877947316, -10181.197247647911, -12458.996469854888, 3945.105248106152, 4408.434558920212, 15603.149307149568, 424.54903418410237, 0.022, 0.868, 0.526, 192.0, 0.0, 0.0, 0.0, 0.0, 0.0, 0.0, 0.0, 0.0, 0.0, 1.6546749982864769E9, 0.0, 2022-06-08 09:56:38.286
14.0, 22769.297393476652, 38701.956117386355, -10187.16516341748, -12463.019783856844, 3940.7466579373668, 4410.021532776539, 15613.386406110098, 447.75014492871105, 0.022, 0.868, 0.526, 192.0, 0.0, 0.0, 0.0, 0.0, 0.0, 0.0, 0.0, 0.0, 0.0, 1.654674998286482E9, 0.0, 2022-06-08 09:56:38.286
15.0, 22766.23520448628, 38701.88906215299, -10196.217619921877, -12470.194693826998, 3929.9507653654537, 4408.523965898034, 15591.414641310532, 455.2379793212389, 0.022, 0.868, 0.526, 192.0, 0.0, 0.0, 0.0, 0.0, 0.0, 0.0, 0.0, 0.0, 0.0, 1.6546749982864892E9, 0.0, 2022-06-08 09:56:38.286
16.0, 22773.0748382896, 38700.905585396955, -10202.16318394699, -12474.486228762416, 3923.1558350510404, 4396.699893081176, 15557.84232113866, 424.77255162865544, 0.022, 0.868, 0.526, 192.0, 0.0, 0.0, 0.0, 0.0, 0.0, 0.0, 0.0, 0.0, 0.0, 1.654674998286497E9, 0.0, 2022-06-08 09:56:38.286
17.0, 22777.03109705819, 38699.34096328509, -10203.481936869854, -12476.60964448567, 3927.9614601089315, 4390.933143011706, 15573.421487024008, 416.8153306025661, 0.022, 0.868, 0.526, 192.0, 0.0, 0.0, 0.0, 0.0, 0.0, 0.0, 0.0, 0.0, 0.0, 1.6546749982865033E9, 0.0, 2022-06-08 09:56:38.286
18.0, 22781.926129093903, 38704.28069880971, -10193.960093731892, -12468.56301648176, 3940.4784370039033, 4399.247991949081, 15588.933597675992, 412.3002782225941, 0.022, 0.868, 0.526, 192.0, 0.0, 0.0, 0.0, 0.0, 0.0, 0.0, 0.0, 0.0, 0.0, 1.6546749982865083E9, 0.0, 2022-06-08 09:56:38.286
19.0, 22772.538396422675, 38696.09996033907, -10202.744329302828, -12473.189827584009, 3929.3025647762497, 4389.748500555575, 15580.931673160992, 420.74923762670016, 0.008, 0.878, 0.526, 192.0, 0.0, 64.0, 27.0, 112.0, 16.0, 112.0, 0.0, 0.0, 0.0, 1.6546749982865157E9, 0.0, 2022-06-08 09:56:38.286
20.0, 22761.139006750465, 38688.79093990218, -10214.50134688632, -12485.058603889776, 3913.6339919130796, 4373.208209658648, 15584.37384180711, 406.93585955332037, 0.008, 0.878, 0.526, 192.0, 0.0, 0.0, 0.0, 0.0, 0.0, 0.0, 0.0, 0.0, 0.0, 1.6546749982865207E9, 0.0, 2022-06-08 09:56:38.286
21.0, 22762.3236492066, 38685.527585211705, -10217.407073665509, -12487.271426590853, 3911.264707000817, 4374.370500370324, 15555.137760059568, 407.6064118869796, 0.008, 0.878, 0.526, 192.0, 0.0, 0.0, 0.0, 0.0, 0.0, 0.0, 0.0, 0.0, 0.0, 1.6546749982865267E9, 0.0, 2022-06-08 09:56:38.286
22.0, 22765.497596919253, 38682.3312857546, -10220.312800444699, -12488.053737646787, 3912.4493494569483, 4370.280131135003, 15534.484748182864, 384.98644649820886, 0.008, 0.878, 0.526, 192.0, 0.0, 0.0, 0.0, 0.0, 0.0, 0.0, 0.0, 0.0, 0.0, 1.6546749982865355E9, 0.0, 2022-06-08 09:56:38.286
23.0, 22780.540320937675, 38698.692762695886, -10206.275904926766, -12477.794286941802, 3921.099474561152, 4374.683424792698, 15546.420579721998, 377.1856876833067, 0.008, 0.878, 0.526, 192.0, 0.0, 0.0, 0.0, 0.0, 0.0, 0.0, 0.0, 0.0, 0.0, 1.6546749982865424E9, 0.0, 2022-06-08 09:56:38.286
24.0, 22757.629782870983, 38684.6782189224, -10224.470224913386, -12492.881714449135, 3897.7642533498115, 4366.43563108869, 15556.925899615992, 413.77549335664435, 0.008, 0.878, 0.526, 192.0, 0.0, 0.0, 0.0, 0.0, 0.0, 0.0, 0.0, 0.0, 0.0, 1.6546749982865477E9, 0.0, 2022-06-08 09:56:38.286
25.0, 22741.089491974057, 38672.72003563881, -10239.69176288745, -12501.397729086606, 3898.0324742832754, 4361.808819986441, 15559.541053717263, 421.8668248494655, 0.008, 0.878, 0.526, 192.0, 0.0, 0.0, 0.0, 0.0, 0.0, 0.0, 0.0, 0.0, 0.0, 1.654674998286553E9, 0.0, 2022-06-08 09:56:38.286
26.0, 22745.425730398387, 38682.35363749905, -10235.69080062995, -12495.42981331704, 3902.3463609631494, 4361.182971141693, 15542.464320953408, 398.30808619357185, 0.008, 0.878, 0.526, 192.0, 0.0, 0.0, 0.0, 0.0, 0.0, 0.0, 0.0, 0.0, 0.0, 1.654674998286558E9, 0.0, 2022-06-08 09:56:38.286
27.0, 22741.245954185244, 38670.84248910457, -10246.374934479587, -12509.310246623785, 3886.6330846110686, 4334.249119073048, 15494.139849441035, 346.38498382389355, 0.008, 0.878, 0.526, 192.0, 0.0, 0.0, 0.0, 0.0, 0.0, 0.0, 0.0, 0.0, 0.0, 1.6546749982865756E9, 0.0, 2022-06-08 09:56:38.286
28.0, 22747.88442228847, 38664.51694542372, -10242.351620477632, -12505.421043088561, 3893.137442247563, 4348.800104713453, 15502.946436756425, 321.8651201564217, 0.006, 0.872, 0.518, 192.0, 0.0, 48.0, 27.0, 64.0, 16.0, 48.0, 0.0, 0.0, 0.0, 1.6546749982865863E9, 0.0, 2022-06-08 09:56:38.286
29.0, 22714.87089572798, 38643.68511959137, -10264.79277191076, -12523.458900863994, 3864.5719128336805, 4334.204415584137, 15529.701474869427, 351.0564984150527, 0.006, 0.872, 0.518, 192.0, 0.0, 0.0, 0.0, 0.0, 0.0, 0.0, 0.0, 0.0, 0.0, 1.6546749982865949E9, 0.0, 2022-06-08 09:56:38.286
30.0, 22697.749459475217, 38636.398450898945, -10289.759670467338, -12542.860215051202, 3841.23669162234, 4306.3317902483695, 15512.133003727557, 381.723091807734, 0.006, 0.872, 0.518, 192.0, 0.0, 0.0, 0.0, 0.0, 0.0, 0.0, 0.0, 0.0, 0.0, 1.654674998286601E9, 0.0, 2022-06-08 09:56:38.286
31.0, 22697.123610630468, 38632.956282252824, -10290.094946634168, -12543.888395296144, 3859.833343009155, 4298.978066322573, 15489.73655578334, 359.37134735242694, 0.006, 0.872, 0.518, 192.0, 0.0, 0.0, 0.0, 0.0, 0.0, 0.0, 0.0, 0.0, 0.0, 1.6546749982866092E9, 0.0, 2022-06-08 09:56:38.286
32.0, 22692.943834417325, 38641.18172421238, -10293.805336213749, -12546.347087186228, 3845.2823573687506, 4287.064586527895, 15484.528599325253, 302.39675073584925, 0.006, 0.872, 0.518, 192.0, 0.0, 0.0, 0.0, 0.0, 0.0, 0.0, 0.0, 0.0, 0.0, 1.6546749982866185E9, 0.0, 2022-06-08 09:56:38.286
33.0, 22722.291674887143, 38652.44700341785, -10277.153286594545, -12530.790273045335, 3879.9275612744764, 4313.394941496246, 15507.64030309204, 338.15954186434055, 0.006, 0.872, 0.518, 192.0, 0.0, 0.0, 0.0, 0.0, 0.0, 0.0, 0.0, 0.0, 0.0, 1.6546749982866251E9, 0.0, 2022-06-08 09:56:38.286
34.0, 22732.34995989203, 38638.29834917765, -10271.900626647548, -12521.559002585293, 3869.176372191474, 4331.321040549403, 15490.988253472837, 402.17493798434, 0.006, 0.872, 0.518, 192.0, 0.0, 0.0, 0.0, 0.0, 0.0, 0.0, 0.0, 0.0, 0.0, 1.6546749982866359E9, 0.0, 2022-06-08 09:56:38.286
35.0, 22712.859238727004, 38638.29834917765, -10272.727641192394, -12521.827223518756, 3877.3794624065713, 4327.253023058537, 15476.839599232628, 393.56951636904677, 0.006, 0.872, 0.518, 192.0, 0.0, 0.0, 0.0, 0.0, 0.0, 0.0, 0.0, 0.0, 0.0, 1.6546749982866423E9, 0.0, 2022-06-08 09:56:38.286
36.0, 22692.02741289466, 38640.310006178624, -10275.096926104658, -12522.922458997067, 3872.1491542040294, 4308.723426905087, 15525.588753889651, 351.078850159508, 0.006, 0.872, 0.518, 192.0, 0.0, 0.0, 0.0, 0.0, 0.0, 0.0, 0.0, 0.0, 0.0, 1.6546749982866492E9, 0.0, 2022-06-08 09:56:38.286
37.0, 22702.599788022017, 38632.17397119689, -10272.213551069923, -12520.039083962332, 3864.1248779445746, 4310.064531572406, 15539.178614518478, 356.71148976224544, 0.006, 0.872, 0.518, 192.0, 0.0, 0.0, 0.0, 0.0, 0.0, 0.0, 0.0, 0.0, 0.0, 1.6546749982866552E9, 0.0, 2022-06-08 09:56:38.286
38.0, 22708.63475902495, 38638.49951487774, -10264.949234121947, -12515.456976348994, 3906.5708406652025, 4317.977049109584, 15529.746178358339, 373.3858911259045, 0.01, 0.866, 0.512, 192.0, 0.0, 80.0, 27.0, 16.0, 16.0, 0.0, 0.0, 0.0, 0.0, 1.6546749982866645E9, 0.0, 2022-06-08 09:56:38.286
39.0, 22705.483163056753, 38639.28182593368, -10270.850094658148, -12517.8039095168, 3885.806070066222, 4310.332752505869, 15509.83077404866, 350.54240829258066, 0.01, 0.866, 0.512, 192.0, 0.0, 0.0, 0.0, 0.0, 0.0, 0.0, 0.0, 0.0, 0.0, 1.6546749982866752E9, 0.0, 2022-06-08 09:56:38.286
40.0, 22707.20424737981, 38634.38679389797, -10278.829667428692, -12519.614400817682, 3870.6739390699795, 4307.203508282127, 15504.153430957012, 343.3898500668824, 0.01, 0.866, 0.512, 192.0, 0.0, 0.0, 0.0, 0.0, 0.0, 0.0, 0.0, 0.0, 0.0, 1.654674998286687E9, 0.0, 2022-06-08 09:56:38.286
41.0, 22702.175104877366, 38625.2672821602, -10290.921961179014, -12529.292706166829, 3868.0587849687086, 4298.866307600297, 15501.06889022218, 343.8368849559885, 0.01, 0.866, 0.512, 192.0, 0.0, 0.0, 0.0, 0.0, 0.0, 0.0, 0.0, 0.0, 0.0, 1.654674998286703E9, 0.0, 2022-06-08 09:56:38.286
42.0, 22732.774643036682, 38652.335244695576, -10261.641175942561, -12501.040101175322, 3899.574744650691, 4333.086828361372, 15525.87932656757, 386.7522343101781, 0.01, 0.866, 0.512, 192.0, 0.0, 0.0, 0.0, 0.0, 0.0, 0.0, 0.0, 0.0, 0.0, 1.654674998286714E9, 0.0, 2022-06-08 09:56:38.286
43.0, 22741.961210007812, 38662.17001225591, -10250.666469415006, -12489.350138825195, 3902.3687127076046, 4341.33462206538, 15542.777245375783, 411.9873538002198, 0.01, 0.866, 0.512, 192.0, 0.0, 0.0, 0.0, 0.0, 0.0, 0.0, 0.0, 0.0, 0.0, 1.6546749982867386E9, 0.0, 2022-06-08 09:56:38.286
44.0, 22723.54337257664, 38644.51213413622, -10267.452629500942, -12506.04689193331, 3889.069424756697, 4319.049932843439, 15524.64998062253, 388.1603942108625, 0.01, 0.866, 0.512, 192.0, 0.0, 0.0, 0.0, 0.0, 0.0, 0.0, 0.0, 0.0, 0.0, 1.6546749982867472E9, 0.0, 2022-06-08 09:56:38.286
45.0, 22722.761061520705, 38643.43925040236, -10275.923940649503, -12513.37826411465, 3881.693349086446, 4317.485310731568, 15500.107765210601, 351.9952716821756, 0.01, 0.866, 0.512, 192.0, 0.0, 0.0, 0.0, 0.0, 0.0, 0.0, 0.0, 0.0, 0.0, 1.654674998286771E9, 0.0, 2022-06-08 09:56:38.286
46.0, 22729.243067412743, 38646.05440450364, -10281.936559907981, -12512.372435614161, 3876.708910072912, 4325.643697457755, 15497.358500642598, 345.66972800132373, 0.01, 0.866, 0.512, 192.0, 0.0, 0.0, 0.0, 0.0, 0.0, 0.0, 0.0, 0.0, 0.0, 1.6546749982867818E9, 0.0, 2022-06-08 09:56:38.286
47.0, 22742.631762341472, 38652.26818946221, -10278.829667428692, -12503.699958765503, 3885.8284218106774, 4325.241366057559, 15512.714149083395, 350.11772514792983, 0.01, 0.866, 0.512, 192.0, 0.0, 0.0, 0.0, 0.0, 0.0, 0.0, 0.0, 0.0, 0.0, 1.6546749982867937E9, 0.0, 2022-06-08 09:56:38.286
48.0, 22747.571497866094, 38664.09226227907, -10265.396269011053, -12490.221856858952, 3900.222945239895, 4330.583432982377, 15531.176690003478, 382.594809841491, 0.01, 0.878, 0.51, 192.0, 0.0, 80.0, 27.0, 112.0, 15.0, 240.0, 0.0, 0.0, 0.0, 1.654674998286805E9, 0.0, 2022-06-08 09:56:38.286
49.0, 22742.899983274936, 38668.94259082587, -10262.199969553945, -12483.963368411467, 3896.1102242601187, 4336.618403985311, 15541.056161052724, 413.5743276565466, 0.01, 0.878, 0.51, 192.0, 0.0, 0.0, 0.0, 0.0, 0.0, 0.0, 0.0, 0.0, 0.0, 1.654674998286812E9, 0.0, 2022-06-08 09:56:38.286
50.0, 22740.17307045139, 38674.150547283956, -10261.171789309, -12478.800115442291, 3895.014988781809, 4338.3841917972795, 15545.1688820325, 382.3936441413932, 0.01, 0.878, 0.51, 192.0, 0.0, 0.0, 0.0, 0.0, 0.0, 0.0, 0.0, 0.0, 0.0, 1.6546749982868183E9, 0.0, 2022-06-08 09:56:38.286
51.0, 22743.369369908498, 38675.26813450672, -10258.489579974364, -12471.222874071942, 3902.6592853855236, 4346.43081980119, 15552.142626302557, 379.71143480675636, 0.01, 0.878, 0.51, 192.0, 0.0, 0.0, 0.0, 0.0, 0.0, 0.0, 0.0, 0.0, 0.0, 1.6546749982868245E9, 0.0, 2022-06-08 09:56:38.286
52.0, 22754.634649113974, 38686.75693115675, -10253.795713638749, -12467.646594959093, 3900.0217795397975, 4345.983784912084, 15528.02509403528, 382.5724580970357, 0.01, 0.878, 0.51, 192.0, 0.0, 0.0, 0.0, 0.0, 0.0, 0.0, 0.0, 0.0, 0.0, 1.6546749982868302E9, 0.0, 2022-06-08 09:56:38.286
53.0, 22761.474282917297, 38691.29433528118, -10246.93372809097, -12462.8409699012, 3904.0897970306632, 4340.753476709542, 15519.93376254246, 371.15071668037376, 0.01, 0.878, 0.51, 192.0, 0.0, 0.0, 0.0, 0.0, 0.0, 0.0, 0.0, 0.0, 0.0, 1.6546749982868347E9, 0.0, 2022-06-08 09:56:38.286
54.0, 22758.300335204643, 38685.7287509118, -10242.686896644462, -12462.639804201104, 3902.2122504964177, 4342.452209288145, 15548.611050678617, 424.83960686202136, 0.01, 0.878, 0.51, 192.0, 0.0, 0.0, 0.0, 0.0, 0.0, 0.0, 0.0, 0.0, 0.0, 1.6546749982868397E9, 0.0, 2022-06-08 09:56:38.286
55.0, 22734.473375615285, 38668.31674198112, -10263.853998643637, -12484.589217256214, 3886.141346233052, 4327.364781780813, 15533.83654759366, 409.5510136545913, 0.01, 0.878, 0.51, 192.0, 0.0, 0.0, 0.0, 0.0, 0.0, 0.0, 0.0, 0.0, 0.0, 1.6546749982868445E9, 0.0, 2022-06-08 09:56:38.286
56.0, 22743.436425141863, 38670.66367514893, -10264.010460854824, -12485.975025412445, 3887.549506133736, 4318.938174121163, 15529.567364402696, 381.09724296298543, 0.01, 0.878, 0.51, 192.0, 0.0, 0.0, 0.0, 0.0, 0.0, 0.0, 0.0, 0.0, 0.0, 1.654674998286851E9, 0.0, 2022-06-08 09:56:38.286
57.0, 22779.22156801481, 38692.99306785978, -10239.110617531613, -12461.23164430042, 3914.6845239024788, 4337.199549341149, 15566.715963687417, 413.2166997452617, 0.01, 0.878, 0.51, 192.0, 0.0, 0.0, 0.0, 0.0, 0.0, 0.0, 0.0, 0.0, 0.0, 1.6546749982868562E9, 0.0, 2022-06-08 09:56:38.286
58.0, 22765.430541685884, 38684.92408811142, -10242.55278617773, -12470.12763859363, 3913.812805868722, 4339.658241231232, 15570.448705011453, 421.39743821590406, 0.014, 0.88, 0.51, 192.0, 0.0, 112.0, 27.0, 128.0, 15.0, 240.0, 0.0, 0.0, 0.0, 1.6546749982868617E9, 0.0, 2022-06-08 09:56:38.286
59.0, 22743.369369908498, 38678.88911710848, -10257.662565429517, -12487.629054502137, 3895.640837626557, 4338.406543541735, 15557.46234148292, 404.0748362630411, 0.014, 0.88, 0.51, 192.0, 0.0, 0.0, 0.0, 0.0, 0.0, 0.0, 0.0, 0.0, 0.0, 1.6546749982868683E9, 0.0, 2022-06-08 09:56:38.286
60.0, 22762.278945717688, 38692.07664633711, -10260.680050930983, -12485.28212133433, 3891.6622271135125, 4332.483331261079, 15555.070704826201, 380.00200748467535, 0.014, 0.88, 0.51, 192.0, 0.0, 0.0, 0.0, 0.0, 0.0, 0.0, 0.0, 0.0, 0.0, 1.6546749982868752E9, 0.0, 2022-06-08 09:56:38.286
61.0, 22760.40139918344, 38690.10969282505, -10260.83651314217, -12478.174266597542, 3894.5008986593366, 4332.23746207207, 15552.3214402582, 398.93393503832044, 0.014, 0.88, 0.51, 192.0, 0.0, 0.0, 0.0, 0.0, 0.0, 0.0, 0.0, 0.0, 0.0, 1.654674998286883E9, 0.0, 2022-06-08 09:56:38.286
62.0, 22743.83875654206, 38679.246745019766, -10255.36033575062, -12468.98769962641, 3908.1131110326187, 4340.4405522871675, 15559.071667083701, 432.9309383548425, 0.014, 0.88, 0.51, 192.0, 0.0, 0.0, 0.0, 0.0, 0.0, 0.0, 0.0, 0.0, 0.0, 1.6546749982868931E9, 0.0, 2022-06-08 09:56:38.286
63.0, 22736.88736401646, 38668.98729431478, -10260.769457908806, -12473.994490384399, 3907.710779632423, 4334.696153962154, 15552.947289102947, 431.0533918205967, 0.014, 0.88, 0.51, 192.0, 0.0, 0.0, 0.0, 0.0, 0.0, 0.0, 0.0, 0.0, 0.0, 1.654674998286901E9, 0.0, 2022-06-08 09:56:38.286
64.0, 22730.07008195759, 38657.81142208713, -10271.364184780621, -12485.930321923533, 3894.9255818039874, 4326.314249791414, 15539.536242429764, 405.50534790818074, 0.014, 0.88, 0.51, 192.0, 0.0, 0.0, 0.0, 0.0, 0.0, 0.0, 0.0, 0.0, 0.0, 1.654674998286921E9, 0.0, 2022-06-08 09:56:38.286
65.0, 22736.0156459827, 38663.64522738996, -10273.845228415159, -12490.37831907014, 3886.7001398444345, 4317.865290387308, 15531.131986514567, 373.497649848181, 0.014, 0.88, 0.51, 192.0, 0.0, 0.0, 0.0, 0.0, 0.0, 0.0, 0.0, 0.0, 0.0, 1.6546749982869277E9, 0.0, 2022-06-08 09:56:38.286
66.0, 22731.83586976956, 38657.94553255386, -10284.328196564698, -12496.905028451089, 3875.8595437836107, 4307.136453048761, 15519.017341019791, 356.42091708432645, 0.014, 0.88, 0.51, 192.0, 0.0, 0.0, 0.0, 0.0, 0.0, 0.0, 0.0, 0.0, 0.0, 1.6546749982869372E9, 0.0, 2022-06-08 09:56:38.286
67.0, 22752.131253734977, 38675.58105892909, -10272.45942025893, -12481.459973032472, 3888.19770672294, 4326.247194558048, 15531.22139349239, 388.9203535223429, 0.014, 0.88, 0.51, 192.0, 0.0, 0.0, 0.0, 0.0, 0.0, 0.0, 0.0, 0.0, 0.0, 1.6546749982869432E9, 0.0, 2022-06-08 09:56:38.286
68.0, 22753.49471014675, 38678.88911710848, -10265.306862033232, -12475.670871218548, 3892.980980036376, 4332.259813816526, 15535.55763191672, 399.67154260534556, 0.018000000000000002, 0.896, 0.508, 192.0, 0.0, 144.0, 28.0, 0.0, 15.0, 224.0, 0.0, 0.0, 0.0, 1.6546749982869484E9, 0.0, 2022-06-08 09:56:38.286
69.0, 22738.07200647259, 38666.595657658065, -10271.31948129171, -12480.409441043073, 3880.665168841502, 4319.206395054626, 15532.45073943743, 387.0428069880971, 0.018000000000000002, 0.896, 0.508, 192.0, 0.0, 0.0, 0.0, 0.0, 0.0, 0.0, 0.0, 0.0, 0.0, 1.654674998286954E9, 0.0, 2022-06-08 09:56:38.286
70.0, 22735.658018071415, 38664.919276823915, -10276.885065661081, -12484.343348067207, 3879.5475816187363, 4321.866252644808, 15519.911410798004, 380.9631324962536, 0.018000000000000002, 0.896, 0.508, 192.0, 0.0, 0.0, 0.0, 0.0, 0.0, 0.0, 0.0, 0.0, 0.0, 1.6546749982869608E9, 0.0, 2022-06-08 09:56:38.286
71.0, 22727.11965168949, 38657.140869753464, -10288.865600689125, -12495.787441228324, 3870.1151454585965, 4303.560173935911, 15501.11359371109, 349.20130362526226, 0.018000000000000002, 0.896, 0.508, 192.0, 0.0, 0.0, 0.0, 0.0, 0.0, 0.0, 0.0, 0.0, 0.0, 1.6546749982869673E9, 0.0, 2022-06-08 09:56:38.286
72.0, 22750.07489324509, 38678.755006641746, -10268.771382423805, -12476.497885763394, 3882.4533083979263, 4313.014961840506, 15522.571268388185, 378.39268188389326, 0.018000000000000002, 0.896, 0.508, 192.0, 0.0, 0.0, 0.0, 0.0, 0.0, 0.0, 0.0, 0.0, 0.0, 1.654674998286974E9, 0.0, 2022-06-08 09:56:38.286
73.0, 22747.25857344372, 38676.251611262756, -10266.737373678372, -12472.362813039163, 3881.782756064267, 4323.028543356484, 15538.93274532947, 368.2226381567286, 0.018000000000000002, 0.896, 0.508, 192.0, 0.0, 0.0, 0.0, 0.0, 0.0, 0.0, 0.0, 0.0, 0.0, 1.6546749982869804E9, 0.0, 2022-06-08 09:56:38.286
74.0, 22734.808651782114, 38677.25743976324, -10268.190237067967, -12471.692260705502, 3882.676825842479, 4332.863310916819, 15533.434216193464, 358.5219810631253, 0.018000000000000002, 0.896, 0.508, 192.0, 0.0, 0.0, 0.0, 0.0, 0.0, 0.0, 0.0, 0.0, 0.0, 1.654674998286988E9, 0.0, 2022-06-08 09:56:38.286
75.0, 22695.894264685427, 38638.29834917765, -10298.633313016095, -12512.059511191788, 3855.519456329281, 4293.166612764194, 15508.892000781538, 332.5492540060585, 0.018000000000000002, 0.896, 0.508, 192.0, 0.0, 0.0, 0.0, 0.0, 0.0, 0.0, 0.0, 0.0, 0.0, 1.6546749982869952E9, 0.0, 2022-06-08 09:56:38.286
76.0, 22705.55021829012, 38641.427593401386, -10287.680958232995, -12506.181002400042, 3867.1423634460407, 4291.7808046079645, 15529.634419636062, 375.0399202155972, 0.018000000000000002, 0.896, 0.508, 192.0, 0.0, 0.0, 0.0, 0.0, 0.0, 0.0, 0.0, 0.0, 0.0, 1.6546749982870035E9, 0.0, 2022-06-08 09:56:38.287
77.0, 22741.335361163066, 38682.89007936598, -10258.914263119015, -12472.429868272528, 3892.131613747074, 4337.020735385506, 15560.591585706663, 437.6024529460017, 0.018000000000000002, 0.896, 0.508, 192.0, 0.0, 0.0, 0.0, 0.0, 0.0, 0.0, 0.0, 0.0, 0.0, 1.6546749982870083E9, 0.0, 2022-06-08 09:56:38.287
78.0, 22729.935971490857, 38686.3322480121, -10256.723792162395, -12467.691298448002, 3888.6000381231356, 4329.66701145971, 15562.580890963185, 389.32268492253843, 0.016, 0.908, 0.512, 192.0, 0.0, 128.0, 28.0, 96.0, 16.0, 0.0, 0.0, 0.0, 0.0, 1.654674998287014E9, 0.0, 2022-06-08 09:56:38.287
79.0, 22708.768869491683, 38673.90467809495, -10268.145533579056, -12475.827333429736, 3876.038357739253, 4317.395903753746, 15550.846225124149, 368.7143765347453, 0.016, 0.908, 0.512, 192.0, 0.0, 0.0, 0.0, 0.0, 0.0, 0.0, 0.0, 0.0, 0.0, 1.6546749982870195E9, 0.0, 2022-06-08 09:56:38.287
80.0, 22698.263549597687, 38667.26620999172, -10276.527437749797, -12483.248112588897, 3868.327005902172, 4317.99940085404, 15545.101826799135, 406.93585955332037, 0.016, 0.908, 0.512, 192.0, 0.0, 0.0, 0.0, 0.0, 0.0, 0.0, 0.0, 0.0, 0.0, 1.654674998287026E9, 0.0, 2022-06-08 09:56:38.287
81.0, 22685.992441891725, 38644.75800332522, -10285.870466932114, -12502.71648200947, 3859.743936031334, 4295.558249420911, 15521.923067798982, 398.8221763160439, 0.016, 0.908, 0.512, 192.0, 0.0, 0.0, 0.0, 0.0, 0.0, 0.0, 0.0, 0.0, 0.0, 1.6546749982870324E9, 0.0, 2022-06-08 09:56:38.287
82.0, 22689.568721004573, 38655.397433685954, -10278.069708117213, -12494.982778427933, 3872.6408925820465, 4304.677761158677, 15519.777300331272, 387.3780831549267, 0.016, 0.908, 0.512, 192.0, 0.0, 0.0, 0.0, 0.0, 0.0, 0.0, 0.0, 0.0, 0.0, 1.654674998287041E9, 0.0, 2022-06-08 09:56:38.287
83.0, 22699.895226942925, 38677.99504733027, -10267.050298100747, -12475.939092152012, 3890.00819802382, 4326.269546302503, 15526.907506812515, 373.92233299283185, 0.016, 0.908, 0.512, 192.0, 0.0, 0.0, 0.0, 0.0, 0.0, 0.0, 0.0, 0.0, 0.0, 1.6546749982870474E9, 0.0, 2022-06-08 09:56:38.287
84.0, 22693.972014662268, 38669.99312281527, -10283.143554108567, -12486.936150424022, 3867.7011570574236, 4324.146130579249, 15497.559666342697, 356.9350072067985, 0.016, 0.908, 0.512, 192.0, 0.0, 0.0, 0.0, 0.0, 0.0, 0.0, 0.0, 0.0, 0.0, 1.6546749982870572E9, 0.0, 2022-06-08 09:56:38.287
85.0, 22680.96329938928, 38667.8250036031, -10287.837420444182, -12491.85353420419, 3865.689500056446, 4323.90026139024, 15492.530523840252, 354.25279787216164, 0.016, 0.908, 0.512, 192.0, 0.0, 0.0, 0.0, 0.0, 0.0, 0.0, 0.0, 0.0, 0.0, 1.6546749982870684E9, 0.0, 2022-06-08 09:56:38.287
86.0, 22661.83020613554, 38651.1729539839, -10289.491449533874, -12500.637769775125, 3880.106375230119, 4307.739950149054, 15551.203853035433, 377.5433155945916, 0.016, 0.908, 0.512, 192.0, 0.0, 0.0, 0.0, 0.0, 0.0, 0.0, 0.0, 0.0, 0.0, 1.6546749982870839E9, 0.0, 2022-06-08 09:56:38.287
87.0, 22679.510435999684, 38664.40518670144, -10273.308786548232, -12491.875885948646, 3893.9644567924092, 4306.689418159654, 15588.419507553519, 394.6200483584462, 0.016, 0.908, 0.512, 192.0, 0.0, 0.0, 0.0, 0.0, 0.0, 0.0, 0.0, 0.0, 0.0, 1.6546749982870915E9, 0.0, 2022-06-08 09:56:38.287
88.0, 22691.803895450103, 38688.09803582407, -10256.142646806557, -12462.863321645656, 3898.613619639113, 4337.177197596693, 15573.55559749074, 409.68512412132316, 0.01, 0.9, 0.506, 192.0, 0.0, 80.0, 28.0, 32.0, 15.0, 208.0, 0.0, 0.0, 0.0, 1.654674998287101E9, 0.0, 2022-06-08 09:56:38.287
89.0, 22673.229595807745, 38670.283695493184, -10272.235902814378, -12477.101382863688, 3881.4698316418926, 4319.5416712214555, 15551.874405369093, 372.7376905367006, 0.01, 0.9, 0.506, 192.0, 0.0, 0.0, 0.0, 0.0, 0.0, 0.0, 0.0, 0.0, 0.0, 1.654674998287109E9, 0.0, 2022-06-08 09:56:38.287
90.0, 22670.837959151027, 38662.21471574482, -10280.617806985118, -12494.356929583184, 3873.6467210825354, 4297.972237822084, 15553.103751314135, 358.72314676322304, 0.01, 0.9, 0.506, 192.0, 0.0, 0.0, 0.0, 0.0, 0.0, 0.0, 0.0, 0.0, 0.0, 1.654674998287119E9, 0.0, 2022-06-08 09:56:38.287
91.0, 22664.44536023681, 38654.704529607836, -10287.837420444182, -12501.420080831062, 3867.365880890594, 4300.833261112364, 15559.921033373003, 362.9476264652761, 0.01, 0.9, 0.506, 192.0, 0.0, 0.0, 0.0, 0.0, 0.0, 0.0, 0.0, 0.0, 0.0, 1.6546749982871268E9, 0.0, 2022-06-08 09:56:38.287
92.0, 22662.411351491377, 38657.65495987594, -10286.630426243595, -12498.983740685433, 3881.4698316418926, 4305.772996636987, 15571.923920145504, 366.7474230226783, 0.01, 0.9, 0.506, 192.0, 0.0, 0.0, 0.0, 0.0, 0.0, 0.0, 0.0, 0.0, 0.0, 1.6546749982871318E9, 0.0, 2022-06-08 09:56:38.287
93.0, 22679.28691855513, 38679.22439327531, -10269.08430684618, -12485.818563201257, 3901.742863862856, 4318.848767143341, 15583.569179006718, 396.207022214773, 0.01, 0.9, 0.506, 192.0, 0.0, 0.0, 0.0, 0.0, 0.0, 0.0, 0.0, 0.0, 0.0, 1.6546749982871375E9, 0.0, 2022-06-08 09:56:38.287
94.0, 22674.928328386348, 38678.03975081918, -10273.197027825956, -12488.165496369063, 3903.709817374923, 4332.975069639096, 15584.440897040475, 419.22931900373925, 0.01, 0.9, 0.506, 192.0, 0.0, 0.0, 0.0, 0.0, 0.0, 0.0, 0.0, 0.0, 0.0, 1.654674998287149E9, 0.0, 2022-06-08 09:56:38.287
95.0, 22670.167406817367, 38651.44117491737, -10281.936559907981, -12508.863211734679, 3878.094718229141, 4316.94886886464, 15579.299995815754, 408.5675368985578, 0.01, 0.9, 0.506, 192.0, 0.0, 0.0, 0.0, 0.0, 0.0, 0.0, 0.0, 0.0, 0.0, 1.654674998287158E9, 0.0, 2022-06-08 09:56:38.287
96.0, 22667.462845738275, 38641.18172421238, -10294.364129825131, -12518.563868828282, 3866.8517907681216, 4289.858554584808, 15561.597414207152, 396.94462978179814, 0.01, 0.9, 0.506, 192.0, 0.0, 0.0, 0.0, 0.0, 0.0, 0.0, 0.0, 0.0, 0.0, 1.6546749982871644E9, 0.0, 2022-06-08 09:56:38.287
97.0, 22678.72812494375, 38667.422672202905, -10275.02987087129, -12487.964330668967, 3887.169526477996, 4311.606801939822, 15579.076478371202, 410.914470066365, 0.01, 0.9, 0.506, 192.0, 0.0, 0.0, 0.0, 0.0, 0.0, 0.0, 0.0, 0.0, 0.0, 1.6546749982871723E9, 0.0, 2022-06-08 09:56:38.287
98.0, 22679.331622044043, 38674.3293612396, -10270.961853380424, -12486.08678413472, 3889.6729218569903, 4324.660220701721, 15578.472981270908, 408.05344677608576, 0.014, 0.88, 0.504, 192.0, 0.0, 112.0, 27.0, 128.0, 15.0, 192.0, 0.0, 0.0, 0.0, 1.6546749982871795E9, 0.0, 2022-06-08 09:56:38.287
99.0, 22670.43562775083, 38670.909544337934, -10278.539094750775, -12495.273351105852, 3891.6398753690573, 4319.765188666009, 15551.248556524344, 387.89217327739874, 0.014, 0.88, 0.504, 192.0, 0.0, 0.0, 0.0, 0.0, 0.0, 0.0, 0.0, 0.0, 0.0, 1.65467499876536E9, 0.0, 2022-06-08 09:56:38.765
100.0, 22672.424933007354, 38667.154451269445, -10276.706251705438, -12496.457993561984, 3879.2570089408173, 4315.227784541582, 15535.669390638996, 372.04478645858603, 0.014, 0.88, 0.504, 192.0, 0.0, 0.0, 0.0, 0.0, 0.0, 0.0, 0.0, 0.0, 0.0, 1.6546749987654505E9, 0.0, 2022-06-08 09:56:38.765
101.0, 22679.10810459949, 38656.2244482308, -10296.331083337198, -12520.016732217877, 3864.750726789323, 4300.699150645632, 15534.328285971676, 356.24210312868394, 0.014, 0.88, 0.504, 192.0, 0.0, 0.0, 0.0, 0.0, 0.0, 0.0, 0.0, 0.0, 0.0, 1.6546749987655172E9, 0.0, 2022-06-08 09:56:38.765
102.0, 22687.713526214782, 38668.98729431478, -10292.330121079698, -12508.863211734679, 3879.681692085468, 4326.269546302503, 15553.550786203241, 389.70266457827864, 0.014, 0.88, 0.504, 192.0, 0.0, 0.0, 0.0, 0.0, 0.0, 0.0, 0.0, 0.0, 0.0, 1.654674998765522E9, 0.0, 2022-06-08 09:56:38.765
103.0, 22682.058534867592, 38668.13792802548, -10281.333062807687, -12508.90791522359, 3877.6700350844903, 4318.155863065227, 15544.207757020922, 379.95730399576473, 0.014, 0.88, 0.504, 192.0, 0.0, 0.0, 0.0, 0.0, 0.0, 0.0, 0.0, 0.0, 0.0, 1.654674998765528E9, 0.0, 2022-06-08 09:56:38.765
104.0, 22690.82041869407, 38672.4294629609, -10272.191199325467, -12499.296665107808, 3873.870238527088, 4320.927479377685, 15534.194175504945, 372.04478645858603, 0.014, 0.88, 0.504, 192.0, 0.0, 0.0, 0.0, 0.0, 0.0, 0.0, 0.0, 0.0, 0.0, 1.6546749987655354E9, 0.0, 2022-06-08 09:56:38.765
105.0, 22685.143075602424, 38667.8250036031, -10278.494391261864, -12511.254848391396, 3871.0762704701747, 4311.785615895465, 15533.367160960099, 370.8601440024548, 0.014, 0.88, 0.504, 192.0, 0.0, 0.0, 0.0, 0.0, 0.0, 0.0, 0.0, 0.0, 0.0, 1.654674998765541E9, 0.0, 2022-06-08 09:56:38.765
106.0, 22675.129494086446, 38651.39647142845, -10297.001635670858, -12528.219822432975, 3859.945101731432, 4296.362912221302, 15517.273904952277, 344.9768239232092, 0.014, 0.88, 0.504, 192.0, 0.0, 0.0, 0.0, 0.0, 0.0, 0.0, 0.0, 0.0, 0.0, 1.6546749987655451E9, 0.0, 2022-06-08 09:56:38.765
107.0, 22693.592035006528, 38665.50042217975, -10287.971530910914, -12509.064377434777, 3864.773078533778, 4305.303610003425, 15512.960018272403, 343.0545739000528, 0.014, 0.88, 0.504, 192.0, 0.0, 0.0, 0.0, 0.0, 0.0, 0.0, 0.0, 0.0, 0.0, 1.654674998765565E9, 0.0, 2022-06-08 09:56:38.765
108.0, 22694.73197397375, 38667.154451269445, -10271.274777802799, -12508.19265940102, 3873.512610615803, 4313.350238007336, 15545.034771565768, 366.8815334894101, 0.014, 0.88, 0.504, 192.0, 0.0, 0.0, 27.0, 208.0, 16.0, 0.0, 0.0, 0.0, 0.0, 1.654674998765569E9, 0.0, 2022-06-08 09:56:38.765
109.0, 22680.33745054453, 38657.140869753464, -10288.485621033386, -12522.453072363505, 3864.5719128336805, 4301.727330890576, 15539.916222085503, 369.3178736350386, 0.014, 0.88, 0.504, 192.0, 0.0, 0.0, 0.0, 0.0, 0.0, 0.0, 0.0, 0.0, 0.0, 1.6546749987655733E9, 0.0, 2022-06-08 09:56:38.765
110.0, 22696.609520507995, 38668.2273350033, -10270.246597557854, -12513.870002492667, 3880.7322240748676, 4307.337618748858, 15552.679068169484, 388.74153956670045, 0.014, 0.88, 0.504, 192.0, 0.0, 0.0, 0.0, 0.0, 0.0, 0.0, 0.0, 0.0, 0.0, 1.6546749987655773E9, 0.0, 2022-06-08 09:56:38.765
111.0, 22708.88062821396, 38668.339093725575, -10270.648928958051, -12520.19554617352, 3878.2288286958733, 4309.371627494291, 15586.407850552541, 395.7152838367562, 0.014, 0.88, 0.504, 192.0, 0.0, 0.0, 0.0, 0.0, 0.0, 0.0, 0.0, 0.0, 0.0, 1.6546749987655811E9, 0.0, 2022-06-08 09:56:38.765
112.0, 22724.25862839921, 38679.60437293105, -10253.683954916472, -12498.939037196522, 3890.678750357479, 4325.8225114133975, 15585.603187752151, 438.7423919132223, 0.014, 0.88, 0.504, 192.0, 0.0, 0.0, 0.0, 0.0, 0.0, 0.0, 0.0, 0.0, 0.0, 1.6546749987655852E9, 0.0, 2022-06-08 09:56:38.765
113.0, 22711.473430570775, 38665.813346602125, -10264.233978299377, -12500.99539768641, 3886.0519392552305, 4307.9187641046965, 15551.98616409137, 415.09424627950744, 0.014, 0.88, 0.504, 192.0, 0.0, 0.0, 0.0, 0.0, 0.0, 0.0, 0.0, 0.0, 0.0, 1.6546749987655892E9, 0.0, 2022-06-08 09:56:38.765
114.0, 22710.73582300375, 38670.17193677091, -10268.212588812423, -12507.52210706736, 3889.6058666236245, 4311.8526711288305, 15550.622707679595, 394.7094553362674, 0.014, 0.88, 0.504, 192.0, 0.0, 0.0, 0.0, 0.0, 0.0, 0.0, 0.0, 0.0, 0.0, 1.6546749987655933E9, 0.0, 2022-06-08 09:56:38.765
115.0, 22712.34514860453, 38674.46347170633, -10271.811219669726, -12516.328694382752, 3885.1131659881075, 4302.733159391065, 15555.830664137682, 367.4179753563375, 0.014, 0.88, 0.504, 192.0, 0.0, 0.0, 0.0, 0.0, 0.0, 0.0, 0.0, 0.0, 0.0, 1.654674998765597E9, 0.0, 2022-06-08 09:56:38.765
116.0, 22715.87672422847, 38674.418768217416, -10282.025966885802, -12518.407406617094, 3882.7438810758454, 4298.195755266637, 15551.539129202263, 371.6424550583905, 0.014, 0.88, 0.504, 192.0, 0.0, 0.0, 0.0, 0.0, 0.0, 0.0, 0.0, 0.0, 0.0, 1.6546749987656012E9, 0.0, 2022-06-08 09:56:38.765
117.0, 22727.901962745425, 38680.856070620546, -10278.919074406514, -12506.80685124479, 3885.269628199295, 4301.503813446023, 15551.293260013255, 412.07676077804103, -0.008, 0.872, 0.508, 192.0, 255.0, 192.0, 27.0, 64.0, 15.0, 224.0, 0.0, 0.0, 0.0, 1.6546749987656054E9, 0.0, 2022-06-08 09:56:38.765
118.0, 22731.098262202533, 38684.342942755575, -10266.2232835559, -12499.877810463646, 3896.4455004269485, 4303.671932658188, 15555.718905415406, 416.1447782689069, -0.008, 0.872, 0.508, 192.0, 0.0, 0.0, 0.0, 0.0, 0.0, 0.0, 0.0, 0.0, 0.0, 1.6546749987656095E9, 0.0, 2022-06-08 09:56:38.765
119.0, 22722.738709776248, 38679.04557931967, -10271.632405714085, -12505.33163611074, 3902.838099341166, 4299.179232022671, 15556.545919960252, 390.32851342302723, -0.008, 0.872, 0.508, 192.0, 0.0, 0.0, 0.0, 0.0, 0.0, 0.0, 0.0, 0.0, 0.0, 1.6546749987656136E9, 0.0, 2022-06-08 09:56:38.765
120.0, 22722.805765009616, 38677.011570574236, -10283.501182019852, -12518.832089761745, 3885.716663088401, 4289.970313307084, 15534.93178307197, 363.7522892656671, -0.008, 0.872, 0.508, 192.0, 0.0, 0.0, 0.0, 0.0, 0.0, 0.0, 0.0, 0.0, 0.0, 1.6546749987656176E9, 0.0, 2022-06-08 09:56:38.765
121.0, 22717.664863784896, 38666.93093382489, -10303.2824758628, -12532.265488179386, 3852.300805127717, 4272.714766587587, 15504.68987282394, 361.7406322646895, -0.008, 0.872, 0.508, 192.0, 0.0, 0.0, 0.0, 0.0, 0.0, 0.0, 0.0, 0.0, 0.0, 1.654674998765622E9, 0.0, 2022-06-08 09:56:38.765
122.0, 22743.995218753247, 38689.34973351356, -10284.954045409448, -12505.66691227757, 3872.238561181851, 4294.619476153788, 15541.950230830937, 422.40326671639286, -0.008, 0.872, 0.508, 192.0, 0.0, 0.0, 0.0, 0.0, 0.0, 0.0, 0.0, 0.0, 0.0, 1.654674998765626E9, 0.0, 2022-06-08 09:56:38.765
123.0, 22754.992277025256, 38706.20294883286, -10263.988109110369, -12488.076089391243, 3938.1762073250065, 4307.09174955985, 15551.784998391271, 405.0806647635299, -0.008, 0.872, 0.508, 192.0, 0.0, 0.0, 0.0, 0.0, 0.0, 0.0, 0.0, 0.0, 0.0, 1.65467499876563E9, 0.0, 2022-06-08 09:56:38.765
124.0, 22737.580268094574, 38687.203966045854, -10274.001690626346, -12505.37633959965, 3926.039210085775, 4288.919781317685, 15528.382721946566, 369.563742824047, -0.008, 0.872, 0.508, 192.0, 0.0, 0.0, 0.0, 0.0, 0.0, 0.0, 0.0, 0.0, 0.0, 1.6546749987656343E9, 0.0, 2022-06-08 09:56:38.765
125.0, 22728.2148871678, 38675.402244973455, -10283.568237253217, -12512.148918169609, 3899.619448139602, 4297.435795955157, 15535.088245283157, 378.1691644393402, -0.008, 0.872, 0.508, 192.0, 0.0, 0.0, 0.0, 0.0, 0.0, 0.0, 0.0, 0.0, 0.0, 1.654674998765638E9, 0.0, 2022-06-08 09:56:38.765
126.0, 22724.392738865943, 38673.61410541703, -10286.026929143301, -12507.544458811815, 3902.5698784077026, 4299.670970400688, 15567.006536365336, 403.0019525291863, -0.008, 0.872, 0.508, 192.0, 0.0, 0.0, 0.0, 0.0, 0.0, 0.0, 0.0, 0.0, 0.0, 1.6546749987656424E9, 0.0, 2022-06-08 09:56:38.765
127.0, 22737.0661779721, 38688.09803582407, -10274.336966793177, -12495.027481916844, 3905.6320673980795, 4307.605839682322, 15567.431219509986, 443.9056448823983, -0.016, 0.876, 0.514, 192.0, 255.0, 128.0, 27.0, 96.0, 16.0, 16.0, 0.0, 0.0, 0.0, 1.6546749987656465E9, 0.0, 2022-06-08 09:56:38.765
128.0, 22744.419901897898, 38693.305992282156, -10264.725716677394, -12491.697071993003, 3914.9974483248534, 4316.345371764347, 15554.601318192641, 431.1427987984179, -0.016, 0.876, 0.514, 192.0, 0.0, 0.0, 0.0, 0.0, 0.0, 0.0, 0.0, 0.0, 0.0, 1.6546749987656555E9, 0.0, 2022-06-08 09:56:38.765
129.0, 22729.89126800195, 38683.49357646627, -10272.74999293685, -12503.096461665209, 3906.3473232206493, 4296.094691287839, 15537.12225402859, 371.79891726957766, -0.016, 0.876, 0.514, 192.0, 0.0, 0.0, 0.0, 0.0, 0.0, 0.0, 0.0, 0.0, 0.0, 1.6546749987656598E9, 0.0, 2022-06-08 09:56:38.765
130.0, 22727.901962745425, 38677.905640352445, -10287.435089043985, -12514.898182737612, 3892.8021660807335, 4283.287141714948, 15527.198079490434, 366.4792020892146, -0.016, 0.876, 0.514, 192.0, 0.0, 0.0, 0.0, 0.0, 0.0, 0.0, 0.0, 0.0, 0.0, 1.6546749987656639E9, 0.0, 2022-06-08 09:56:38.765
131.0, 22716.748442262226, 38668.27203849221, -10302.74603399587, -12520.709636295991, 3884.8002415657334, 4274.279388699459, 15512.088300238645, 381.0078359851642, -0.016, 0.876, 0.514, 192.0, 0.0, 0.0, 0.0, 0.0, 0.0, 0.0, 0.0, 0.0, 0.0, 1.654674998765668E9, 0.0, 2022-06-08 09:56:38.765
132.0, 22725.845602255537, 38677.54801244116, -10287.233923343889, -12500.257790119385, 3911.4211692120043, 4286.885772572252, 15540.36325697461, 380.00200748467535, -0.016, 0.876, 0.514, 192.0, 0.0, 0.0, 0.0, 0.0, 0.0, 0.0, 0.0, 0.0, 0.0, 1.654674998765672E9, 0.0, 2022-06-08 09:56:38.765
133.0, 22746.565669365606, 38695.36235277204, -10273.107620848134, -12488.970159169456, 3925.3686577521157, 4311.763264151009, 15568.727620688394, 406.55587989758016, -0.016, 0.876, 0.514, 192.0, 0.0, 0.0, 0.0, 0.0, 0.0, 0.0, 0.0, 0.0, 0.0, 1.6546749987656763E9, 0.0, 2022-06-08 09:56:38.765
134.0, 22741.335361163066, 38690.66848643643, -10273.1746760815, -12491.495906292905, 3914.237489013373, 4308.052874571428, 15553.371972247598, 399.91741179435394, -0.016, 0.876, 0.514, 192.0, 0.0, 0.0, 0.0, 0.0, 0.0, 0.0, 0.0, 0.0, 0.0, 1.6546749987656803E9, 0.0, 2022-06-08 09:56:38.765
135.0, 22722.49284058724, 38670.775433871204, -10292.911266435536, -12508.796156501312, 3895.7749480932894, 4283.376548692769, 15552.41084723602, 368.6473213013794, -0.016, 0.876, 0.514, 192.0, 0.0, 0.0, 0.0, 0.0, 0.0, 0.0, 0.0, 0.0, 0.0, 1.6546749987656844E9, 0.0, 2022-06-08 09:56:38.765
136.0, 22724.526849332673, 38672.116538538525, -10302.0307781733, -12513.847650748212, 3891.729282346879, 4283.42125218168, 15527.399245190532, 367.1497544228738, -0.016, 0.876, 0.514, 192.0, 0.0, 0.0, 0.0, 0.0, 0.0, 0.0, 0.0, 0.0, 0.0, 1.6546749987656884E9, 0.0, 2022-06-08 09:56:38.765
137.0, 22726.940837733848, 38677.771529885715, -10292.844211202171, -12510.249019890907, 3900.4464626844483, 4289.165650506693, 15539.2680214963, 409.1710339988511, -0.012, 0.874, 0.512, 192.0, 255.0, 160.0, 27.0, 80.0, 16.0, 0.0, 0.0, 0.0, 0.0, 1.6546749987656925E9, 0.0, 2022-06-08 09:56:38.765
138.0, 22730.852393013527, 38681.88425086549, -10295.794641470271, -12503.610551787682, 3900.804090595733, 4293.725406375576, 15555.718905415406, 439.45764773579214, -0.012, 0.874, 0.512, 192.0, 0.0, 0.0, 0.0, 0.0, 0.0, 0.0, 0.0, 0.0, 0.0, 1.6546749987656965E9, 0.0, 2022-06-08 09:56:38.765
139.0, 22736.194459938342, 38689.95323061386, -10299.99676942787, -12500.481307563938, 3901.6311051405796, 4299.179232022671, 15536.161129017011, 431.65688892088997, -0.012, 0.874, 0.512, 192.0, 0.0, 0.0, 0.0, 0.0, 0.0, 0.0, 0.0, 0.0, 0.0, 1.6546749987657008E9, 0.0, 2022-06-08 09:56:38.765
140.0, 22733.55695409262, 38685.70639916735, -10294.98997866988, -12499.497830807904, 3898.3901021945603, 4298.262810500003, 15536.049370294735, 432.70742091028944, -0.012, 0.874, 0.512, 192.0, 0.0, 0.0, 0.0, 0.0, 0.0, 0.0, 0.0, 0.0, 0.0, 1.6546749987657049E9, 0.0, 2022-06-08 09:56:38.765
141.0, 22719.140078918947, 38670.41780595992, -10308.378673598609, -12510.472537335461, 3892.8021660807335, 4281.968388792085, 15555.674201926495, 416.0553712910857, -0.012, 0.874, 0.512, 192.0, 0.0, 0.0, 0.0, 0.0, 0.0, 0.0, 0.0, 0.0, 0.0, 1.6546749987657087E9, 0.0, 2022-06-08 09:56:38.765
142.0, 22728.2148871678, 38672.45181470535, -10308.244563131877, -12509.869040235168, 3902.3463609631494, 4279.755566091009, 15573.376783535097, 394.0165512581529, -0.012, 0.874, 0.512, 192.0, 0.0, 0.0, 0.0, 0.0, 0.0, 0.0, 0.0, 0.0, 0.0, 1.6546749987657127E9, 0.0, 2022-06-08 09:56:38.765
143.0, 22753.82998631358, 38698.89392839598, -10277.019176127813, -12479.314205564762, 3931.6271461996016, 4307.695246660143, 15597.85194371366, 427.45476096329224, -0.012, 0.874, 0.512, 192.0, 0.0, 0.0, 0.0, 0.0, 0.0, 0.0, 0.0, 0.0, 0.0, 1.6546749987657168E9, 0.0, 2022-06-08 09:56:38.765
144.0, 22739.70368381783, 38691.674314936914, -10284.84228668717, -12480.856475932178, 3913.812805868722, 4295.580601165367, 15571.879216656593, 428.95232784179785, -0.012, 0.874, 0.512, 192.0, 0.0, 0.0, 0.0, 0.0, 0.0, 0.0, 0.0, 0.0, 0.0, 1.6546749987657208E9, 0.0, 2022-06-08 09:56:38.765
145.0, 22722.425785353877, 38679.06793106412, -10302.500164806863, -12503.47644132095, 3897.0266457827865, 4280.2696562134815, 15539.513890685308, 396.98933327070876, -0.012, 0.874, 0.512, 192.0, 0.0, 0.0, 0.0, 0.0, 0.0, 0.0, 0.0, 0.0, 0.0, 1.6546749987657251E9, 0.0, 2022-06-08 09:56:38.765
146.0, 22723.968055721292, 38672.49651819426, -10310.591496299685, -12510.628999546649, 3898.255991727828, 4273.966464277085, 15533.925954571481, 381.09724296298543, -0.012, 0.874, 0.512, 192.0, 0.0, 0.0, 0.0, 0.0, 0.0, 0.0, 0.0, 0.0, 0.0, 1.6546749987657297E9, 0.0, 2022-06-08 09:56:38.765
147.0, 22729.578343579575, 38675.98339032929, -10305.070615419223, -12502.582371542738, 3898.3453987056496, 4275.620493366778, 15544.319515743198, 399.00099027168636, -0.014, 0.888, 0.516, 192.0, 255.0, 144.0, 27.0, 192.0, 16.0, 32.0, 0.0, 0.0, 0.0, 1.6546749987657337E9, 0.0, 2022-06-08 09:56:38.765
148.0, 22736.730901805273, 38682.867727621524, -10289.491449533874, -12491.987644670922, 3913.3210674907054, 4290.886734829752, 15554.713076914917, 402.46551066225896, -0.014, 0.888, 0.516, 192.0, 0.0, 0.0, 0.0, 0.0, 0.0, 0.0, 0.0, 0.0, 0.0, 1.654674998765738E9, 0.0, 2022-06-08 09:56:38.765
149.0, 22734.16045119291, 38681.213698531836, -10288.37386231111, -12491.205333614986, 3913.254012257339, 4293.390130208746, 15558.289356027766, 408.94751655429803, -0.014, 0.888, 0.516, 192.0, 0.0, 0.0, 0.0, 0.0, 0.0, 0.0, 0.0, 0.0, 0.0, 1.6546749987657423E9, 0.0, 2022-06-08 09:56:38.765
150.0, 22725.711491788807, 38672.83179436109, -10302.678978762506, -12502.917647709566, 3894.657360870524, 4281.074319013872, 15534.998838305335, 411.38385669992647, -0.014, 0.888, 0.516, 192.0, 0.0, 0.0, 0.0, 0.0, 0.0, 0.0, 0.0, 0.0, 0.0, 1.6546749987657485E9, 0.0, 2022-06-08 09:56:38.765
151.0, 22727.11965168949, 38672.16124202743, -10302.500164806863, -12502.694130265014, 3894.9255818039874, 4276.581618378355, 15533.45656793792, 372.7600422811559, -0.014, 0.888, 0.516, 192.0, 0.0, 0.0, 0.0, 0.0, 0.0, 0.0, 0.0, 0.0, 0.0, 1.6546749987657523E9, 0.0, 2022-06-08 09:56:38.765
152.0, 22741.02243674069, 38688.0309805907, -10288.932655922492, -12491.674720248548, 3910.303581989239, 4284.449432426623, 15542.64313490905, 341.8475796994662, -0.014, 0.888, 0.516, 192.0, 0.0, 0.0, 0.0, 0.0, 0.0, 0.0, 0.0, 0.0, 0.0, 1.6546749987657564E9, 0.0, 2022-06-08 09:56:38.765
153.0, 22735.725073304784, 38686.55576545665, -10291.32429257921, -12496.32388309525, 3913.4328262129816, 4287.578676650367, 15544.923012843492, 397.34696118199366, -0.014, 0.888, 0.516, 192.0, 0.0, 0.0, 0.0, 0.0, 0.0, 0.0, 0.0, 0.0, 0.0, 1.6546749987657604E9, 0.0, 2022-06-08 09:56:38.765
