%OpenBCI Raw EEG Data
%Number of channels = 8
%Sample Rate = 250 Hz
%Board = OpenBCI_GUI$BoardCytonSerial
Sample Index, EXG Channel 0, EXG Channel 1, EXG Channel 2, EXG Channel 3, EXG Channel 4, EXG Channel 5, EXG Channel 6, EXG Channel 7, Accel Channel 0, Accel Channel 1, Accel Channel 2, Other, Other, Other, Other, Other, Other, Other, Analog Channel 0, Analog Channel 1, Analog Channel 2, Timestamp, Other, Timestamp (Formatted)
0.0, 0.0, 0.0, 0.0, 0.0, 0.0, 0.0, 0.0, 0.0, -0.01, 0.918, 0.47000000000000003, 192.0, 255.0, 176.0, 28.0, 176.0, 14.0, 176.0, 0.0, 0.0, 0.0, 1.65415562567952E9, 0.0, 2022-06-02 09:40:25.679
1.0, 25659.199137592215, -4880.592808794118, -61561.77807590701, -38670.574268171105, -12584.881494627178, -36907.803941703314, -7989.876924738518, -28176.854929549092, -0.01, 0.918, 0.47000000000000003, 192.0, 0.0, 0.0, 0.0, 0.0, 0.0, 0.0, 0.0, 0.0, 0.0, 1.654155626173509E9, 0.0, 2022-06-02 09:40:26.173
2.0, 25654.214698578682, -4891.031073454747, -61569.19885506617, -38677.12332929651, -12593.44221275356, -36923.49486631094, -7994.906067240962, -28206.135714785545, -0.01, 0.918, 0.47000000000000003, 192.0, 0.0, 0.0, 0.0, 0.0, 0.0, 0.0, 0.0, 0.0, 0.0, 1.6541556261735773E9, 0.0, 2022-06-02 09:40:26.173
3.0, 25641.83183215044, -4903.503346860808, -61576.351413291864, -38692.255460292756, -12610.049558883853, -36937.241189150955, -8013.6815325834195, -28206.44863920792, -0.01, 0.918, 0.47000000000000003, 192.0, 0.0, 0.0, 0.0, 0.0, 0.0, 0.0, 0.0, 0.0, 0.0, 1.6541556261736932E9, 0.0, 2022-06-02 09:40:26.173
4.0, 25642.83766065093, -4893.199192666912, -61567.56717772093, -38684.09707356657, -12608.35082630525, -36926.40059309013, -8019.87296579754, -28189.461313421885, -0.01, 0.918, 0.47000000000000003, 192.0, 0.0, 0.0, 0.0, 0.0, 0.0, 0.0, 0.0, 0.0, 0.0, 1.6541556261736994E9, 0.0, 2022-06-02 09:40:26.173
5.0, 25639.149622815803, -4894.115614189579, -61564.10265733036, -38681.03488457619, -12604.752195447945, -36922.0643546658, -8015.983762262316, -28191.16004600049, -0.01, 0.918, 0.47000000000000003, 192.0, 0.0, 0.0, 0.0, 0.0, 0.0, 0.0, 0.0, 0.0, 0.0, 1.654155626173705E9, 0.0, 2022-06-02 09:40:26.173
6.0, 25635.305122769492, -4896.6637130574845, -61563.007421852046, -38679.716131653324, -12599.96892213451, -36916.968156929994, -8007.266581924747, -28179.0006970168, -0.01, 0.918, 0.47000000000000003, 192.0, 0.0, 0.0, 0.0, 0.0, 0.0, 0.0, 0.0, 0.0, 0.0, 1.6541556261737108E9, 0.0, 2022-06-02 09:40:26.173
7.0, 25643.664675195778, -4890.405224609998, -61553.485578714084, -38673.63645716148, -12582.512209714916, -36910.64261324914, -7995.755433530264, -28188.0531535212, -0.01, 0.918, 0.47000000000000003, 192.0, 0.0, 0.0, 0.0, 0.0, 0.0, 0.0, 0.0, 0.0, 0.0, 1.6541556261737163E9, 0.0, 2022-06-02 09:40:26.173
8.0, 25642.45768099519, -4898.653018314007, -61566.44959049817, -38687.5839457016, -12592.458735997527, -36925.10419191172, -7997.163593430948, -28206.24747350782, -0.014, 0.922, 0.464, 192.0, 255.0, 144.0, 28.0, 208.0, 14.0, 128.0, 0.0, 0.0, 0.0, 1.654155626173722E9, 0.0, 2022-06-02 09:40:26.173
9.0, 25645.676332196756, -4896.797823524216, -61565.5331689755, -38682.867727621524, -12600.818288423812, -36921.080877909764, -8014.106215728071, -28193.66344137948, -0.014, 0.922, 0.464, 192.0, 0.0, 0.0, 0.0, 0.0, 0.0, 0.0, 0.0, 0.0, 0.0, 1.6541556261737275E9, 0.0, 2022-06-02 09:40:26.173
10.0, 25650.59371597692, -4886.605428052596, -61554.93844210368, -38667.98146581429, -12590.983520863478, -36904.85351143521, -8000.829279521618, -28166.48372012183, -0.014, 0.922, 0.464, 192.0, 0.0, 0.0, 0.0, 0.0, 0.0, 0.0, 0.0, 0.0, 0.0, 1.6541556261737328E9, 0.0, 2022-06-02 09:40:26.173
11.0, 25641.563611216978, -4891.746329277316, -61558.42531423871, -38671.334227482585, -12592.123459830698, -36908.586252759254, -7992.559134073154, -28173.9492027699, -0.014, 0.922, 0.464, 192.0, 0.0, 0.0, 0.0, 0.0, 0.0, 0.0, 0.0, 0.0, 0.0, 1.6541556261737385E9, 0.0, 2022-06-02 09:40:26.173
12.0, 25642.390625761826, -4897.267210157777, -61564.52734047501, -38675.60341067355, -12591.072927841298, -36911.58138651626, -7994.0790526961155, -28197.19501700342, -0.014, 0.922, 0.464, 192.0, 0.0, 0.0, 0.0, 0.0, 0.0, 0.0, 0.0, 0.0, 0.0, 1.6541556261737437E9, 0.0, 2022-06-02 09:40:26.173
13.0, 25643.150585073305, -4903.950381749914, -61578.72069820413, -38687.29337302368, -12599.387776778673, -36925.841799478745, -8007.043064480194, -28211.142505543532, -0.014, 0.922, 0.464, 192.0, 0.0, 0.0, 0.0, 0.0, 0.0, 0.0, 0.0, 0.0, 0.0, 1.6541556261737492E9, 0.0, 2022-06-02 09:40:26.173
14.0, 25650.66077121029, -4893.400358367009, -61569.19885506617, -38675.69281765137, -12595.275055798897, -36916.43171506307, -8008.294762169691, -28195.362173958085, -0.014, 0.922, 0.464, 192.0, 0.0, 0.0, 0.0, 0.0, 0.0, 0.0, 0.0, 0.0, 0.0, 1.6541556261737547E9, 0.0, 2022-06-02 09:40:26.173
15.0, 25654.013532878584, -4884.102032673602, -61557.95592760515, -38671.758910627235, -12584.63562543817, -36905.501712024416, -7997.3647591310455, -28154.592592071607, -0.014, 0.922, 0.464, 192.0, 0.0, 0.0, 0.0, 0.0, 0.0, 0.0, 0.0, 0.0, 0.0, 1.6541556261737602E9, 0.0, 2022-06-02 09:40:26.173
16.0, 25668.050428396517, -4867.561741776674, -61548.9258228452, -38656.738538353275, -12572.006889820921, -36893.141197340636, -7994.727253285319, -28147.931772223925, -0.014, 0.922, 0.464, 192.0, 0.0, 0.0, 0.0, 0.0, 0.0, 0.0, 0.0, 0.0, 0.0, 1.654155626173766E9, 0.0, 2022-06-02 09:40:26.173
17.0, 25669.726809230666, -4872.143849390012, -61556.70422991565, -38650.25653246123, -12572.856256110223, -36898.21504333199, -7998.482346353811, -28168.540080611718, -0.014, 0.916, 0.464, 192.0, 255.0, 144.0, 28.0, 160.0, 14.0, 128.0, 0.0, 0.0, 0.0, 1.6541556261737716E9, 0.0, 2022-06-02 09:40:26.173
18.0, 25657.07572186896, -4889.689968787428, -61577.62546272582, -38676.251611262756, -12594.336282531773, -36921.2149883765, -8023.315134443657, -28204.59344441813, -0.014, 0.916, 0.464, 192.0, 0.0, 0.0, 0.0, 0.0, 0.0, 0.0, 0.0, 0.0, 0.0, 1.654155626173777E9, 0.0, 2022-06-02 09:40:26.173
19.0, 25658.997971892117, -4884.772585007261, -61572.90924464575, -38669.00964605923, -12590.8717621412, -36920.320918598285, -8005.836070279607, -28215.992834090335, -0.014, 0.916, 0.464, 192.0, 0.0, 0.0, 0.0, 0.0, 0.0, 0.0, 0.0, 0.0, 0.0, 1.6541556261737826E9, 0.0, 2022-06-02 09:40:26.173
20.0, 25658.93091665875, -4892.215715910878, -61571.4340295117, -38675.379893229, -12594.895076143155, -36924.232473877964, -7995.710730041353, -28191.517673911774, -0.014, 0.916, 0.464, 192.0, 0.0, 0.0, 0.0, 0.0, 0.0, 0.0, 0.0, 0.0, 0.0, 1.654155626173788E9, 0.0, 2022-06-02 09:40:26.173
21.0, 25654.79584393452, -4895.568477579174, -61568.394192265776, -38676.18455602939, -12595.744442432457, -36922.08670641026, -8000.158727187959, -28170.462330634873, -0.014, 0.916, 0.464, 192.0, 0.0, 0.0, 0.0, 0.0, 0.0, 0.0, 0.0, 0.0, 0.0, 1.6541556261737936E9, 0.0, 2022-06-02 09:40:26.173
22.0, 25655.98048639065, -4890.2711141432665, -61567.343660276376, -38670.41780595992, -12588.994215606954, -36917.8622267082, -8001.745701044286, -28191.450618678406, -0.014, 0.916, 0.464, 192.0, 0.0, 0.0, 0.0, 0.0, 0.0, 0.0, 0.0, 0.0, 0.0, 1.6541556261738074E9, 0.0, 2022-06-02 09:40:26.173
23.0, 25661.56842250448, -4891.3887013660315, -61571.0316981115, -38672.250649005255, -12591.676424941592, -36923.29370061084, -8003.131509200515, -28182.375810429552, -0.014, 0.916, 0.464, 192.0, 0.0, 0.0, 0.0, 0.0, 0.0, 0.0, 0.0, 0.0, 0.0, 1.6541556261738129E9, 0.0, 2022-06-02 09:40:26.173
24.0, 25667.06695164048, -4878.6482070265065, -61558.604128194354, -38660.94066631087, -12590.335320274273, -36912.430752805565, -8002.572715589133, -28195.876264080558, -0.014, 0.916, 0.464, 192.0, 0.0, 0.0, 0.0, 0.0, 0.0, 0.0, 0.0, 0.0, 0.0, 1.6541556261738193E9, 0.0, 2022-06-02 09:40:26.173
25.0, 25671.85022495392, -4870.7803929782385, -61545.21543326562, -38650.34593943905, -12578.667709668603, -36901.54545325583, -7986.680625281409, -28178.397199916508, -0.014, 0.916, 0.464, 192.0, 0.0, 0.0, 0.0, 0.0, 0.0, 0.0, 0.0, 0.0, 0.0, 1.6541556261738248E9, 0.0, 2022-06-02 09:40:26.173
26.0, 25661.79193994903, -4881.352768105598, -61550.46809321262, -38659.040768032166, -12584.881494627178, -36908.96623241499, -7988.334654371101, -28187.159083742987, -0.014, 0.916, 0.464, 192.0, 0.0, 0.0, 0.0, 0.0, 0.0, 0.0, 0.0, 0.0, 0.0, 1.6541556261738303E9, 0.0, 2022-06-02 09:40:26.173
27.0, 25656.42752127976, -4891.321646132666, -61557.71005841614, -38668.38379721449, -12592.592846464258, -36917.90693019711, -8009.233535436814, -28188.880168066047, -0.016, 0.916, 0.466, 192.0, 255.0, 128.0, 28.0, 160.0, 14.0, 144.0, 0.0, 0.0, 0.0, 1.6541556261738355E9, 0.0, 2022-06-02 09:40:26.173
28.0, 25655.086416612437, -4897.200154924411, -61565.242596297576, -38675.02226531771, -12600.25949481243, -36922.08670641026, -8015.939058773406, -28189.506016910796, -0.016, 0.916, 0.466, 192.0, 0.0, 0.0, 0.0, 0.0, 0.0, 0.0, 0.0, 0.0, 0.0, 1.6541556261738405E9, 0.0, 2022-06-02 09:40:26.173
29.0, 25655.868727668374, -4889.5111548317855, -61559.028811339005, -38668.58496291458, -12602.628779724691, -36915.18001737357, -8018.196584963392, -28207.745040386326, -0.016, 0.916, 0.466, 192.0, 0.0, 0.0, 0.0, 0.0, 0.0, 0.0, 0.0, 0.0, 0.0, 1.6541556261738455E9, 0.0, 2022-06-02 09:40:26.173
30.0, 25660.89787017082, -4877.307102359188, -61547.495311200066, -38656.17974474189, -12591.855238897233, -36903.55711025681, -8000.494003354789, -28195.183360002444, -0.016, 0.916, 0.466, 192.0, 0.0, 0.0, 0.0, 0.0, 0.0, 0.0, 0.0, 0.0, 0.0, 1.6541556261738508E9, 0.0, 2022-06-02 09:40:26.173
31.0, 25654.46056776769, -4882.224486139356, -61551.049238568456, -38662.41588144492, -12587.29548302835, -36904.384124801654, -7990.167497416437, -28174.507996381286, -0.016, 0.916, 0.466, 192.0, 0.0, 0.0, 0.0, 0.0, 0.0, 0.0, 0.0, 0.0, 0.0, 1.654155626173856E9, 0.0, 2022-06-02 09:40:26.173
32.0, 25657.321591057967, -4883.275018128756, -61554.066724069926, -38670.775433871204, -12586.602578950236, -36907.28985158084, -8006.148994701982, -28189.57307214416, -0.016, 0.916, 0.466, 192.0, 0.0, 0.0, 0.0, 0.0, 0.0, 0.0, 0.0, 0.0, 0.0, 1.6541556261738613E9, 0.0, 2022-06-02 09:40:26.173
33.0, 25642.703550184197, -4903.995085238825, -61573.89272140178, -38687.65100093496, -12605.310989059328, -36930.02157569189, -8014.195622705892, -28203.16293277299, -0.016, 0.916, 0.466, 192.0, 0.0, 0.0, 0.0, 0.0, 0.0, 0.0, 0.0, 0.0, 0.0, 1.6541556261738665E9, 0.0, 2022-06-02 09:40:26.173
34.0, 25645.51986998557, -4901.5363933487415, -61570.15998007775, -38679.91729735342, -12610.809518195334, -36931.87677048168, -8018.196584963392, -28214.607025934107, -0.016, 0.916, 0.466, 192.0, 0.0, 0.0, 0.0, 0.0, 0.0, 0.0, 0.0, 0.0, 0.0, 1.6541556261738715E9, 0.0, 2022-06-02 09:40:26.173
35.0, 25659.154434103304, -4881.777451250249, -61552.25623276905, -38656.89500056446, -12592.950474375544, -36903.91473816809, -7999.935209743406, -28167.444845133406, -0.016, 0.916, 0.466, 192.0, 0.0, 0.0, 0.0, 0.0, 0.0, 0.0, 0.0, 0.0, 0.0, 1.6541556261738765E9, 0.0, 2022-06-02 09:40:26.173
36.0, 25660.584945748444, -4875.2507418693, -61538.97929656259, -38647.864895804516, -12581.036994580865, -36894.817578174785, -7989.161668915948, -28162.214536930864, -0.016, 0.916, 0.466, 192.0, 0.0, 0.0, 0.0, 0.0, 0.0, 0.0, 0.0, 0.0, 0.0, 1.654155626173882E9, 0.0, 2022-06-02 09:40:26.173
37.0, 25659.06502712548, -4878.2011721374, -61543.27083149801, -38656.13504125298, -12583.29452077085, -36904.20531084601, -7999.510526598755, -28174.083313236635, -0.02, 0.912, 0.462, 192.0, 255.0, 96.0, 28.0, 128.0, 14.0, 112.0, 0.0, 0.0, 0.0, 1.6541556261738873E9, 0.0, 2022-06-02 09:40:26.173
38.0, 25653.767663689574, -4890.718149032373, -61559.52054971702, -38676.67629440741, -12596.63851221067, -36922.60079653273, -8014.933230272917, -28198.223197248364, -0.02, 0.912, 0.462, 192.0, 0.0, 0.0, 0.0, 0.0, 0.0, 0.0, 0.0, 0.0, 0.0, 1.6541556261738925E9, 0.0, 2022-06-02 09:40:26.173
39.0, 25652.292448555523, -4888.706492031395, -61558.91705261673, -38679.35850374204, -12600.304198301339, -36922.86901746619, -8010.664047081954, -28201.86653159458, -0.02, 0.912, 0.462, 192.0, 0.0, 0.0, 0.0, 0.0, 0.0, 0.0, 0.0, 0.0, 0.0, 1.6541556261738975E9, 0.0, 2022-06-02 09:40:26.173
40.0, 25652.22539332216, -4879.184648893434, -61550.80336937945, -38665.79099485767, -12592.123459830698, -36914.55416852882, -8003.019750478238, -28185.706220353393, -0.02, 0.912, 0.462, 192.0, 0.0, 0.0, 0.0, 0.0, 0.0, 0.0, 0.0, 0.0, 0.0, 1.6541556261739028E9, 0.0, 2022-06-02 09:40:26.173
41.0, 25654.952306145708, -4876.502439558797, -61546.93651758868, -38657.006759286734, -12585.172067305097, -36903.266537578886, -8003.399730133979, -28163.890917765013, -0.02, 0.912, 0.462, 192.0, 0.0, 0.0, 0.0, 0.0, 0.0, 0.0, 0.0, 0.0, 0.0, 1.654155626173908E9, 0.0, 2022-06-02 09:40:26.173
42.0, 25653.052407867006, -4884.504364073797, -61554.15613104775, -38666.93093382489, -12587.966035362011, -36906.552244013816, -7998.549401587177, -28181.660554606984, -0.02, 0.912, 0.462, 192.0, 0.0, 0.0, 0.0, 0.0, 0.0, 0.0, 0.0, 0.0, 0.0, 1.654155626173914E9, 0.0, 2022-06-02 09:40:26.173
43.0, 25647.97856187565, -4898.764777036283, -61568.64006145478, -38680.632553175994, -12598.247837811452, -36923.29370061084, -8007.1101197135595, -28207.856799108602, -0.02, 0.912, 0.462, 192.0, 0.0, 0.0, 0.0, 0.0, 0.0, 0.0, 0.0, 0.0, 0.0, 1.6541556261739223E9, 0.0, 2022-06-02 09:40:26.173
44.0, 25656.092245112926, -4887.879477486548, -61561.263985784535, -38671.66950364942, -12595.63268371018, -36916.901101696625, -8004.539669101199, -28199.63135714905, -0.02, 0.912, 0.462, 192.0, 0.0, 0.0, 0.0, 0.0, 0.0, 0.0, 0.0, 0.0, 0.0, 1.6541556261739275E9, 0.0, 2022-06-02 09:40:26.173
45.0, 25655.17582359026, -4879.4081663379875, -61551.18334903519, -38661.38770119997, -12587.183724306075, -36904.20531084601, -7992.000340461772, -28157.498318850794, -0.02, 0.912, 0.462, 192.0, 0.0, 0.0, 0.0, 0.0, 0.0, 0.0, 0.0, 0.0, 0.0, 1.6541556261739328E9, 0.0, 2022-06-02 09:40:26.173
46.0, 25653.722960200663, -4874.133154646534, -61542.06383729742, -38650.01066327222, -12578.24302652395, -36892.090665351236, -7990.748642772275, -28153.58676357112, -0.02, 0.912, 0.462, 192.0, 0.0, 0.0, 0.0, 0.0, 0.0, 0.0, 0.0, 0.0, 0.0, 1.654155626173938E9, 0.0, 2022-06-02 09:40:26.173
47.0, 25650.996047377117, -4881.419823338964, -61552.79267463597, -38661.56651515562, -12585.082660327276, -36902.081895122756, -7995.040177707694, -28176.698467337905, -0.02, 0.918, 0.464, 192.0, 255.0, 96.0, 28.0, 176.0, 14.0, 128.0, 0.0, 0.0, 0.0, 1.6541556261739435E9, 0.0, 2022-06-02 09:40:26.173
48.0, 25653.834718922943, -4890.606390310096, -61562.56038696294, -38670.06017804863, -12594.291579042861, -36911.58138651626, -8001.946866744383, -28170.842310290613, -0.02, 0.918, 0.464, 192.0, 0.0, 0.0, 0.0, 0.0, 0.0, 0.0, 0.0, 0.0, 0.0, 1.6541556261739502E9, 0.0, 2022-06-02 09:40:26.173
49.0, 25656.136948601838, -4888.34886412011, -61556.19013979318, -38662.9746750563, -12588.144849317652, -36903.601813745714, -8002.0586254666605, -28194.892787324523, -0.02, 0.918, 0.464, 192.0, 0.0, 0.0, 0.0, 0.0, 0.0, 0.0, 0.0, 0.0, 0.0, 1.6541556261739564E9, 0.0, 2022-06-02 09:40:26.173
50.0, 25653.812367178485, -4886.739538519328, -61555.07255257041, -38667.40032045845, -12586.691985928057, -36901.590156744736, -8005.321980157135, -28161.00754273028, -0.02, 0.918, 0.464, 192.0, 0.0, 0.0, 0.0, 0.0, 0.0, 0.0, 0.0, 0.0, 0.0, 1.6541556261739624E9, 0.0, 2022-06-02 09:40:26.173
51.0, 25654.72878870115, -4884.213791395878, -61546.310668743936, -38653.78810808517, -12579.315910257807, -36897.27627006487, -7985.518334569733, -28169.0988742231, -0.02, 0.918, 0.464, 192.0, 0.0, 0.0, 0.0, 0.0, 0.0, 0.0, 0.0, 0.0, 0.0, 1.6541556261739676E9, 0.0, 2022-06-02 09:40:26.173
52.0, 25649.878460154352, -4889.220582153867, -61542.98025882009, -38654.48101216328, -12583.138058559663, -36903.758275956905, -7986.546514814677, -28186.935566298434, -0.02, 0.918, 0.464, 192.0, 0.0, 0.0, 0.0, 0.0, 0.0, 0.0, 0.0, 0.0, 0.0, 1.6541556261739748E9, 0.0, 2022-06-02 09:40:26.173
53.0, 25652.113634599882, -4892.774509522261, -61545.729523388094, -38663.39935820095, -12590.335320274273, -36912.47545629447, -8015.827300051129, -28199.743115871326, -0.02, 0.918, 0.464, 192.0, 0.0, 0.0, 0.0, 0.0, 0.0, 0.0, 0.0, 0.0, 0.0, 1.65415562617398E9, 0.0, 2022-06-02 09:40:26.173
54.0, 25654.12529160086, -4894.137965934035, -61549.9763548346, -38667.66854139192, -12595.006834865431, -36915.9623284295, -8015.648486095487, -28194.19988324641, -0.02, 0.918, 0.464, 192.0, 0.0, 0.0, 0.0, 0.0, 0.0, 0.0, 0.0, 0.0, 0.0, 1.6541556261739855E9, 0.0, 2022-06-02 09:40:26.173
55.0, 25658.997971892117, -4888.594733309118, -61546.86946235532, -38661.94649481136, -12591.385852263673, -36904.47353177948, -7996.1354131860035, -28174.843272548114, -0.02, 0.918, 0.464, 192.0, 0.0, 0.0, 0.0, 0.0, 0.0, 0.0, 0.0, 0.0, 0.0, 1.654155626173992E9, 0.0, 2022-06-02 09:40:26.173
56.0, 25660.160262603793, -4878.983483193336, -61536.297087227955, -38649.965959783316, -12582.020471336898, -36894.14702584112, -7977.091726910082, -28170.328220168143, -0.02, 0.918, 0.464, 192.0, 0.0, 0.0, 0.0, 0.0, 0.0, 0.0, 0.0, 0.0, 0.0, 1.6541556261739976E9, 0.0, 2022-06-02 09:40:26.173
57.0, 25660.45083528171, -4879.676387271451, -61537.3252674729, -38647.77548882669, -12578.623006179692, -36892.291831051334, -7978.276369366214, -28163.712103809372, -0.018000000000000002, 0.924, 0.46, 192.0, 255.0, 112.0, 28.0, 224.0, 14.0, 96.0, 0.0, 0.0, 0.0, 1.6541556261740036E9, 0.0, 2022-06-02 09:40:26.174
58.0, 25659.109730614393, -4886.471317585864, -61550.8257211239, -38658.59373314306, -12588.167201062108, -36900.8078456888, -7995.755433530264, -28191.405915189498, -0.018000000000000002, 0.924, 0.46, 192.0, 0.0, 0.0, 0.0, 0.0, 0.0, 0.0, 0.0, 0.0, 0.0, 1.6541556261740088E9, 0.0, 2022-06-02 09:40:26.174
59.0, 25658.483881769644, -4886.8065937526935, -61554.62551768131, -38663.019378545214, -12597.040843610865, -36904.89821492413, -7995.82248876363, -28176.474949893352, -0.018000000000000002, 0.924, 0.46, 192.0, 0.0, 0.0, 0.0, 0.0, 0.0, 0.0, 0.0, 0.0, 0.0, 1.654155626174014E9, 0.0, 2022-06-02 09:40:26.174
60.0, 25663.669486483275, -4876.167163391968, -61548.16586353372, -38652.06702376211, -12587.898980128644, -36892.02361011787, -7991.687416039398, -28168.785949800727, -0.018000000000000002, 0.924, 0.46, 192.0, 0.0, 0.0, 0.0, 0.0, 0.0, 0.0, 0.0, 0.0, 0.0, 1.6541556261740196E9, 0.0, 2022-06-02 09:40:26.174
61.0, 25670.442065053234, -4866.086526642624, -61542.42146520871, -38641.53935212366, -12577.8183433793, -36880.691275679026, -7991.642712550487, -28164.22619393184, -0.018000000000000002, 0.924, 0.46, 192.0, 0.0, 0.0, 0.0, 0.0, 0.0, 0.0, 0.0, 0.0, 0.0, 1.6541556261740255E9, 0.0, 2022-06-02 09:40:26.174
62.0, 25675.784131978053, -4866.86883769856, -61546.1765582772, -38644.154506224935, -12572.096296798742, -36880.17718555655, -7981.785593245697, -28168.58478410063, -0.018000000000000002, 0.924, 0.46, 192.0, 0.0, 0.0, 0.0, 0.0, 0.0, 0.0, 0.0, 0.0, 0.0, 1.654155626174031E9, 0.0, 2022-06-02 09:40:26.174
63.0, 25665.41292255079, -4887.074814686157, -61570.070573099925, -38669.099053037055, -12590.201209807541, -36901.76897070038, -7989.3181311271355, -28169.99294400131, -0.018000000000000002, 0.924, 0.46, 192.0, 0.0, 0.0, 0.0, 0.0, 0.0, 0.0, 0.0, 0.0, 0.0, 1.6541556261740372E9, 0.0, 2022-06-02 09:40:26.174
64.0, 25669.816216208485, -4883.498535573308, -61568.595357965874, -38658.88430582098, -12593.218695309008, -36898.304450309806, -7991.463898594845, -28160.13582469652, -0.018000000000000002, 0.924, 0.46, 192.0, 0.0, 0.0, 0.0, 0.0, 0.0, 0.0, 0.0, 0.0, 0.0, 1.6541556261740463E9, 0.0, 2022-06-02 09:40:26.174
65.0, 25672.45372205421, -4876.971826192359, -61561.30868927344, -38643.97569226929, -12585.44028823856, -36887.68737169354, -7988.781689260208, -28169.00946724528, -0.018000000000000002, 0.924, 0.46, 192.0, 0.0, 0.0, 0.0, 0.0, 0.0, 0.0, 0.0, 0.0, 0.0, 1.6541556261740513E9, 0.0, 2022-06-02 09:40:26.174
66.0, 25681.349716347424, -4873.194381379411, -61560.79459915097, -38640.77939281218, -12575.806686378322, -36882.18884255753, -7972.509619296744, -28173.926851025448, -0.018000000000000002, 0.924, 0.46, 192.0, 0.0, 0.0, 0.0, 0.0, 0.0, 0.0, 0.0, 0.0, 0.0, 1.6541556261740572E9, 0.0, 2022-06-02 09:40:26.174
67.0, 25684.344850104437, -4874.021395924258, -61560.2805090285, -38648.64720686045, -12571.895131098645, -36885.787473414835, -7974.677738508909, -28176.251432448797, -0.016, 0.916, 0.458, 192.0, 255.0, 128.0, 28.0, 160.0, 14.0, 80.0, 0.0, 0.0, 0.0, 1.6541556261740625E9, 0.0, 2022-06-02 09:40:26.174
68.0, 25672.6101842654, -4888.415919353476, -61578.13955284829, -38668.048521047655, -12580.500552713938, -36898.796188687826, -7984.1548781579595, -28160.33699039662, -0.016, 0.916, 0.458, 192.0, 0.0, 0.0, 0.0, 0.0, 0.0, 0.0, 0.0, 0.0, 0.0, 1.654155626174068E9, 0.0, 2022-06-02 09:40:26.174
69.0, 25667.22341385167, -4890.964018221381, -61578.47482901512, -38661.70062562235, -12585.619102194203, -36901.47839802246, -7993.967293973839, -28174.77621731475, -0.016, 0.916, 0.458, 192.0, 0.0, 0.0, 0.0, 0.0, 0.0, 0.0, 0.0, 0.0, 0.0, 1.6541556261740737E9, 0.0, 2022-06-02 09:40:26.174
70.0, 25666.93284117375, -4884.549067562708, -61565.89079688678, -38651.99996852875, -12581.238160280964, -36890.190767072534, -7991.441546850389, -28187.47200816536, -0.016, 0.916, 0.458, 192.0, 0.0, 0.0, 0.0, 0.0, 0.0, 0.0, 0.0, 0.0, 0.0, 1.654155626174079E9, 0.0, 2022-06-02 09:40:26.174
71.0, 25665.725846973164, -4887.7453670198165, -61567.053087598455, -38656.71618660881, -12577.594825934748, -36888.40262751611, -7993.028520706716, -28182.800493574203, -0.016, 0.916, 0.458, 192.0, 0.0, 0.0, 0.0, 0.0, 0.0, 0.0, 0.0, 0.0, 0.0, 1.654155626174085E9, 0.0, 2022-06-02 09:40:26.174
72.0, 25664.340038816936, -4897.088396202135, -61579.52536100452, -38668.763776870226, -12580.925235858589, -36897.49978750942, -7991.061567194649, -28172.161063213476, -0.016, 0.916, 0.458, 192.0, 0.0, 0.0, 0.0, 0.0, 0.0, 0.0, 0.0, 0.0, 0.0, 1.6541556261740909E9, 0.0, 2022-06-02 09:40:26.174
73.0, 25666.575213262466, -4903.056311971702, -61590.00832915406, -38677.83858511908, -12587.004910350432, -36911.42492430507, -7991.642712550487, -28177.05609524919, -0.016, 0.916, 0.458, 192.0, 0.0, 0.0, 0.0, 0.0, 0.0, 0.0, 0.0, 0.0, 0.0, 1.6541556261740968E9, 0.0, 2022-06-02 09:40:26.174
74.0, 25673.4595505547, -4894.9649804788805, -61581.84994242787, -38667.55678266964, -12590.06709934081, -36906.17226435808, -8005.321980157135, -28171.982249257835, -0.016, 0.916, 0.458, 192.0, 0.0, 0.0, 0.0, 0.0, 0.0, 0.0, 0.0, 0.0, 0.0, 1.6541556261741028E9, 0.0, 2022-06-02 09:40:26.174
75.0, 25679.136893646348, -4882.559762306186, -61567.52247423202, -38653.40812842943, -12579.96411084701, -36891.42011301757, -7992.894410239985, -28176.58670861563, -0.016, 0.916, 0.458, 192.0, 0.0, 0.0, 0.0, 0.0, 0.0, 0.0, 0.0, 0.0, 0.0, 1.6541556261741097E9, 0.0, 2022-06-02 09:40:26.174
76.0, 25674.13010288836, -4881.978616950348, -61567.14249457628, -38654.83864007457, -12575.471410211494, -36888.223813560464, -7981.942055456884, -28186.019144775768, -0.016, 0.916, 0.458, 192.0, 0.0, 0.0, 0.0, 0.0, 0.0, 0.0, 0.0, 0.0, 0.0, 1.6541556261741152E9, 0.0, 2022-06-02 09:40:26.174
77.0, 25672.431370309758, -4888.035939697736, -61573.222169068125, -38665.65688439094, -12574.95732008902, -36895.17520608607, -7988.312302626647, -28179.760656328282, -0.016, 0.916, 0.454, 192.0, 255.0, 128.0, 28.0, 160.0, 14.0, 48.0, 0.0, 0.0, 0.0, 1.654155626174121E9, 0.0, 2022-06-02 09:40:26.174
78.0, 25676.097056400427, -4894.115614189579, -61579.41360228224, -38667.26620999172, -12578.757116646424, -36902.17130210058, -7987.6193985485315, -28171.356400413086, -0.016, 0.916, 0.454, 192.0, 0.0, 0.0, 0.0, 0.0, 0.0, 0.0, 0.0, 0.0, 0.0, 1.6541556261741269E9, 0.0, 2022-06-02 09:40:26.174
79.0, 25667.46928304068, -4898.653018314007, -61583.079288372915, -38673.70351239485, -12585.35088126074, -36909.72619172647, -7987.999378204272, -28194.177531501955, -0.016, 0.916, 0.454, 192.0, 0.0, 0.0, 0.0, 0.0, 0.0, 0.0, 0.0, 0.0, 0.0, 1.6541556261741335E9, 0.0, 2022-06-02 09:40:26.174
80.0, 25654.3041055565, -4903.212774182889, -61588.4884105311, -38683.8288526331, -12594.179820320585, -36914.35300282872, -8004.24909642328, -28203.58761591764, -0.016, 0.916, 0.454, 192.0, 0.0, 0.0, 0.0, 0.0, 0.0, 0.0, 0.0, 0.0, 0.0, 1.6541556261741397E9, 0.0, 2022-06-02 09:40:26.174
81.0, 25655.555803246, -4900.687027059439, -61583.59337849539, -38679.15733804194, -12591.162334819119, -36910.12852312667, -8010.373474404035, -28198.469066437374, -0.016, 0.916, 0.454, 192.0, 0.0, 0.0, 0.0, 0.0, 0.0, 0.0, 0.0, 0.0, 0.0, 1.6541556261741452E9, 0.0, 2022-06-02 09:40:26.174
82.0, 25663.445969038723, -4897.669541557973, -61581.3358523054, -38673.859974606035, -12587.29548302835, -36905.501712024416, -7992.134450928504, -28178.598365616606, -0.016, 0.916, 0.454, 192.0, 0.0, 0.0, 0.0, 0.0, 0.0, 0.0, 0.0, 0.0, 0.0, 1.654155626174151E9, 0.0, 2022-06-02 09:40:26.174
83.0, 25667.670448740777, -4899.301218903211, -61584.44274478469, -38677.88328860799, -12586.915503372611, -36906.32872656926, -7984.57956130261, -28183.4039906745, -0.016, 0.916, 0.454, 192.0, 0.0, 0.0, 0.0, 0.0, 0.0, 0.0, 0.0, 0.0, 0.0, 1.654155626174157E9, 0.0, 2022-06-02 09:40:26.174
84.0, 25666.016419651085, -4895.412015367987, -61581.7828871945, -38675.64811416246, -12591.54231447486, -36907.803941703314, -7997.945904486884, -28166.640182333016, -0.016, 0.916, 0.454, 192.0, 0.0, 0.0, 0.0, 0.0, 0.0, 0.0, 0.0, 0.0, 0.0, 1.6541556261741626E9, 0.0, 2022-06-02 09:40:26.174
85.0, 25667.60339350741, -4886.851297241605, -61572.21634056763, -38662.70645412284, -12582.109878314719, -36895.66694446409, -7988.602875304566, -28174.060961492178, -0.016, 0.916, 0.454, 192.0, 0.0, 0.0, 0.0, 0.0, 0.0, 0.0, 0.0, 0.0, 0.0, 1.6541556261741693E9, 0.0, 2022-06-02 09:40:26.174
86.0, 25655.466396268177, -4895.948457234915, -61576.32906154741, -38670.015474559725, -12589.217733051508, -36901.813674189296, -7997.387110875501, -28180.34180168412, -0.016, 0.916, 0.454, 192.0, 0.0, 0.0, 0.0, 0.0, 0.0, 0.0, 0.0, 0.0, 0.0, 1.654155626174178E9, 0.0, 2022-06-02 09:40:26.174
87.0, 25659.08737886994, -4900.39645438152, -61576.66433771424, -38666.93093382489, -12587.11666907271, -36904.92056666858, -7994.324921885124, -28167.847176533603, -0.014, 0.922, 0.462, 192.0, 255.0, 144.0, 28.0, 208.0, 14.0, 112.0, 0.0, 0.0, 0.0, 1.654155626174183E9, 0.0, 2022-06-02 09:40:26.174
88.0, 25659.46735852568, -4909.895945775026, -61590.99180591009, -38679.93964909788, -12596.526753488393, -36915.78351447386, -8011.289895926702, -28197.642051892526, -0.014, 0.922, 0.462, 192.0, 0.0, 0.0, 0.0, 0.0, 0.0, 0.0, 0.0, 0.0, 0.0, 1.654155626174188E9, 0.0, 2022-06-02 09:40:26.174
89.0, 25659.109730614393, -4910.477091130864, -61597.876143202324, -38688.52271896872, -12603.388739036172, -36919.80682847581, -8028.768960090752, -28223.078337082665, -0.014, 0.922, 0.462, 192.0, 0.0, 0.0, 0.0, 0.0, 0.0, 0.0, 0.0, 0.0, 0.0, 1.6541556261741931E9, 0.0, 2022-06-02 09:40:26.174
90.0, 25663.714189972186, -4897.82600376916, -61583.81689593994, -38675.1787275289, -12586.736689416968, -36899.19852008802, -7994.682549796409, -28161.588688086118, -0.014, 0.922, 0.462, 192.0, 0.0, 0.0, 0.0, 0.0, 0.0, 0.0, 0.0, 0.0, 0.0, 1.6541556261741984E9, 0.0, 2022-06-02 09:40:26.174
91.0, 25674.443027310735, -4884.4596605848865, -61567.678936443204, -38658.52667790969, -12569.369383975194, -36885.49690073692, -7970.989700673784, -28151.262182147766, -0.014, 0.922, 0.462, 192.0, 0.0, 0.0, 0.0, 0.0, 0.0, 0.0, 0.0, 0.0, 0.0, 1.654155626174204E9, 0.0, 2022-06-02 09:40:26.174
92.0, 25661.99310564913, -4898.474204358364, -61580.821762182924, -38662.63939888947, -12579.15944804662, -36895.35402004171, -7981.539724056688, -28180.76648482877, -0.014, 0.922, 0.462, 192.0, 0.0, 0.0, 0.0, 0.0, 0.0, 0.0, 0.0, 0.0, 0.0, 1.6541556261742096E9, 0.0, 2022-06-02 09:40:26.174
93.0, 25644.670503696267, -4921.988239525347, -61600.893628703794, -38685.79580614517, -12597.800802922346, -36915.93997668505, -8004.20439293437, -28179.023048761257, -0.014, 0.922, 0.462, 192.0, 0.0, 0.0, 0.0, 0.0, 0.0, 0.0, 0.0, 0.0, 0.0, 1.6541556261742153E9, 0.0, 2022-06-02 09:40:26.174
94.0, 25659.355599803403, -4907.101977718113, -61587.057898885956, -38676.028093818204, -12588.949512118044, -36904.89821492413, -7995.554267830166, -28171.937545768924, -0.014, 0.922, 0.462, 192.0, 0.0, 0.0, 0.0, 0.0, 0.0, 0.0, 0.0, 0.0, 0.0, 1.6541556261742203E9, 0.0, 2022-06-02 09:40:26.174
95.0, 25670.330306330958, -4896.641361313029, -61580.397079038274, -38663.89109657897, -12578.265378268406, -36891.91185139559, -7984.780727002708, -28179.313621439174, -0.014, 0.922, 0.462, 192.0, 0.0, 0.0, 0.0, 0.0, 0.0, 0.0, 0.0, 0.0, 0.0, 1.6541556261742291E9, 0.0, 2022-06-02 09:40:26.174
96.0, 25669.056256897005, -4896.39549212402, -61581.3358523054, -38663.68993087887, -12573.169180532597, -36888.29086879383, -7991.173325916926, -28165.2990776657, -0.016, 0.916, 0.46, 192.0, 255.0, 128.0, 28.0, 160.0, 14.0, 96.0, 0.0, 0.0, 0.0, 1.6541556261742363E9, 0.0, 2022-06-02 09:40:26.174
97.0, 25662.909527171796, -4904.620934083573, -61593.629311755816, -38674.418768217416, -12577.170142790097, -36898.57267124327, -7990.2569043942585, -28172.071656235657, -0.016, 0.916, 0.46, 192.0, 0.0, 0.0, 0.0, 0.0, 0.0, 0.0, 0.0, 0.0, 0.0, 1.6541556261742415E9, 0.0, 2022-06-02 09:40:26.174
98.0, 25653.566497989475, -4920.0883412466455, -61612.04714918699, -38692.881309137505, -12591.162334819119, -36916.275252851876, -7984.400747346967, -28190.78006634475, -0.016, 0.916, 0.46, 192.0, 0.0, 0.0, 0.0, 0.0, 0.0, 0.0, 0.0, 0.0, 0.0, 1.6541556261742468E9, 0.0, 2022-06-02 09:40:26.174
99.0, 25655.198175334714, -4919.551899379719, -61608.940256707705, -38692.30016378166, -12599.387776778673, -36918.59983427523, -8005.769015046241, -28190.78006634475, -0.016, 0.916, 0.46, 192.0, 0.0, 0.0, 0.0, 0.0, 0.0, 0.0, 0.0, 0.0, 0.0, 1.6541556261742525E9, 0.0, 2022-06-02 09:40:26.174
100.0, 25664.675314983764, -4903.257477671799, -61588.71192797565, -38671.11071003803, -12588.927160373589, -36901.29958406682, -8003.623247578532, -28184.789798830727, -0.016, 0.916, 0.46, 192.0, 0.0, 0.0, 0.0, 0.0, 0.0, 0.0, 0.0, 0.0, 0.0, 1.6541556261742575E9, 0.0, 2022-06-02 09:40:26.174
101.0, 25675.65002151132, -4886.292503630221, -61570.405849266754, -38659.71132036583, -12571.693965398546, -36880.51246172339, -7973.917779197429, -28163.04155147571, -0.016, 0.916, 0.46, 192.0, 0.0, 0.0, 0.0, 0.0, 0.0, 0.0, 0.0, 0.0, 0.0, 1.6541556261742625E9, 0.0, 2022-06-02 09:40:26.174
102.0, 25675.60531802241, -4888.080643186646, -61572.931596390205, -38663.868744834515, -12565.793104862345, -36881.98767685743, -7961.221988346814, -28153.43030135993, -0.016, 0.916, 0.46, 192.0, 0.0, 0.0, 0.0, 0.0, 0.0, 0.0, 0.0, 0.0, 0.0, 1.654155626174268E9, 0.0, 2022-06-02 09:40:26.174
103.0, 25661.903698671307, -4910.857070786604, -61596.915018190746, -38683.69474216637, -12586.312006272317, -36908.89917718162, -7993.028520706716, -28193.283461723742, -0.016, 0.916, 0.46, 192.0, 0.0, 0.0, 0.0, 0.0, 0.0, 0.0, 0.0, 0.0, 0.0, 1.6541556261742728E9, 0.0, 2022-06-02 09:40:26.174
104.0, 25667.379876062856, -4908.308971918699, -61593.22698035562, -38675.55870718464, -12588.323663273295, -36906.73105796946, -8004.159689445459, -28192.81407509018, -0.016, 0.916, 0.46, 192.0, 0.0, 0.0, 0.0, 0.0, 0.0, 0.0, 0.0, 0.0, 0.0, 1.654155626174278E9, 0.0, 2022-06-02 09:40:26.174
105.0, 25679.315707601992, -4893.959151978392, -61575.47969525811, -38658.683140120884, -12574.06325031081, -36886.81565365978, -7985.473631080822, -28143.439071588407, -0.016, 0.916, 0.46, 192.0, 0.0, 0.0, 0.0, 0.0, 0.0, 0.0, 0.0, 0.0, 0.0, 1.6541556261742842E9, 0.0, 2022-06-02 09:40:26.174
106.0, 25670.442065053234, -4894.517945589775, -61576.083192358405, -38664.82986984609, -12575.20318927803, -36888.42497926056, -7984.467802580333, -28168.227156189343, -0.014, 0.916, 0.458, 192.0, 255.0, 144.0, 28.0, 160.0, 14.0, 80.0, 0.0, 0.0, 0.0, 1.65415562617429E9, 0.0, 2022-06-02 09:40:26.174
107.0, 25686.89294897234, -4884.079680929146, -61571.05404985596, -38657.54320115366, -12564.139075772653, -36881.25006929041, -7970.34150008458, -28175.916156281968, -0.014, 0.916, 0.458, 192.0, 0.0, 0.0, 0.0, 0.0, 0.0, 0.0, 0.0, 0.0, 0.0, 1.6541556261742976E9, 0.0, 2022-06-02 09:40:26.174
108.0, 25678.086361656948, -4904.263306172288, -61595.12687863432, -38676.720997896315, -12584.076831826787, -36907.602776003216, -7992.916761984439, -28183.895729052514, -0.014, 0.916, 0.458, 192.0, 0.0, 0.0, 0.0, 0.0, 0.0, 0.0, 0.0, 0.0, 0.0, 1.654155626174308E9, 0.0, 2022-06-02 09:40:26.174
109.0, 25671.470245298176, -4907.30314341821, -61595.730375734616, -38679.42555897541, -12591.810535408324, -36911.871959194184, -8005.478442368322, -28188.67900236595, -0.014, 0.916, 0.458, 192.0, 0.0, 0.0, 0.0, 0.0, 0.0, 0.0, 0.0, 0.0, 0.0, 1.6541556261743133E9, 0.0, 2022-06-02 09:40:26.174
110.0, 25670.37500981987, -4897.177803179956, -61581.42525928322, -38666.37214021351, -12580.701718414035, -36900.405514288606, -7993.408500362457, -28186.42147617596, -0.014, 0.916, 0.458, 192.0, 0.0, 0.0, 0.0, 0.0, 0.0, 0.0, 0.0, 0.0, 0.0, 1.6541556261743188E9, 0.0, 2022-06-02 09:40:26.174
111.0, 25674.107751143903, -4893.601524067107, -61577.64781447027, -38660.40422444394, -12569.257625252918, -36896.78453168685, -7973.940130941884, -28163.1980136869, -0.014, 0.916, 0.458, 192.0, 0.0, 0.0, 0.0, 0.0, 0.0, 0.0, 0.0, 0.0, 0.0, 1.654155626174327E9, 0.0, 2022-06-02 09:40:26.174
112.0, 25671.80552146501, -4903.212774182889, -61586.61086399685, -38669.2778669927, -12575.761982889413, -36908.42979054806, -7987.798212504174, -28162.102778208588, -0.014, 0.916, 0.458, 192.0, 0.0, 0.0, 0.0, 0.0, 0.0, 0.0, 0.0, 0.0, 0.0, 1.6541556261743324E9, 0.0, 2022-06-02 09:40:26.174
113.0, 25663.200099849713, -4915.5732888666735, -61592.17644836623, -38681.01253283174, -12589.262436540419, -36924.63480527816, -8006.216049935348, -28187.49435990982, -0.014, 0.916, 0.458, 192.0, 0.0, 0.0, 0.0, 0.0, 0.0, 0.0, 0.0, 0.0, 0.0, 1.6541556261743379E9, 0.0, 2022-06-02 09:40:26.174
114.0, 25660.853166681907, -4914.2768876882665, -61592.84700069988, -38680.498442709264, -12596.68321569958, -36928.568712302294, -8022.4434164099, -28209.019089820278, -0.014, 0.916, 0.458, 192.0, 0.0, 0.0, 0.0, 0.0, 0.0, 0.0, 0.0, 0.0, 0.0, 1.654155626174343E9, 0.0, 2022-06-02 09:40:26.174
115.0, 25660.227317837158, -4912.756969065305, -61591.21532335464, -38680.856070620546, -12597.912561644622, -36921.997299432434, -8017.861308796562, -28191.942357056425, -0.014, 0.916, 0.458, 192.0, 0.0, 0.0, 0.0, 0.0, 0.0, 0.0, 0.0, 0.0, 0.0, 1.6541556261743488E9, 0.0, 2022-06-02 09:40:26.174
116.0, 25664.340038816936, -4905.157375950501, -61582.11816336134, -38670.06017804863, -12587.63075919518, -36907.178092858565, -7996.493041097288, -28182.889900552025, -0.016, 0.922, 0.46, 192.0, 255.0, 128.0, 28.0, 208.0, 14.0, 96.0, 0.0, 0.0, 0.0, 1.6541556261743543E9, 0.0, 2022-06-02 09:40:26.174
117.0, 25662.484844027145, -4907.794881796227, -61587.259064586055, -38674.46347170633, -12582.78043064838, -36911.00024116042, -7984.445450835879, -28181.660554606984, -0.016, 0.922, 0.46, 192.0, 0.0, 0.0, 0.0, 0.0, 0.0, 0.0, 0.0, 0.0, 0.0, 1.6541556261743596E9, 0.0, 2022-06-02 09:40:26.174
118.0, 25662.55189926051, -4914.165128965989, -61592.936407677706, -38685.84050963408, -12590.000044107443, -36922.89136921065, -7999.890506254495, -28172.026952746746, -0.016, 0.922, 0.46, 192.0, 0.0, 0.0, 0.0, 0.0, 0.0, 0.0, 0.0, 0.0, 0.0, 1.654155626174366E9, 0.0, 2022-06-02 09:40:26.174
119.0, 25669.436236552745, -4904.4197683834755, -61577.35724179236, -38679.00087583076, -12587.519000472905, -36915.157665629114, -7999.4881748543, -28182.77814182975, -0.016, 0.922, 0.46, 192.0, 0.0, 0.0, 0.0, 0.0, 0.0, 0.0, 0.0, 0.0, 0.0, 1.654155626174373E9, 0.0, 2022-06-02 09:40:26.174
120.0, 25669.838567952942, -4892.7298060333505, -61560.973413106614, -38655.64330287496, -12573.884436355167, -36892.60475547371, -7974.610683275543, -28179.47008365036, -0.016, 0.922, 0.46, 192.0, 0.0, 0.0, 0.0, 0.0, 0.0, 0.0, 0.0, 0.0, 0.0, 1.6541556261743786E9, 0.0, 2022-06-02 09:40:26.174
121.0, 25673.21368136569, -4889.555858320697, -61553.507930458545, -38649.09424174955, -12567.223616507485, -36892.38123802916, -7958.852703434552, -28165.455539876886, -0.016, 0.922, 0.46, 192.0, 0.0, 0.0, 0.0, 0.0, 0.0, 0.0, 0.0, 0.0, 0.0, 1.654155626174384E9, 0.0, 2022-06-02 09:40:26.174
122.0, 25666.195233606726, -4900.821137526172, -61565.95785212015, -38658.481974420785, -12572.63273866567, -36905.61347074669, -7974.230703619803, -28164.516766609762, -0.016, 0.922, 0.46, 192.0, 0.0, 0.0, 0.0, 0.0, 0.0, 0.0, 0.0, 0.0, 0.0, 1.6541556266535835E9, 0.0, 2022-06-02 09:40:26.653
123.0, 25667.245765596126, -4908.040750985236, -61577.37959353681, -38672.34005598308, -12583.272169026395, -36913.10130513922, -7995.531916085711, -28204.54874092922, -0.016, 0.922, 0.46, 192.0, 0.0, 0.0, 0.0, 0.0, 0.0, 0.0, 0.0, 0.0, 0.0, 1.6541556266537209E9, 0.0, 2022-06-02 09:40:26.653
124.0, 25676.097056400427, -4898.92123924747, -61570.405849266754, -38670.03782630418, -12581.551084703337, -36905.63582249115, -7999.085843454104, -28202.000642061314, -0.016, 0.922, 0.46, 192.0, 0.0, 0.0, 0.0, 0.0, 0.0, 0.0, 0.0, 0.0, 0.0, 1.6541556266537278E9, 0.0, 2022-06-02 09:40:26.653
125.0, 25673.75012323262, -4897.982465980347, -61561.263985784535, -38657.140869753464, -12576.38783173416, -36899.19852008802, -7984.288988624691, -28167.51190036677, -0.016, 0.922, 0.46, 192.0, 0.0, 0.0, 0.0, 0.0, 0.0, 0.0, 0.0, 0.0, 0.0, 1.6541556266537333E9, 0.0, 2022-06-02 09:40:26.653
126.0, 25670.710285986697, -4896.998989224314, -61561.62161369582, -38657.632608131484, -12577.907750357122, -36900.02553463287, -7975.594160031576, -28142.43324308792, -0.016, 0.924, 0.466, 192.0, 255.0, 128.0, 28.0, 224.0, 14.0, 144.0, 0.0, 0.0, 0.0, 1.6541556266537397E9, 0.0, 2022-06-02 09:40:26.653
127.0, 25684.009573937605, -4889.488803087331, -61556.52541596001, -38650.1224219945, -12565.413125206605, -36889.073179849765, -7971.503790796255, -28169.724723067848, -0.016, 0.924, 0.466, 192.0, 0.0, 0.0, 0.0, 0.0, 0.0, 0.0, 0.0, 0.0, 0.0, 1.6541556266537452E9, 0.0, 2022-06-02 09:40:26.653
128.0, 25679.941556446738, -4902.318704404677, -61574.22799756861, -38666.68506463588, -12573.63856716616, -36903.713572468, -7980.891523467484, -28174.15036847, -0.016, 0.924, 0.466, 192.0, 0.0, 0.0, 0.0, 0.0, 0.0, 0.0, 0.0, 0.0, 0.0, 1.6541556266537924E9, 0.0, 2022-06-02 09:40:26.653
129.0, 25674.018344166085, -4903.950381749914, -61574.80914292445, -38672.2282972608, -12584.166238804608, -36908.854473692714, -7994.01199746275, -28182.062886007177, -0.016, 0.924, 0.466, 192.0, 0.0, 0.0, 0.0, 0.0, 0.0, 0.0, 0.0, 0.0, 0.0, 1.6541556266537983E9, 0.0, 2022-06-02 09:40:26.653
130.0, 25669.950326675218, -4904.68798931694, -61570.271738800024, -38670.730730382296, -12584.188590549064, -36904.98762190195, -8005.63490457951, -28192.992889045825, -0.016, 0.924, 0.466, 192.0, 0.0, 0.0, 0.0, 0.0, 0.0, 0.0, 0.0, 0.0, 0.0, 1.6541556266538038E9, 0.0, 2022-06-02 09:40:26.653
131.0, 25672.386666820847, -4901.44698637092, -61565.04143059748, -38663.242895989766, -12577.930102101578, -36893.610583974194, -7999.890506254495, -28171.28934517972, -0.016, 0.924, 0.466, 192.0, 0.0, 0.0, 0.0, 0.0, 0.0, 0.0, 0.0, 0.0, 0.0, 1.6541556266538093E9, 0.0, 2022-06-02 09:40:26.653
132.0, 25670.687934242244, -4904.330361405655, -61568.66241319924, -38668.495555936766, -12575.627872422681, -36897.879767165155, -7983.461974079844, -28178.374848172054, -0.016, 0.924, 0.466, 192.0, 0.0, 0.0, 0.0, 0.0, 0.0, 0.0, 0.0, 0.0, 0.0, 1.654155626653815E9, 0.0, 2022-06-02 09:40:26.653
133.0, 25665.479977784154, -4917.987277267847, -61579.72652670462, -38680.38668398699, -12580.053517824832, -36911.20140686052, -7986.121831670026, -28206.091011296634, -0.016, 0.924, 0.466, 192.0, 0.0, 0.0, 0.0, 0.0, 0.0, 0.0, 0.0, 0.0, 0.0, 1.6541556266538212E9, 0.0, 2022-06-02 09:40:26.653
134.0, 25670.263251097593, -4905.738521306339, -61568.77417192152, -38665.09809077955, -12573.8173811218, -36897.38802878714, -7990.614532305543, -28176.787874315727, -0.016, 0.924, 0.466, 192.0, 0.0, 0.0, 0.0, 0.0, 0.0, 0.0, 0.0, 0.0, 0.0, 1.6541556266538267E9, 0.0, 2022-06-02 09:40:26.653
135.0, 25671.693762742732, -4901.625800326562, -61563.32034627442, -38658.43727093188, -12564.943738573043, -36884.06638909178, -7974.34246234208, -28149.138766424512, -0.016, 0.924, 0.466, 192.0, 0.0, 0.0, 0.0, 0.0, 0.0, 0.0, 0.0, 0.0, 0.0, 1.654155626653833E9, 0.0, 2022-06-02 09:40:26.653
136.0, 25672.431370309758, -4902.676332315962, -61570.65171845576, -38658.3255122096, -12564.384944961661, -36888.223813560464, -7975.571808287122, -28170.887013779524, -0.016, 0.922, 0.464, 192.0, 255.0, 128.0, 28.0, 208.0, 14.0, 128.0, 0.0, 0.0, 0.0, 1.6541556266538403E9, 0.0, 2022-06-02 09:40:26.653
137.0, 25670.576175519967, -4907.124329462567, -61579.34654704887, -38665.254552990744, -12566.910692085112, -36896.49395900893, -7984.400747346967, -28174.932679525937, -0.016, 0.922, 0.464, 192.0, 0.0, 0.0, 0.0, 0.0, 0.0, 0.0, 0.0, 0.0, 0.0, 1.6541556266538467E9, 0.0, 2022-06-02 09:40:26.653
138.0, 25661.389608548834, -4925.8997948050255, -61598.43493681371, -38689.81912014713, -12582.288692270362, -36914.75533422892, -8000.561058588155, -28196.30094722521, -0.016, 0.922, 0.464, 192.0, 0.0, 0.0, 0.0, 0.0, 0.0, 0.0, 0.0, 0.0, 0.0, 1.6541556266538525E9, 0.0, 2022-06-02 09:40:26.653
139.0, 25657.858032924898, -4927.330306450165, -61608.00148344058, -38700.12327434102, -12593.799840664846, -36925.75239250093, -8012.452186638378, -28212.0589270662, -0.016, 0.922, 0.464, 192.0, 0.0, 0.0, 0.0, 0.0, 0.0, 0.0, 0.0, 0.0, 0.0, 1.654155626653859E9, 0.0, 2022-06-02 09:40:26.653
140.0, 25664.943535917228, -4915.595640611129, -61603.352320593876, -38680.94547759837, -12583.138058559663, -36915.40353481812, -8005.478442368322, -28204.369926973573, -0.016, 0.922, 0.464, 192.0, 0.0, 0.0, 0.0, 0.0, 0.0, 0.0, 0.0, 0.0, 0.0, 1.6541556266538663E9, 0.0, 2022-06-02 09:40:26.653
141.0, 25670.084437141948, -4910.432387641953, -61592.89170418879, -38671.55774492714, -12570.397564220139, -36905.434656791054, -7983.350215357568, -28148.825842002138, -0.016, 0.922, 0.464, 192.0, 0.0, 0.0, 0.0, 0.0, 0.0, 0.0, 0.0, 0.0, 0.0, 1.6541556266538732E9, 0.0, 2022-06-02 09:40:26.653
142.0, 25676.968774434183, -4908.867765530082, -61588.13078261981, -38670.61897166002, -12567.96122407451, -36901.366639300184, -7976.376471087512, -28141.561525054163, -0.016, 0.922, 0.464, 192.0, 0.0, 0.0, 0.0, 0.0, 0.0, 0.0, 0.0, 0.0, 0.0, 1.6541556266538792E9, 0.0, 2022-06-02 09:40:26.653
143.0, 25668.162187118793, -4921.317687191688, -61604.22403862763, -38681.057236320645, -12582.646320181648, -36918.97981393097, -7993.117927684538, -28203.29704323972, -0.016, 0.922, 0.464, 192.0, 0.0, 0.0, 0.0, 0.0, 0.0, 0.0, 0.0, 0.0, 0.0, 1.6541556266538854E9, 0.0, 2022-06-02 09:40:26.653
144.0, 25668.095131885428, -4913.963963265892, -61597.76438448005, -38672.47416644981, -12584.233294037975, -36911.46962779399, -7999.555230087666, -28194.803380346704, -0.016, 0.922, 0.464, 192.0, 0.0, 0.0, 0.0, 0.0, 0.0, 0.0, 0.0, 0.0, 0.0, 1.654155626653891E9, 0.0, 2022-06-02 09:40:26.653
145.0, 25671.626707509364, -4903.503346860808, -61587.99667215308, -38663.108785523036, -12574.800857877835, -36900.58432824425, -7987.10530842606, -28189.036630277235, -0.016, 0.922, 0.464, 192.0, 0.0, 0.0, 0.0, 0.0, 0.0, 0.0, 0.0, 0.0, 0.0, 1.6541556266538997E9, 0.0, 2022-06-02 09:40:26.653
146.0, 25668.31864932998, -4904.375064894565, -61583.16869535073, -38662.952323311845, -12569.8164188643, -36903.601813745714, -7974.2977588531685, -28191.472970422863, -0.008, 0.922, 0.468, 192.0, 255.0, 192.0, 28.0, 208.0, 14.0, 160.0, 0.0, 0.0, 0.0, 1.6541556266539063E9, 0.0, 2022-06-02 09:40:26.653
147.0, 25673.32544008797, -4903.704512560906, -61576.73139294761, -38661.901791322445, -12566.418953707094, -36901.098418366724, -7967.636939005487, -28159.95701074088, -0.008, 0.922, 0.468, 192.0, 0.0, 0.0, 0.0, 0.0, 0.0, 0.0, 0.0, 0.0, 0.0, 1.654155626653912E9, 0.0, 2022-06-02 09:40:26.653
148.0, 25665.971716162174, -4907.146681207023, -61582.11816336134, -38670.79778561566, -12571.559854931815, -36909.45797079301, -7983.305511868658, -28171.71402832437, -0.008, 0.922, 0.468, 192.0, 0.0, 0.0, 0.0, 0.0, 0.0, 0.0, 0.0, 0.0, 0.0, 1.6541556266539183E9, 0.0, 2022-06-02 09:40:26.653
149.0, 25656.494576513123, -4916.266192944789, -61589.918922176235, -38676.31866649612, -12583.9203696156, -36916.74463948544, -7997.431814364411, -28199.38548796004, -0.008, 0.922, 0.468, 192.0, 0.0, 0.0, 0.0, 0.0, 0.0, 0.0, 0.0, 0.0, 0.0, 1.6541556266539311E9, 0.0, 2022-06-02 09:40:26.653
150.0, 25658.975620147663, -4910.9911812533355, -61581.42525928322, -38666.75211986925, -12577.192494534553, -36906.52989226936, -7993.184982917904, -28182.57697612965, -0.008, 0.922, 0.468, 192.0, 0.0, 0.0, 0.0, 0.0, 0.0, 0.0, 0.0, 0.0, 0.0, 1.654155626653951E9, 0.0, 2022-06-02 09:40:26.653
151.0, 25655.622858479364, -4913.6286870990625, -61583.548675006474, -38670.730730382296, -12577.952453846032, -36906.284023080356, -7984.959540958351, -28178.173682471956, -0.008, 0.922, 0.468, 192.0, 0.0, 0.0, 0.0, 0.0, 0.0, 0.0, 0.0, 0.0, 0.0, 1.654155626653958E9, 0.0, 2022-06-02 09:40:26.653
152.0, 25662.328381815958, -4908.241916685333, -61583.682785473204, -38670.730730382296, -12574.465581711005, -36904.1606073571, -7983.014939190739, -28167.1989759444, -0.008, 0.922, 0.468, 192.0, 0.0, 0.0, 0.0, 0.0, 0.0, 0.0, 0.0, 0.0, 0.0, 1.654155626653967E9, 0.0, 2022-06-02 09:40:26.653
153.0, 25670.240899353135, -4912.265230687289, -61586.633215741305, -38669.099053037055, -12578.265378268406, -36913.95067142852, -7994.123756185027, -28186.756752342793, -0.008, 0.922, 0.468, 192.0, 0.0, 0.0, 0.0, 0.0, 0.0, 0.0, 0.0, 0.0, 0.0, 1.654155626653973E9, 0.0, 2022-06-02 09:40:26.653
154.0, 25675.94059418924, -4906.252611428811, -61582.76636395054, -38659.77837559919, -12577.416011979105, -36905.79228470234, -7997.811794020152, -28181.81701681817, -0.008, 0.922, 0.468, 192.0, 0.0, 0.0, 0.0, 0.0, 0.0, 0.0, 0.0, 0.0, 0.0, 1.6541556266539805E9, 0.0, 2022-06-02 09:40:26.653
155.0, 25670.17384411977, -4901.916373004481, -61578.13955284829, -38650.7706225837, -12570.218750264496, -36893.29765955182, -7994.056700951661, -28157.0959874506, -0.008, 0.922, 0.468, 192.0, 0.0, 0.0, 0.0, 0.0, 0.0, 0.0, 0.0, 0.0, 0.0, 1.654155626653988E9, 0.0, 2022-06-02 09:40:26.653
156.0, 25664.451797539212, -4899.100053203113, -61565.1308375753, -38645.048576003144, -12566.687174640558, -36888.40262751611, -7982.366738601535, -28165.72376081035, -0.012, 0.922, 0.468, 192.0, 255.0, 160.0, 28.0, 208.0, 14.0, 160.0, 0.0, 0.0, 0.0, 1.654155626654002E9, 0.0, 2022-06-02 09:40:26.654
157.0, 25662.395437049323, -4902.072835215668, -61569.84705565537, -38650.3235876946, -12567.402430463128, -36897.0080491314, -7976.19765713187, -28175.647935348505, -0.012, 0.922, 0.468, 192.0, 0.0, 0.0, 0.0, 0.0, 0.0, 0.0, 0.0, 0.0, 0.0, 1.6541556266540089E9, 0.0, 2022-06-02 09:40:26.654
158.0, 25656.15930034629, -4917.11555923409, -61592.444669299686, -38670.46250944883, -12585.194419049552, -36918.4657238085, -8004.874945268029, -28195.384525702542, -0.012, 0.922, 0.468, 192.0, 0.0, 0.0, 0.0, 0.0, 0.0, 0.0, 0.0, 0.0, 0.0, 1.6541556266540189E9, 0.0, 2022-06-02 09:40:26.654
159.0, 25660.69670447072, -4911.773492309272, -61589.226018098125, -38670.55191642665, -12592.68225344208, -36913.99537491744, -8017.056645996171, -28188.589595388126, -0.012, 0.922, 0.468, 192.0, 0.0, 0.0, 0.0, 0.0, 0.0, 0.0, 0.0, 0.0, 0.0, 1.6541556266540284E9, 0.0, 2022-06-02 09:40:26.654
160.0, 25666.7093237292, -4900.262343914788, -61577.29018655899, -38658.191401742864, -12579.606482935726, -36900.1596450996, -7987.82056424863, -28177.659592349482, -0.012, 0.922, 0.468, 192.0, 0.0, 0.0, 0.0, 0.0, 0.0, 0.0, 0.0, 0.0, 0.0, 1.654155626654036E9, 0.0, 2022-06-02 09:40:26.654
161.0, 25674.84535871093, -4894.115614189579, -61567.65658469875, -38643.21573295781, -12564.228482750474, -36891.75538918441, -7954.382354543491, -28151.888030992515, -0.012, 0.922, 0.468, 192.0, 0.0, 0.0, 0.0, 0.0, 0.0, 0.0, 0.0, 0.0, 0.0, 1.6541556266540444E9, 0.0, 2022-06-02 09:40:26.654
162.0, 25672.431370309758, -4895.523774090263, -61566.494293987074, -38648.44604116035, -12568.520017685893, -36896.002220630915, -7974.565979786633, -28150.770443769747, -0.012, 0.922, 0.468, 192.0, 0.0, 0.0, 0.0, 0.0, 0.0, 0.0, 0.0, 0.0, 0.0, 1.6541556266540523E9, 0.0, 2022-06-02 09:40:26.654
163.0, 25674.107751143903, -4903.883326516549, -61577.60311098136, -38661.633570388985, -12580.612311436214, -36912.20723536101, -7993.609666062554, -28171.959897513378, -0.012, 0.922, 0.468, 192.0, 0.0, 0.0, 0.0, 0.0, 0.0, 0.0, 0.0, 0.0, 0.0, 1.6541556266540592E9, 0.0, 2022-06-02 09:40:26.654
164.0, 25668.56451851899, -4908.219564940878, -61584.465096529144, -38669.74725362626, -12593.173991820096, -36918.10809589721, -7998.996436476284, -28198.78199085975, -0.012, 0.922, 0.468, 192.0, 0.0, 0.0, 0.0, 0.0, 0.0, 0.0, 0.0, 0.0, 0.0, 1.6541556266540668E9, 0.0, 2022-06-02 09:40:26.654
165.0, 25662.060160882495, -4906.2079079399, -61576.59728248087, -38666.95328556935, -12588.524828973394, -36910.821427204784, -7989.072261938127, -28185.90738605349, -0.012, 0.922, 0.468, 192.0, 0.0, 0.0, 0.0, 0.0, 0.0, 0.0, 0.0, 0.0, 0.0, 1.6541556266540756E9, 0.0, 2022-06-02 09:40:26.654
166.0, 25655.13112010135, -4909.560669608196, -61577.37959353681, -38666.08156753559, -12585.552046960836, -36915.559997029304, -7984.937189213895, -28178.106627238587, -0.014, 0.928, 0.464, 192.0, 255.0, 144.0, 29.0, 0.0, 14.0, 128.0, 0.0, 0.0, 0.0, 1.6541556266540835E9, 0.0, 2022-06-02 09:40:26.654
167.0, 25664.451797539212, -4901.268172415277, -61570.56231147794, -38657.76671859821, -12579.360613746718, -36904.20531084601, -7985.697148525375, -28170.127054468045, -0.014, 0.928, 0.464, 192.0, 0.0, 0.0, 0.0, 0.0, 0.0, 0.0, 0.0, 0.0, 0.0, 1.6541556266540952E9, 0.0, 2022-06-02 09:40:26.654
168.0, 25657.768625947076, -4916.221489455877, -61585.9850151521, -38671.31187573813, -12591.028224352387, -36910.039116148844, -8003.4667853673445, -28171.177586457445, -0.014, 0.928, 0.464, 192.0, 0.0, 0.0, 0.0, 0.0, 0.0, 0.0, 0.0, 0.0, 0.0, 1.6541556266541076E9, 0.0, 2022-06-02 09:40:26.654
169.0, 25660.227317837158, -4912.3993411540205, -61581.51466626104, -38668.38379721449, -12591.11763133021, -36906.909871925105, -8011.513413371255, -28155.352551383086, -0.014, 0.928, 0.464, 192.0, 0.0, 0.0, 0.0, 0.0, 0.0, 0.0, 0.0, 0.0, 0.0, 1.6541556266541207E9, 0.0, 2022-06-02 09:40:26.654
170.0, 25661.389608548834, -4907.213736440389, -61574.00448012406, -38661.007721544236, -12581.484029469972, -36897.455084020505, -7991.754471272764, -28188.120208754568, -0.014, 0.928, 0.464, 192.0, 0.0, 0.0, 0.0, 0.0, 0.0, 0.0, 0.0, 0.0, 0.0, 1.6541556266541362E9, 0.0, 2022-06-02 09:40:26.654
171.0, 25659.46735852568, -4907.481957373852, -61567.56717772093, -38667.646189647465, -12578.77946839088, -36897.25391832041, -7976.130601898504, -28205.82279036317, -0.014, 0.928, 0.464, 192.0, 0.0, 0.0, 0.0, 0.0, 0.0, 0.0, 0.0, 0.0, 0.0, 1.6541556266541607E9, 0.0, 2022-06-02 09:40:26.654
172.0, 25667.93866967424, -4899.480032858853, -61559.453494483656, -38660.33716921058, -12568.967052574999, -36894.99639213042, -7966.787572716185, -28155.129033938534, -0.014, 0.928, 0.464, 192.0, 0.0, 0.0, 0.0, 0.0, 0.0, 0.0, 0.0, 0.0, 0.0, 1.6541556266541684E9, 0.0, 2022-06-02 09:40:26.654
173.0, 25663.065989382983, -4909.605373097107, -61571.456381256154, -38664.44989019035, -12578.310081757318, -36901.14312185563, -7983.305511868658, -28133.04551041669, -0.014, 0.928, 0.464, 192.0, 0.0, 0.0, 0.0, 0.0, 0.0, 0.0, 0.0, 0.0, 0.0, 1.6541556266541753E9, 0.0, 2022-06-02 09:40:26.654
174.0, 25651.331323543945, -4918.054332501213, -61584.50980001805, -38675.111672295534, -12597.376119777695, -36911.60373826072, -8008.272410425236, -28189.81894133317, -0.014, 0.928, 0.464, 192.0, 0.0, 0.0, 0.0, 0.0, 0.0, 0.0, 0.0, 0.0, 0.0, 1.6541556266541822E9, 0.0, 2022-06-02 09:40:26.654
175.0, 25660.629649237355, -4906.744349806828, -61576.2843580585, -38665.32160822411, -12589.195381307052, -36904.384124801654, -7992.648541050976, -28184.34276394162, -0.014, 0.928, 0.464, 192.0, 0.0, 0.0, 0.0, 0.0, 0.0, 0.0, 0.0, 0.0, 0.0, 1.654155626654192E9, 0.0, 2022-06-02 09:40:26.654
176.0, 25658.26036432509, -4906.92316376247, -61568.30478528795, -38661.901791322445, -12583.383927748673, -36902.17130210058, -7992.559134073154, -28182.018182518266, -0.01, 0.928, 0.46, 192.0, 255.0, 176.0, 29.0, 0.0, 14.0, 96.0, 0.0, 0.0, 0.0, 1.6541556266542034E9, 0.0, 2022-06-02 09:40:26.654
177.0, 25650.481957254644, -4916.556765622708, -61574.406811524255, -38671.22246876031, -12585.641453938659, -36911.20140686052, -8001.857459766563, -28189.28249946624, -0.01, 0.928, 0.46, 192.0, 0.0, 0.0, 0.0, 0.0, 0.0, 0.0, 0.0, 0.0, 0.0, 1.6541556266542108E9, 0.0, 2022-06-02 09:40:26.654
178.0, 25664.675314983764, -4911.952306264914, -61571.76930567853, -38667.154451269445, -12578.466543968505, -36909.770895215384, -7997.096538197582, -28167.556603855683, -0.01, 0.928, 0.46, 192.0, 0.0, 0.0, 0.0, 0.0, 0.0, 0.0, 0.0, 0.0, 0.0, 1.6541556266542203E9, 0.0, 2022-06-02 09:40:26.654
179.0, 25665.569384761977, -4909.44891088592, -61575.032660369005, -38660.27011397721, -12581.618139936703, -36906.37343005818, -7983.171401401926, -28164.85204277659, -0.01, 0.928, 0.46, 192.0, 0.0, 0.0, 0.0, 0.0, 0.0, 0.0, 0.0, 0.0, 0.0, 1.6541556266542304E9, 0.0, 2022-06-02 09:40:26.654
180.0, 25665.6587917398, -4907.63841958504, -61584.57685525142, -38657.90082906495, -12584.076831826787, -36906.21696784699, -7982.791421746186, -28176.407894659984, -0.01, 0.928, 0.46, 192.0, 0.0, 0.0, 0.0, 0.0, 0.0, 0.0, 0.0, 0.0, 0.0, 1.6541556266542485E9, 0.0, 2022-06-02 09:40:26.654
181.0, 25651.04075086603, -4919.842472057638, -61586.85673318586, -38670.95424782685, -12593.084584842276, -36918.75629648642, -7997.744738786786, -28193.976365801856, -0.01, 0.928, 0.46, 192.0, 0.0, 0.0, 0.0, 0.0, 0.0, 0.0, 0.0, 0.0, 0.0, 1.6541556266542592E9, 0.0, 2022-06-02 09:40:26.654
182.0, 25650.146681087816, -4918.255498201311, -61575.34558479138, -38665.88040183549, -12582.981596348476, -36912.47545629447, -7986.144183414482, -28174.440941147917, -0.01, 0.928, 0.46, 192.0, 0.0, 0.0, 0.0, 0.0, 0.0, 0.0, 0.0, 0.0, 0.0, 1.654155626654272E9, 0.0, 2022-06-02 09:40:26.654
183.0, 25641.898887383806, -4928.649059373029, -61593.00346291107, -38679.1796897864, -12593.77748892039, -36924.88067446717, -8004.003227234272, -28175.737342326327, -0.01, 0.928, 0.46, 192.0, 0.0, 0.0, 0.0, 0.0, 0.0, 0.0, 0.0, 0.0, 0.0, 1.6541556266542797E9, 0.0, 2022-06-02 09:40:26.654
184.0, 25636.89209662582, -4932.962946052903, -61601.787698482, -38685.03584683369, -12605.601561737247, -36928.993395446945, -8022.935154787917, -28196.0550780362, -0.01, 0.928, 0.46, 192.0, 0.0, 0.0, 0.0, 0.0, 0.0, 0.0, 0.0, 0.0, 0.0, 1.6541556266542861E9, 0.0, 2022-06-02 09:40:26.654
185.0, 25647.12919558635, -4916.02032375578, -61584.01806164004, -38665.76864311322, -12591.855238897233, -36911.26846209389, -8014.597954106088, -28191.405915189498, -0.01, 0.922, 0.462, 192.0, 255.0, 176.0, 28.0, 208.0, 14.0, 112.0, 0.0, 0.0, 0.0, 1.6541556266542945E9, 0.0, 2022-06-02 09:40:26.654
186.0, 25650.88428865484, -4906.8784602735595, -61573.66920395723, -38655.97857904179, -12579.15944804662, -36903.266537578886, -7995.1295846855155, -28176.56435687117, -0.01, 0.922, 0.462, 192.0, 0.0, 0.0, 0.0, 0.0, 0.0, 0.0, 0.0, 0.0, 0.0, 1.6541556266543105E9, 0.0, 2022-06-02 09:40:26.654
187.0, 25656.539280002035, -4907.079625973657, -61572.149285334264, -38657.69966336485, -12575.136134044664, -36905.05467713531, -8000.337541143602, -28161.789853786213, -0.01, 0.922, 0.462, 192.0, 0.0, 0.0, 0.0, 0.0, 0.0, 0.0, 0.0, 0.0, 0.0, 1.654155626654322E9, 0.0, 2022-06-02 09:40:26.654
188.0, 25654.192346834225, -4916.757931322805, -61581.313500560944, -38669.99312281527, -12583.763907404413, -36913.16836037259, -8009.658218581465, -28172.026952746746, -0.01, 0.922, 0.462, 192.0, 0.0, 0.0, 0.0, 0.0, 0.0, 0.0, 0.0, 0.0, 0.0, 1.6541556266543317E9, 0.0, 2022-06-02 09:40:26.654
189.0, 25650.146681087816, -4921.11652149159, -61581.49231451659, -38675.15637578444, -12588.927160373589, -36922.19846513253, -7989.3181311271355, -28198.40201120401, -0.01, 0.922, 0.462, 192.0, 0.0, 0.0, 0.0, 0.0, 0.0, 0.0, 0.0, 0.0, 0.0, 1.65415562665434E9, 0.0, 2022-06-02 09:40:26.654
190.0, 25660.02615213706, -4909.381855652554, -61566.784866664995, -38655.620951130506, -12578.24302652395, -36915.5152935404, -7979.505715311256, -28176.944336526914, -0.01, 0.922, 0.462, 192.0, 0.0, 0.0, 0.0, 0.0, 0.0, 0.0, 0.0, 0.0, 0.0, 1.654155626654348E9, 0.0, 2022-06-02 09:40:26.654
191.0, 25654.3041055565, -4911.661733586995, -61564.95202361966, -38655.59859938605, -12582.221637036997, -36913.10130513922, -7999.82345102113, -28162.48275786433, -0.01, 0.922, 0.462, 192.0, 0.0, 0.0, 0.0, 0.0, 0.0, 0.0, 0.0, 0.0, 0.0, 1.6541556266543577E9, 0.0, 2022-06-02 09:40:26.654
192.0, 25655.019361379073, -4907.30314341821, -61561.59926195136, -38652.91639005142, -12579.852352124733, -36907.40161030312, -7996.984779475306, -28172.228118446845, -0.01, 0.922, 0.462, 192.0, 0.0, 0.0, 0.0, 0.0, 0.0, 0.0, 0.0, 0.0, 0.0, 1.65415562665439E9, 0.0, 2022-06-02 09:40:26.654
193.0, 25657.27688756906, -4908.912469018993, -61568.37184052132, -38661.41005294443, -12582.266340525906, -36917.035212163355, -8001.388073133001, -28180.118284239565, -0.01, 0.922, 0.462, 192.0, 0.0, 0.0, 0.0, 0.0, 0.0, 0.0, 0.0, 0.0, 0.0, 1.654155626654398E9, 0.0, 2022-06-02 09:40:26.654
194.0, 25652.27009681107, -4910.052407986213, -61574.742087691084, -38667.04269254717, -12593.598674964747, -36921.32674709878, -8015.760244817763, -28179.604194117095, -0.01, 0.922, 0.462, 192.0, 0.0, 0.0, 0.0, 0.0, 0.0, 0.0, 0.0, 0.0, 0.0, 1.6541556266544092E9, 0.0, 2022-06-02 09:40:26.654
195.0, 25651.957172388695, -4900.01647472578, -61562.42627649621, -38664.47224193481, -12591.654073197136, -36919.18097963107, -8018.710675085864, -28175.75969407078, -0.012, 0.93, 0.46, 192.0, 255.0, 160.0, 29.0, 16.0, 14.0, 96.0, 0.0, 0.0, 0.0, 1.6541556266544185E9, 0.0, 2022-06-02 09:40:26.654
196.0, 25662.88717542734, -4888.438271097931, -61545.1260262878, -38655.3750819415, -12576.320776500796, -36910.53085452686, -7992.805003262163, -28164.583821843127, -0.012, 0.93, 0.46, 192.0, 0.0, 0.0, 0.0, 0.0, 0.0, 0.0, 0.0, 0.0, 0.0, 1.6541556266544285E9, 0.0, 2022-06-02 09:40:26.654
197.0, 25658.41682653628, -4901.156413693001, -61541.92972683069, -38655.64330287496, -12569.279976997374, -36908.34038357024, -7977.829334477107, -28168.987115500822, -0.012, 0.93, 0.46, 192.0, 0.0, 0.0, 0.0, 0.0, 0.0, 0.0, 0.0, 0.0, 0.0, 1.6541556266544359E9, 0.0, 2022-06-02 09:40:26.654
198.0, 25650.101977598904, -4920.378913924565, -61554.29024151448, -38665.679236135395, -12576.946625345545, -36917.05756390781, -7997.029482964216, -28183.29223195222, -0.012, 0.93, 0.46, 192.0, 0.0, 0.0, 0.0, 0.0, 0.0, 0.0, 0.0, 0.0, 0.0, 1.6541556266544435E9, 0.0, 2022-06-02 09:40:26.654
199.0, 25630.365387244867, -4938.774399611282, -61576.2843580585, -38686.46635847883, -12602.15939309113, -36937.799982762335, -8020.722332086842, -28221.759584159805, -0.012, 0.93, 0.46, 192.0, 0.0, 0.0, 0.0, 0.0, 0.0, 0.0, 0.0, 0.0, 0.0, 1.654155626654451E9, 0.0, 2022-06-02 09:40:26.654
200.0, 25624.911561597775, -4935.6451553875395, -61566.5837009649, -38680.47609096481, -12597.376119777695, -36931.429735592574, -8001.566887088644, -28191.495322167317, -0.012, 0.93, 0.46, 192.0, 0.0, 0.0, 0.0, 0.0, 0.0, 0.0, 0.0, 0.0, 0.0, 1.6541556266544757E9, 0.0, 2022-06-02 09:40:26.654
201.0, 25626.856163365384, -4926.749161094327, -61556.72658166011, -38673.010608316734, -12586.937855117067, -36919.35979358671, -7995.15193642997, -28161.99101948631, -0.012, 0.93, 0.46, 192.0, 0.0, 0.0, 0.0, 0.0, 0.0, 0.0, 0.0, 0.0, 0.0, 1.65415562665449E9, 0.0, 2022-06-02 09:40:26.654
202.0, 25644.916372885273, -4915.729751077861, -61546.1765582772, -38657.61025638703, -12579.025337579887, -36904.048848634826, -8000.851631266074, -28166.19314744391, -0.012, 0.93, 0.46, 192.0, 0.0, 0.0, 0.0, 0.0, 0.0, 0.0, 0.0, 0.0, 0.0, 1.65415562665452E9, 0.0, 2022-06-02 09:40:26.654
203.0, 25645.74338743012, -4919.104864490612, -61550.222224023615, -38658.75019535425, -12585.462639983016, -36909.12269462618, -8009.34529415909, -28185.527406397752, -0.012, 0.93, 0.46, 192.0, 0.0, 0.0, 0.0, 0.0, 0.0, 0.0, 0.0, 0.0, 0.0, 1.6541556266545424E9, 0.0, 2022-06-02 09:40:26.654
204.0, 25639.708416427187, -4921.83177731416, -61558.42531423871, -38665.65688439094, -12598.940741889566, -36916.54347378534, -8022.510471643266, -28201.62066240557, -0.012, 0.93, 0.46, 192.0, 0.0, 0.0, 0.0, 0.0, 0.0, 0.0, 0.0, 0.0, 0.0, 1.654155626654558E9, 0.0, 2022-06-02 09:40:26.654
205.0, 25640.580134460943, -4914.500405132819, -61552.457398469145, -38661.38770119997, -12595.722090688001, -36911.804903960816, -8009.144128458993, -28209.019089820278, -0.014, 0.932, 0.46, 192.0, 255.0, 144.0, 29.0, 32.0, 14.0, 96.0, 0.0, 0.0, 0.0, 1.6541556266545684E9, 0.0, 2022-06-02 09:40:26.654
206.0, 25637.2497245371, -4911.9299545204585, -61548.255270511545, -38658.37021569851, -12590.49178248546, -36905.92639516907, -7994.548439329677, -28176.854929549092, -0.014, 0.932, 0.46, 192.0, 0.0, 0.0, 0.0, 0.0, 0.0, 0.0, 0.0, 0.0, 0.0, 1.6541556266545784E9, 0.0, 2022-06-02 09:40:26.654
207.0, 25645.139890329825, -4902.899849760514, -61540.4768634411, -38649.0718900051, -12579.539427702359, -36898.32680205427, -7985.428927591912, -28175.469121392864, -0.014, 0.932, 0.46, 192.0, 0.0, 0.0, 0.0, 0.0, 0.0, 0.0, 0.0, 0.0, 0.0, 1.6541556266545885E9, 0.0, 2022-06-02 09:40:26.654
208.0, 25644.849317651908, -4910.16416670849, -61541.43798845268, -38660.00189304374, -12583.003948092932, -36908.47449403697, -7995.420157363434, -28207.275653752764, -0.014, 0.932, 0.46, 192.0, 0.0, 0.0, 0.0, 0.0, 0.0, 0.0, 0.0, 0.0, 0.0, 1.654155626654598E9, 0.0, 2022-06-02 09:40:26.654
209.0, 25638.74729141561, -4918.814291812693, -61549.574023434405, -38670.909544337934, -12595.096241843254, -36918.577482530774, -8007.601858091576, -28174.642106848016, -0.014, 0.932, 0.46, 192.0, 0.0, 0.0, 0.0, 0.0, 0.0, 0.0, 0.0, 0.0, 0.0, 1.6541556266546075E9, 0.0, 2022-06-02 09:40:26.654
210.0, 25639.283733282537, -4910.141814964034, -61541.10271228584, -38652.15643073993, -12583.29452077085, -36909.145046370635, -7999.085843454104, -28166.72958931084, -0.014, 0.932, 0.46, 192.0, 0.0, 0.0, 0.0, 0.0, 0.0, 0.0, 0.0, 0.0, 0.0, 1.6541556266546168E9, 0.0, 2022-06-02 09:40:26.654
211.0, 25634.41105299128, -4912.600506854118, -61539.89571808526, -38656.4256139309, -12579.427668980083, -36909.34621207073, -7999.555230087666, -28208.125020042065, -0.014, 0.932, 0.46, 192.0, 0.0, 0.0, 0.0, 0.0, 0.0, 0.0, 0.0, 0.0, 0.0, 1.6541556266546247E9, 0.0, 2022-06-02 09:40:26.654
212.0, 25634.723977413654, -4913.673390587973, -61544.835453609885, -38663.98050355679, -12580.746421902946, -36913.2130638615, -7994.503735840766, -28182.71108659638, -0.014, 0.932, 0.46, 192.0, 0.0, 0.0, 0.0, 0.0, 0.0, 0.0, 0.0, 0.0, 0.0, 1.6541556266546342E9, 0.0, 2022-06-02 09:40:26.654
213.0, 25631.281808767537, -4921.87648080307, -61558.00063109406, -38671.80361411615, -12588.480125484482, -36919.02451741988, -7998.705863798365, -28190.601252389104, -0.014, 0.932, 0.46, 192.0, 0.0, 0.0, 0.0, 0.0, 0.0, 0.0, 0.0, 0.0, 0.0, 1.6541556266546445E9, 0.0, 2022-06-02 09:40:26.654
214.0, 25637.674407681752, -4916.780283067261, -61554.536110703484, -38667.26620999172, -12591.721128430501, -36912.87778769467, -8010.3958261484895, -28184.365115686076, -0.014, 0.932, 0.46, 192.0, 0.0, 0.0, 0.0, 0.0, 0.0, 0.0, 0.0, 0.0, 0.0, 1.6541556266546695E9, 0.0, 2022-06-02 09:40:26.654
215.0, 25647.59858221991, -4902.676332315962, -61541.57209891941, -38651.21765747281, -12584.948549860545, -36896.426903775566, -8001.67864581092, -28151.351589125585, -0.016, 0.922, 0.46, 192.0, 255.0, 128.0, 28.0, 208.0, 14.0, 96.0, 0.0, 0.0, 0.0, 1.6541556266546783E9, 0.0, 2022-06-02 09:40:26.654
216.0, 25648.31383804248, -4898.630666569551, -61533.34665695985, -38647.8201923156, -12575.382003233672, -36891.46481650649, -7969.715651239831, -28169.43415038993, -0.016, 0.922, 0.46, 192.0, 0.0, 0.0, 0.0, 0.0, 0.0, 0.0, 0.0, 0.0, 0.0, 1.6541556266546876E9, 0.0, 2022-06-02 09:40:26.654
217.0, 25643.731730429143, -4906.811405040194, -61538.04052329547, -38654.570419141106, -12574.666747411102, -36898.34915379872, -7983.551381057666, -28197.597348403615, -0.016, 0.922, 0.46, 192.0, 0.0, 0.0, 0.0, 0.0, 0.0, 0.0, 0.0, 0.0, 0.0, 1.6541556266546972E9, 0.0, 2022-06-02 09:40:26.654
218.0, 25627.906695354784, -4928.537300650752, -61562.53803521849, -38678.486785708286, -12593.129288331187, -36922.33257559926, -8003.332674900613, -28209.421421220475, -0.016, 0.922, 0.46, 192.0, 0.0, 0.0, 0.0, 0.0, 0.0, 0.0, 0.0, 0.0, 0.0, 1.6541556266547055E9, 0.0, 2022-06-02 09:40:26.654
219.0, 25621.4470412072, -4931.085399518657, -61570.80818066695, -38680.0290560757, -12599.186611078574, -36924.99243318944, -8001.499831855278, -28179.0006970168, -0.016, 0.922, 0.46, 192.0, 0.0, 0.0, 0.0, 0.0, 0.0, 0.0, 0.0, 0.0, 0.0, 1.6541556266547148E9, 0.0, 2022-06-02 09:40:26.654
220.0, 25631.72884365664, -4913.5169283767855, -61550.26692751252, -38662.527640167194, -12586.82609639479, -36905.32289806878, -7994.906067240962, -28177.905461538492, -0.016, 0.922, 0.46, 192.0, 0.0, 0.0, 0.0, 0.0, 0.0, 0.0, 0.0, 0.0, 0.0, 1.6541556266547227E9, 0.0, 2022-06-02 09:40:26.654
221.0, 25636.914448370273, -4904.375064894565, -61534.330133715885, -38658.616084887515, -12580.142924802652, -36893.834101418746, -7988.5581718156545, -28178.978345272346, -0.016, 0.922, 0.46, 192.0, 0.0, 0.0, 0.0, 0.0, 0.0, 0.0, 0.0, 0.0, 0.0, 1.6541556266547325E9, 0.0, 2022-06-02 09:40:26.654
222.0, 25633.002893090594, -4908.4654341298865, -61539.64984889625, -38651.061195261624, -12584.166238804608, -36902.59598524523, -7988.2675991377355, -28188.09785701011, -0.016, 0.922, 0.46, 192.0, 0.0, 0.0, 0.0, 0.0, 0.0, 0.0, 0.0, 0.0, 0.0, 1.6541556266547415E9, 0.0, 2022-06-02 09:40:26.654
223.0, 25631.818250634464, -4918.948402279425, -61550.646907168266, -38653.229314473785, -12596.437346510571, -36915.02355516238, -8016.676666340431, -28195.764505358282, -0.016, 0.922, 0.46, 192.0, 0.0, 0.0, 0.0, 0.0, 0.0, 0.0, 0.0, 0.0, 0.0, 1.6541556266547537E9, 0.0, 2022-06-02 09:40:26.654
224.0, 25630.07481456695, -4919.194271468434, -61553.23970952508, -38658.92900930989, -12602.49466925796, -36913.57069177279, -8031.987611292317, -28202.58178741715, -0.016, 0.922, 0.46, 192.0, 0.0, 0.0, 0.0, 0.0, 0.0, 0.0, 0.0, 0.0, 0.0, 1.6541556266547623E9, 0.0, 2022-06-02 09:40:26.654
225.0, 25634.07577682445, -4913.583983610151, -61546.33302048839, -38652.58111388458, -12593.822192409301, -36905.59111900224, -8004.629076079021, -28191.2047494894, -0.016, 0.926, 0.46, 192.0, 255.0, 128.0, 28.0, 240.0, 14.0, 96.0, 0.0, 0.0, 0.0, 1.6541556266547704E9, 0.0, 2022-06-02 09:40:26.654
226.0, 25648.15737583129, -4898.585963080641, -61529.03277027998, -38640.734689323275, -12575.069078811299, -36890.99542987292, -7978.499886810767, -28195.317470469174, -0.016, 0.926, 0.46, 192.0, 0.0, 0.0, 0.0, 0.0, 0.0, 0.0, 0.0, 0.0, 0.0, 1.6541556266547785E9, 0.0, 2022-06-02 09:40:26.654
227.0, 25640.267210038568, -4902.765739293783, -61535.76064536103, -38642.90280853544, -12572.811552621311, -36896.8068834313, -7970.274444851214, -28189.72953435535, -0.016, 0.926, 0.46, 192.0, 0.0, 0.0, 0.0, 0.0, 0.0, 0.0, 0.0, 0.0, 0.0, 1.6541556266547868E9, 0.0, 2022-06-02 09:40:26.654
228.0, 25629.426613977746, -4919.7977685687265, -61555.20666303715, -38662.102957022544, -12586.58022720578, -36913.190712117044, -7983.461974079844, -28191.472970422863, -0.016, 0.926, 0.46, 192.0, 0.0, 0.0, 0.0, 0.0, 0.0, 0.0, 0.0, 0.0, 0.0, 1.6541556266547952E9, 0.0, 2022-06-02 09:40:26.654
229.0, 25628.733709899632, -4922.390570925542, -61559.40879099474, -38670.46250944883, -12595.610331965725, -36916.409363318606, -7999.778747532219, -28194.848083835615, -0.016, 0.926, 0.46, 192.0, 0.0, 0.0, 0.0, 0.0, 0.0, 0.0, 0.0, 0.0, 0.0, 1.654155626654804E9, 0.0, 2022-06-02 09:40:26.654
230.0, 25642.815308906476, -4905.40324513951, -61544.0754942984, -38651.016491772716, -12586.759041161424, -36896.22573807547, -7993.564962573643, -28180.833540062136, -0.016, 0.926, 0.46, 192.0, 0.0, 0.0, 0.0, 0.0, 0.0, 0.0, 0.0, 0.0, 0.0, 1.6541556266548116E9, 0.0, 2022-06-02 09:40:26.654
231.0, 25650.347846787914, -4896.864878757582, -61539.2251657516, -38639.661805589414, -12579.58413119127, -36887.66501994908, -7985.406575847456, -28182.979307529844, -0.016, 0.926, 0.46, 192.0, 0.0, 0.0, 0.0, 0.0, 0.0, 0.0, 0.0, 0.0, 0.0, 1.6541556266548193E9, 0.0, 2022-06-02 09:40:26.654
232.0, 25649.632590965342, -4898.496556102819, -61540.99095356357, -38640.444116645354, -12574.130305544175, -36886.52508098186, -7970.766183229231, -28164.71793230986, -0.016, 0.926, 0.46, 192.0, 0.0, 0.0, 0.0, 0.0, 0.0, 0.0, 0.0, 0.0, 0.0, 1.6541556266548276E9, 0.0, 2022-06-02 09:40:26.654
233.0, 25644.4022827628, -4902.184593937945, -61540.36510471882, -38647.3731574265, -12578.24302652395, -36897.052752620315, -7969.022747161716, -28174.70916208138, -0.016, 0.926, 0.46, 192.0, 0.0, 0.0, 0.0, 0.0, 0.0, 0.0, 0.0, 0.0, 0.0, 1.6541556266548352E9, 0.0, 2022-06-02 09:40:26.654
234.0, 25630.410090733778, -4917.11555923409, -61553.59733743636, -38658.01258778723, -12596.705567444036, -36911.13435162716, -7986.859439237051, -28193.305813468196, -0.016, 0.926, 0.46, 192.0, 0.0, 0.0, 0.0, 0.0, 0.0, 0.0, 0.0, 0.0, 0.0, 1.654155626654843E9, 0.0, 2022-06-02 09:40:26.654
235.0, 25630.25362852259, -4918.479015645864, -61554.73727640358, -38654.95039879685, -12598.314893044817, -36908.00510740341, -7999.15289868747, -28191.495322167317, -0.01, 0.924, 0.462, 192.0, 255.0, 176.0, 28.0, 224.0, 14.0, 112.0, 0.0, 0.0, 0.0, 1.6541556266548567E9, 0.0, 2022-06-02 09:40:26.654
236.0, 25637.74146291512, -4902.184593937945, -61541.527395430494, -38641.20407595683, -12586.848448139244, -36892.91767989608, -7988.781689260208, -28169.52355736775, -0.01, 0.924, 0.462, 192.0, 0.0, 0.0, 0.0, 0.0, 0.0, 0.0, 0.0, 0.0, 0.0, 1.6541556266548648E9, 0.0, 2022-06-02 09:40:26.654
237.0, 25650.772529932565, -4890.248762398811, -61530.440930180666, -38628.2177124283, -12573.035070065866, -36878.12082506667, -7973.917779197429, -28168.94241201191, -0.01, 0.924, 0.462, 192.0, 0.0, 0.0, 0.0, 0.0, 0.0, 0.0, 0.0, 0.0, 0.0, 1.654155626654873E9, 0.0, 2022-06-02 09:40:26.654
238.0, 25645.855146152397, -4902.095186960124, -61549.26109901203, -38642.79104981316, -12586.021433594398, -36896.628069475664, -7995.420157363434, -28181.414685417974, -0.01, 0.924, 0.462, 192.0, 0.0, 0.0, 0.0, 0.0, 0.0, 0.0, 0.0, 0.0, 0.0, 1.6541556266548808E9, 0.0, 2022-06-02 09:40:26.654
239.0, 25621.357634229378, -4920.915355791492, -61575.14441909128, -38664.09226227907, -12610.787166450878, -36919.49390405344, -8021.795215820696, -28200.61483390508, -0.01, 0.924, 0.462, 192.0, 0.0, 0.0, 0.0, 0.0, 0.0, 0.0, 0.0, 0.0, 0.0, 1.6541556266548889E9, 0.0, 2022-06-02 09:40:26.654
240.0, 25626.319721498458, -4905.671466072973, -61556.68187817119, -38647.52961963769, -12595.252704054441, -36898.41620903209, -7995.3083986411575, -28201.575958916663, -0.01, 0.924, 0.462, 192.0, 0.0, 0.0, 0.0, 0.0, 0.0, 0.0, 0.0, 0.0, 0.0, 1.6541556266548965E9, 0.0, 2022-06-02 09:40:26.654
241.0, 25639.775471660552, -4890.069948443169, -61535.6265348943, -38628.19536068384, -12571.425744465083, -36876.37738899915, -7964.954729670851, -28159.442920618407, -0.01, 0.924, 0.462, 192.0, 0.0, 0.0, 0.0, 0.0, 0.0, 0.0, 0.0, 0.0, 0.0, 1.6541556266549044E9, 0.0, 2022-06-02 09:40:26.654
242.0, 25641.854183894895, -4888.617085053574, -61536.431197694685, -38630.89992176294, -12568.20709326352, -36879.43957798953, -7963.367755814524, -28168.38361840053, -0.01, 0.924, 0.462, 192.0, 0.0, 0.0, 0.0, 0.0, 0.0, 0.0, 0.0, 0.0, 0.0, 1.6541556271338997E9, 0.0, 2022-06-02 09:40:27.133
243.0, 25634.65692218029, -4902.721035804872, -61562.158055562744, -38652.0223202732, -12591.229390052486, -36898.72913345446, -7989.742814271786, -28186.130903498044, -0.01, 0.924, 0.462, 192.0, 0.0, 0.0, 0.0, 0.0, 0.0, 0.0, 0.0, 0.0, 0.0, 1.6541556271340113E9, 0.0, 2022-06-02 09:40:27.134
244.0, 25638.032035593038, -4900.552916592707, -61570.60701496685, -38660.27011397721, -12605.087471614775, -36902.77479920087, -8011.87104128254, -28195.764505358282, -0.01, 0.924, 0.462, 192.0, 0.0, 0.0, 0.0, 0.0, 0.0, 0.0, 0.0, 0.0, 0.0, 1.6541556271340306E9, 0.0, 2022-06-02 09:40:27.134
245.0, 25635.97567510315, -4902.564573593685, -61552.435046724684, -38647.641378359964, -12597.219657566508, -36888.40262751611, -8011.669875582443, -28178.933641783435, -0.018000000000000002, 0.912, 0.46, 192.0, 255.0, 112.0, 28.0, 128.0, 14.0, 96.0, 0.0, 0.0, 0.0, 1.6541556271340382E9, 0.0, 2022-06-02 09:40:27.134
246.0, 25620.709433640175, -4915.6850475889505, -61538.97929656259, -38632.2186746858, -12590.49178248546, -36885.67571469256, -8003.913820256451, -28192.411743689987, -0.018000000000000002, 0.912, 0.46, 192.0, 0.0, 0.0, 0.0, 0.0, 0.0, 0.0, 0.0, 0.0, 0.0, 1.6541556271340454E9, 0.0, 2022-06-02 09:40:27.134
247.0, 25614.87562833734, -4920.758893580305, -61545.75187513255, -38641.02526200119, -12590.312968529817, -36893.0070868739, -7998.951732987372, -28177.212557460378, -0.018000000000000002, 0.912, 0.46, 192.0, 0.0, 0.0, 0.0, 0.0, 0.0, 0.0, 0.0, 0.0, 0.0, 1.6541556271340523E9, 0.0, 2022-06-02 09:40:27.134
248.0, 25618.653073150286, -4923.530509892763, -61553.507930458545, -38652.73757609577, -12595.58798022127, -36902.37246780068, -8011.848689538085, -28172.362228913575, -0.018000000000000002, 0.912, 0.46, 192.0, 0.0, 0.0, 0.0, 0.0, 0.0, 0.0, 0.0, 0.0, 0.0, 1.6541556271340594E9, 0.0, 2022-06-02 09:40:27.134
249.0, 25621.804669118486, -4922.055294758713, -61547.91999434472, -38655.486840663776, -12598.985445378477, -36905.14408411313, -8001.343369644091, -28189.70718261089, -0.018000000000000002, 0.912, 0.46, 192.0, 0.0, 0.0, 0.0, 0.0, 0.0, 0.0, 0.0, 0.0, 0.0, 1.6541556271340675E9, 0.0, 2022-06-02 09:40:27.134
250.0, 25631.840602378918, -4905.783224795249, -61526.97640979009, -38638.43245964438, -12584.30034927134, -36892.31418279579, -7977.203485632359, -28203.09587753962, -0.018000000000000002, 0.912, 0.46, 192.0, 0.0, 0.0, 0.0, 0.0, 0.0, 0.0, 0.0, 0.0, 0.0, 1.6541556271340747E9, 0.0, 2022-06-02 09:40:27.134
251.0, 25632.377044245844, -4897.691893302428, -61518.952133530634, -38629.201189184336, -12574.82320962229, -36882.099435579716, -7974.096593153071, -28172.29517368021, -0.018000000000000002, 0.912, 0.46, 192.0, 0.0, 0.0, 0.0, 0.0, 0.0, 0.0, 0.0, 0.0, 0.0, 1.654155627134081E9, 0.0, 2022-06-02 09:40:27.134
252.0, 25637.36148325938, -4891.545163577219, -61514.8170608064, -38627.12247694999, -12565.994270562443, -36879.73015066745, -7970.721479740319, -28153.229135659833, -0.018000000000000002, 0.912, 0.46, 192.0, 0.0, 0.0, 0.0, 0.0, 0.0, 0.0, 0.0, 0.0, 0.0, 1.6541556271340876E9, 0.0, 2022-06-02 09:40:27.134
253.0, 25642.345922272914, -4891.746329277316, -61520.0697207534, -38632.71041306382, -12566.262491495907, -36882.47941523545, -7980.176267644914, -28175.53617662623, -0.018000000000000002, 0.912, 0.46, 192.0, 0.0, 0.0, 0.0, 0.0, 0.0, 0.0, 0.0, 0.0, 0.0, 1.6541556271340952E9, 0.0, 2022-06-02 09:40:27.134
254.0, 25634.12048031336, -4906.364370151087, -61536.18532850568, -38647.306102193135, -12581.10404981423, -36898.95265089902, -8003.600895834076, -28206.694508396926, -0.018000000000000002, 0.912, 0.46, 192.0, 0.0, 0.0, 0.0, 0.0, 0.0, 0.0, 0.0, 0.0, 0.0, 1.6541556271341033E9, 0.0, 2022-06-02 09:40:27.134
255.0, 25628.800765132997, -4906.856108529104, -61530.619744136304, -38645.473259147795, -12578.265378268406, -36898.61737473218, -7977.471706565822, -28182.129941240542, -0.016, 0.912, 0.462, 192.0, 255.0, 128.0, 28.0, 128.0, 14.0, 112.0, 0.0, 0.0, 0.0, 1.6541556271341107E9, 0.0, 2022-06-02 09:40:27.134
0.0, 25624.97861683114, -4904.397416639021, -61522.30489519893, -38640.26530268971, -12571.738668887458, -36891.75538918441, -7961.490209280278, -28160.00171422979, -0.016, 0.912, 0.462, 192.0, 0.0, 0.0, 0.0, 0.0, 0.0, 0.0, 0.0, 0.0, 0.0, 1.6541556271341588E9, 0.0, 2022-06-02 09:40:27.134
1.0, 25631.102994811892, -4900.3070474036995, -61518.59450561935, -38633.44802063084, -12568.564721174804, -36881.69710417952, -7970.520314040222, -28144.28843787771, -0.016, 0.912, 0.462, 192.0, 0.0, 0.0, 0.0, 0.0, 0.0, 0.0, 0.0, 0.0, 0.0, 1.6541556271341703E9, 0.0, 2022-06-02 09:40:27.134
2.0, 25619.45773595068, -4918.2107947124005, -61545.03661930998, -38653.653997618436, -12588.748346417946, -36905.88169168016, -7993.564962573643, -28186.712048853882, -0.016, 0.912, 0.462, 192.0, 0.0, 0.0, 0.0, 0.0, 0.0, 0.0, 0.0, 0.0, 0.0, 1.65415562713418E9, 0.0, 2022-06-02 09:40:27.134
3.0, 25628.97957908864, -4913.494576632331, -61541.08036054139, -38650.725919094795, -12590.268265040906, -36901.4113427891, -7993.877886996018, -28207.29800549722, -0.016, 0.912, 0.462, 192.0, 0.0, 0.0, 0.0, 0.0, 0.0, 0.0, 0.0, 0.0, 0.0, 1.6541556271341863E9, 0.0, 2022-06-02 09:40:27.134
4.0, 25630.67831166724, -4904.2409544278335, -61527.781072590486, -38643.57336086909, -12581.998119592443, -36891.64363046213, -7986.144183414482, -28180.878243551047, -0.016, 0.912, 0.462, 192.0, 0.0, 0.0, 0.0, 0.0, 0.0, 0.0, 0.0, 0.0, 0.0, 1.6541556271341918E9, 0.0, 2022-06-02 09:40:27.134
5.0, 25624.241009264115, -4905.850280028615, -61531.826738336895, -38644.13215448048, -12580.612311436214, -36890.52604323936, -7988.736985771297, -28164.896746265502, -0.016, 0.912, 0.462, 192.0, 0.0, 0.0, 0.0, 0.0, 0.0, 0.0, 0.0, 0.0, 0.0, 1.654155627134198E9, 0.0, 2022-06-02 09:40:27.134
6.0, 25628.711358155175, -4905.582059095152, -61536.49825292805, -38641.47229689029, -12580.321738758295, -36887.79913041581, -7993.67672129592, -28193.305813468196, -0.016, 0.912, 0.462, 192.0, 0.0, 0.0, 0.0, 0.0, 0.0, 0.0, 0.0, 0.0, 0.0, 1.654155627134204E9, 0.0, 2022-06-02 09:40:27.134
7.0, 25621.6482069073, -4921.07181800268, -61558.29120377198, -38668.80848035914, -12597.487878499971, -36907.1110376252, -8012.049855238182, -28199.117267026577, -0.016, 0.912, 0.462, 192.0, 0.0, 0.0, 0.0, 0.0, 0.0, 0.0, 0.0, 0.0, 0.0, 1.6541556271342096E9, 0.0, 2022-06-02 09:40:27.134
8.0, 25611.612273646864, -4932.4712076748865, -61571.61284346734, -38674.08349205059, -12616.486861286981, -36919.98564243146, -8024.767997833253, -28194.66926987997, -0.014, 0.912, 0.464, 192.0, 255.0, 144.0, 28.0, 128.0, 14.0, 128.0, 0.0, 0.0, 0.0, 1.6541556271342163E9, 0.0, 2022-06-02 09:40:27.134
9.0, 25625.917390098264, -4916.757931322805, -61555.54193920398, -38645.87559054799, -12600.72888144599, -36898.662078221096, -8006.417215635445, -28198.893749582025, -0.014, 0.912, 0.464, 192.0, 0.0, 0.0, 0.0, 0.0, 0.0, 0.0, 0.0, 0.0, 0.0, 1.6541556271342225E9, 0.0, 2022-06-02 09:40:27.134
10.0, 25628.107861054883, -4912.108768476101, -61552.01036358003, -38640.108840478526, -12590.000044107443, -36890.07900835026, -7993.877886996018, -28200.324261227164, -0.014, 0.912, 0.464, 192.0, 0.0, 0.0, 0.0, 0.0, 0.0, 0.0, 0.0, 0.0, 0.0, 1.6541556271342316E9, 0.0, 2022-06-02 09:40:27.134
11.0, 25633.74050065762, -4910.92412601997, -61554.334945003386, -38642.321663179595, -12583.339224259762, -36891.48716825094, -7978.566942044133, -28184.14159824152, -0.014, 0.912, 0.464, 192.0, 0.0, 0.0, 0.0, 0.0, 0.0, 0.0, 0.0, 0.0, 0.0, 1.6541556271342368E9, 0.0, 2022-06-02 09:40:27.134
12.0, 25629.717186655664, -4919.149567979523, -61569.95881437765, -38655.08450926358, -12590.603541207736, -36904.49588352393, -7985.920665969928, -28174.060961492178, -0.014, 0.912, 0.464, 192.0, 0.0, 0.0, 0.0, 0.0, 0.0, 0.0, 0.0, 0.0, 0.0, 1.654155627134242E9, 0.0, 2022-06-02 09:40:27.134
13.0, 25622.07289005195, -4924.804559326716, -61579.48065751561, -38660.04659653266, -12599.991273878966, -36910.195578360035, -8004.4055586344675, -28209.711993898392, -0.014, 0.912, 0.464, 192.0, 0.0, 0.0, 0.0, 0.0, 0.0, 0.0, 0.0, 0.0, 0.0, 1.6541556271342475E9, 0.0, 2022-06-02 09:40:27.134
14.0, 25633.18170704624, -4909.538317863741, -61563.85678814135, -38643.97569226929, -12584.188590549064, -36889.90019439461, -7989.049910193671, -28195.742153613824, -0.014, 0.912, 0.464, 192.0, 0.0, 0.0, 0.0, 0.0, 0.0, 0.0, 0.0, 0.0, 0.0, 1.6541556271342528E9, 0.0, 2022-06-02 09:40:27.134
15.0, 25634.16518380227, -4902.788091038238, -61563.99089860808, -38642.03109050168, -12578.690061413057, -36886.72624668196, -7980.444488578379, -28165.90257476599, -0.014, 0.912, 0.464, 192.0, 0.0, 0.0, 0.0, 0.0, 0.0, 0.0, 0.0, 0.0, 0.0, 1.6541556271342587E9, 0.0, 2022-06-02 09:40:27.134
16.0, 25631.550029701, -4911.482919631353, -61566.5837009649, -38642.92516027989, -12576.812514878811, -36890.14606358362, -7982.38909034599, -28175.647935348505, -0.014, 0.912, 0.464, 192.0, 0.0, 0.0, 0.0, 0.0, 0.0, 0.0, 0.0, 0.0, 0.0, 1.6541556271342638E9, 0.0, 2022-06-02 09:40:27.134
17.0, 25625.69387265371, -4925.564518638196, -61583.74984070657, -38656.60442788654, -12584.121535315697, -36907.62512774767, -7995.509564341255, -28219.949092858922, -0.014, 0.912, 0.464, 192.0, 0.0, 0.0, 0.0, 0.0, 0.0, 0.0, 0.0, 0.0, 0.0, 1.6541556271342695E9, 0.0, 2022-06-02 09:40:27.134
18.0, 25621.379985973836, -4928.7161146063945, -61597.85379145787, -38667.69089313637, -12601.242971568463, -36920.70089825403, -8022.286954198713, -28242.77022394779, -0.012, 0.916, 0.462, 192.0, 255.0, 160.0, 28.0, 160.0, 14.0, 112.0, 0.0, 0.0, 0.0, 1.6541556271342752E9, 0.0, 2022-06-02 09:40:27.134
19.0, 25625.269189509057, -4922.256460458811, -61589.27072158703, -38655.15156449695, -12593.218695309008, -36909.12269462618, -7997.230648664314, -28187.53906339873, -0.012, 0.916, 0.462, 192.0, 0.0, 0.0, 0.0, 0.0, 0.0, 0.0, 0.0, 0.0, 0.0, 1.6541556271342807E9, 0.0, 2022-06-02 09:40:27.134
20.0, 25633.092300068416, -4915.841509800138, -61574.00448012406, -38641.96403526831, -12579.047689324343, -36893.38706652964, -7987.217067148336, -28151.262182147766, -0.012, 0.916, 0.462, 192.0, 0.0, 0.0, 0.0, 0.0, 0.0, 0.0, 0.0, 0.0, 0.0, 1.654155627134287E9, 0.0, 2022-06-02 09:40:27.134
21.0, 25643.619971706867, -4909.538317863741, -61563.85678814135, -38639.63945384496, -12573.169180532597, -36889.430807761055, -7993.922590484928, -28159.91230725197, -0.012, 0.916, 0.462, 192.0, 0.0, 0.0, 0.0, 0.0, 0.0, 0.0, 0.0, 0.0, 0.0, 1.6541556271342924E9, 0.0, 2022-06-02 09:40:27.134
22.0, 25643.239992051127, -4916.869690045081, -61572.506913245554, -38647.26139870422, -12576.030203822877, -36897.052752620315, -7998.795270776185, -28183.67221160796, -0.012, 0.916, 0.462, 192.0, 0.0, 0.0, 0.0, 0.0, 0.0, 0.0, 0.0, 0.0, 0.0, 1.654155627134301E9, 0.0, 2022-06-02 09:40:27.134
23.0, 25628.666654666264, -4930.92893730747, -61590.76828846554, -38660.49363142176, -12592.771660419901, -36917.459895308006, -8000.6504655659755, -28208.86262760909, -0.012, 0.916, 0.462, 192.0, 0.0, 0.0, 0.0, 0.0, 0.0, 0.0, 0.0, 0.0, 0.0, 1.6541556271343062E9, 0.0, 2022-06-02 09:40:27.134
24.0, 25621.02235806255, -4935.958079809914, -61590.343605320886, -38659.71132036583, -12592.816363908812, -36916.342308085244, -7987.373529359524, -28194.356345457596, -0.012, 0.916, 0.462, 192.0, 0.0, 0.0, 0.0, 0.0, 0.0, 0.0, 0.0, 0.0, 0.0, 1.6541556271343112E9, 0.0, 2022-06-02 09:40:27.134
25.0, 25625.246837764604, -4927.129140750068, -61576.57493073642, -38649.42951791639, -12579.226503279986, -36898.9079474101, -7979.148087399971, -28181.168816228965, -0.012, 0.916, 0.462, 192.0, 0.0, 0.0, 0.0, 0.0, 0.0, 0.0, 0.0, 0.0, 0.0, 1.6541556271343164E9, 0.0, 2022-06-02 09:40:27.134
26.0, 25627.146736043305, -4925.966850038391, -61575.47969525811, -38640.60057885654, -12579.539427702359, -36896.51631075339, -7980.444488578379, -28174.686810336927, -0.012, 0.916, 0.462, 192.0, 0.0, 0.0, 0.0, 0.0, 0.0, 0.0, 0.0, 0.0, 0.0, 1.6541556271343217E9, 0.0, 2022-06-02 09:40:27.134
27.0, 25628.82311687745, -4933.521739664286, -61584.80037269597, -38646.7696603262, -12586.960206861522, -36903.42299979008, -7996.448337608378, -28173.47981613634, -0.012, 0.916, 0.462, 192.0, 0.0, 0.0, 0.0, 0.0, 0.0, 0.0, 0.0, 0.0, 0.0, 1.6541556271343267E9, 0.0, 2022-06-02 09:40:27.134
28.0, 25623.905733097286, -4941.613071157107, -61593.338739077895, -38656.2244482308, -12599.186611078574, -36911.804903960816, -8001.276314410725, -28186.68969710943, -0.018000000000000002, 0.916, 0.458, 192.0, 255.0, 112.0, 28.0, 160.0, 14.0, 80.0, 0.0, 0.0, 0.0, 1.654155627134333E9, 0.0, 2022-06-02 09:40:27.134
29.0, 25627.79493663251, -4929.811350084705, -61580.978224394115, -38645.02622425869, -12591.899942386144, -36898.39385728763, -7989.184020660404, -28192.277633223253, -0.018000000000000002, 0.916, 0.458, 192.0, 0.0, 0.0, 0.0, 0.0, 0.0, 0.0, 0.0, 0.0, 0.0, 1.6541556271343384E9, 0.0, 2022-06-02 09:40:27.134
30.0, 25631.907657612286, -4921.9658877808915, -61572.61867196783, -38637.9183695219, -12584.769735904902, -36890.23547056144, -7981.942055456884, -28175.558528370682, -0.018000000000000002, 0.916, 0.458, 192.0, 0.0, 0.0, 0.0, 0.0, 0.0, 0.0, 0.0, 0.0, 0.0, 1.6541556271343434E9, 0.0, 2022-06-02 09:40:27.134
31.0, 25630.275980267048, -4924.089303504146, -61576.82079992543, -38638.03012824418, -12586.58022720578, -36894.83992991924, -7981.562075801144, -28163.756807298283, -0.018000000000000002, 0.916, 0.458, 192.0, 0.0, 0.0, 0.0, 0.0, 0.0, 0.0, 0.0, 0.0, 0.0, 1.6541556271343484E9, 0.0, 2022-06-02 09:40:27.134
32.0, 25630.991236089616, -4927.844396572637, -61574.116238846334, -38640.377061411986, -12583.719203915502, -36897.4103805316, -7987.999378204272, -28188.09785701011, -0.018000000000000002, 0.916, 0.458, 192.0, 0.0, 0.0, 0.0, 0.0, 0.0, 0.0, 0.0, 0.0, 0.0, 1.6541556271343546E9, 0.0, 2022-06-02 09:40:27.134
33.0, 25620.709433640175, -4937.545053666241, -61583.034584884, -38649.45186966084, -12593.978654620489, -36901.88072942266, -8000.1810789324145, -28173.613926603073, -0.018000000000000002, 0.916, 0.458, 192.0, 0.0, 0.0, 0.0, 0.0, 0.0, 0.0, 0.0, 0.0, 0.0, 1.6541556271343596E9, 0.0, 2022-06-02 09:40:27.134
34.0, 25619.614198161868, -4931.152454752023, -61565.28729978649, -38635.86200903202, -12587.966035362011, -36887.73207518245, -7993.229686406814, -28157.81124327317, -0.018000000000000002, 0.916, 0.458, 192.0, 0.0, 0.0, 0.0, 0.0, 0.0, 0.0, 0.0, 0.0, 0.0, 1.6541556271343648E9, 0.0, 2022-06-02 09:40:27.134
35.0, 25615.613235904366, -4933.700553619928, -61561.822779395916, -38636.19728519885, -12586.088488827765, -36885.92158388157, -7997.208296919859, -28174.887976037026, -0.018000000000000002, 0.916, 0.458, 192.0, 0.0, 0.0, 0.0, 0.0, 0.0, 0.0, 0.0, 0.0, 0.0, 1.65415562713437E9, 0.0, 2022-06-02 09:40:27.134
36.0, 25614.428593448236, -4937.8132745997045, -61565.01907885302, -38645.65207310344, -12582.15458180363, -36891.46481650649, -7987.038253192694, -28179.648897606006, -0.018000000000000002, 0.916, 0.458, 192.0, 0.0, 0.0, 0.0, 0.0, 0.0, 0.0, 0.0, 0.0, 0.0, 1.654155627134375E9, 0.0, 2022-06-02 09:40:27.134
37.0, 25614.518000426055, -4942.104809535123, -61565.309651530944, -38657.36438719802, -12577.214846279008, -36898.39385728763, -7965.334709326591, -28175.938508026426, -0.018000000000000002, 0.916, 0.458, 192.0, 0.0, 0.0, 0.0, 0.0, 0.0, 0.0, 0.0, 0.0, 0.0, 1.65415562713438E9, 0.0, 2022-06-02 09:40:27.134
38.0, 25612.059308535972, -4949.212664271911, -61568.97533762162, -38657.25262847574, -12582.601616692737, -36902.55128175632, -7979.505715311256, -28192.81407509018, -0.014, 0.924, 0.458, 192.0, 255.0, 144.0, 28.0, 224.0, 14.0, 80.0, 0.0, 0.0, 0.0, 1.6541556271343853E9, 0.0, 2022-06-02 09:40:27.134
39.0, 25606.337261955414, -4951.514893950808, -61571.411677767246, -38661.16418375542, -12585.596750449748, -36906.887520180644, -7998.616456820543, -28202.134752528043, -0.014, 0.924, 0.458, 192.0, 0.0, 0.0, 0.0, 0.0, 0.0, 0.0, 0.0, 0.0, 0.0, 1.6541556271343906E9, 0.0, 2022-06-02 09:40:27.134
40.0, 25605.39848868829, -4942.998879313335, -61565.35435501985, -38651.59763712855, -12579.58413119127, -36896.94099389804, -7982.38909034599, -28156.023103716747, -0.014, 0.924, 0.458, 192.0, 0.0, 0.0, 0.0, 0.0, 0.0, 0.0, 0.0, 0.0, 0.0, 1.6541556271343968E9, 0.0, 2022-06-02 09:40:27.134
41.0, 25613.936855070217, -4936.472169932386, -61556.45836072664, -38638.03012824418, -12570.419915964594, -36877.763197155386, -7972.0625844076385, -28130.787984226703, -0.014, 0.924, 0.458, 192.0, 0.0, 0.0, 0.0, 0.0, 0.0, 0.0, 0.0, 0.0, 0.0, 1.6541556271344037E9, 0.0, 2022-06-02 09:40:27.134
42.0, 25617.200209760693, -4942.5741961686845, -61561.42044799572, -38643.34984342454, -12568.63177640817, -36886.10039783721, -7972.464915807834, -28178.307792938685, -0.014, 0.924, 0.458, 192.0, 0.0, 0.0, 0.0, 0.0, 0.0, 0.0, 0.0, 0.0, 0.0, 1.6541556271344173E9, 0.0, 2022-06-02 09:40:27.134
43.0, 25610.807610846474, -4949.279719505277, -61569.89175914428, -38652.469355162306, -12580.589959691759, -36900.09258986623, -7969.2462646062695, -28189.72953435535, -0.014, 0.924, 0.458, 192.0, 0.0, 0.0, 0.0, 0.0, 0.0, 0.0, 0.0, 0.0, 0.0, 1.654155627134432E9, 0.0, 2022-06-02 09:40:27.134
44.0, 25605.77846834403, -4945.032888058769, -61570.85288415586, -38652.98344528478, -12579.58413119127, -36898.97500264347, -7978.00814843275, -28160.76167354127, -0.014, 0.924, 0.458, 192.0, 0.0, 0.0, 0.0, 0.0, 0.0, 0.0, 0.0, 0.0, 0.0, 1.6541556271344373E9, 0.0, 2022-06-02 09:40:27.134
45.0, 25607.92423581174, -4940.562539167708, -61565.55552071995, -38649.89890454995, -12573.280939254873, -36892.560051984794, -7984.1548781579595, -28156.0454554612, -0.014, 0.924, 0.458, 192.0, 0.0, 0.0, 0.0, 0.0, 0.0, 0.0, 0.0, 0.0, 0.0, 1.6541556271344423E9, 0.0, 2022-06-02 09:40:27.134
46.0, 25617.289616738515, -4935.891024576548, -61573.75861093505, -38657.632608131484, -12579.427668980083, -36900.51727301088, -7970.8332384625965, -28186.957918042892, -0.014, 0.924, 0.458, 192.0, 0.0, 0.0, 0.0, 0.0, 0.0, 0.0, 0.0, 0.0, 0.0, 1.6541556271344476E9, 0.0, 2022-06-02 09:40:27.134
47.0, 25618.697776639197, -4934.8181408426935, -61582.54284650599, -38665.65688439094, -12585.507343471927, -36912.140180127644, -7976.823505976618, -28188.76840934377, -0.014, 0.924, 0.458, 192.0, 0.0, 0.0, 0.0, 0.0, 0.0, 0.0, 0.0, 0.0, 0.0, 1.6541556271344528E9, 0.0, 2022-06-02 09:40:27.134
48.0, 25607.87953232283, -4947.268062504299, -61585.29211107399, -38656.91735230891, -12591.9222941306, -36910.79907546032, -7998.102366698071, -28196.166836758475, -0.012, 0.914, 0.454, 192.0, 255.0, 160.0, 28.0, 144.0, 14.0, 48.0, 0.0, 0.0, 0.0, 1.654155627134458E9, 0.0, 2022-06-02 09:40:27.134
49.0, 25613.26630273656, -4938.975565311381, -61570.15998007775, -38639.99708175625, -12580.947587603045, -36892.090665351236, -7995.844840508085, -28178.799531316705, -0.012, 0.914, 0.454, 192.0, 0.0, 0.0, 0.0, 0.0, 0.0, 0.0, 0.0, 0.0, 0.0, 1.654155627134463E9, 0.0, 2022-06-02 09:40:27.134
50.0, 25611.053480035484, -4937.88032983307, -61558.402962494256, -38635.01264274272, -12575.136134044664, -36881.89826987962, -7990.167497416437, -28142.634408788017, -0.012, 0.914, 0.454, 192.0, 0.0, 0.0, 0.0, 0.0, 0.0, 0.0, 0.0, 0.0, 0.0, 1.6541556271344683E9, 0.0, 2022-06-02 09:40:27.134
51.0, 25603.945625298697, -4945.256405503322, -61567.12014283182, -38644.154506224935, -12582.221637036997, -36889.81078741679, -7992.9614654733505, -28158.72766479584, -0.012, 0.914, 0.454, 192.0, 0.0, 0.0, 0.0, 0.0, 0.0, 0.0, 0.0, 0.0, 0.0, 1.6541556271344733E9, 0.0, 2022-06-02 09:40:27.134
52.0, 25602.4927619091, -4950.889045106059, -61579.301843559966, -38652.89403830696, -12586.267302783406, -36901.098418366724, -7987.395881103979, -28187.181435487444, -0.012, 0.914, 0.454, 192.0, 0.0, 0.0, 0.0, 0.0, 0.0, 0.0, 0.0, 0.0, 0.0, 1.6541556271344783E9, 0.0, 2022-06-02 09:40:27.134
53.0, 25603.655052620776, -4948.6762224049835, -61576.86550341434, -38650.63651211697, -12587.027262094887, -36904.518235268384, -7978.72340425532, -28189.036630277235, -0.012, 0.914, 0.454, 192.0, 0.0, 0.0, 0.0, 0.0, 0.0, 0.0, 0.0, 0.0, 0.0, 1.6541556271344836E9, 0.0, 2022-06-02 09:40:27.134
54.0, 25607.07486952244, -4939.98139381187, -61569.936462633195, -38643.12632597999, -12580.657014925126, -36899.3102788103, -7976.130601898504, -28183.694563352416, -0.012, 0.914, 0.454, 192.0, 0.0, 0.0, 0.0, 0.0, 0.0, 0.0, 0.0, 0.0, 0.0, 1.6541556271344888E9, 0.0, 2022-06-02 09:40:27.134
55.0, 25606.963110800163, -4935.801617598727, -61566.69545968717, -38639.61710210051, -12576.968977089999, -36887.08387459325, -7977.136430398993, -28152.93856298191, -0.012, 0.914, 0.454, 192.0, 0.0, 0.0, 0.0, 0.0, 0.0, 0.0, 0.0, 0.0, 0.0, 1.654155627134494E9, 0.0, 2022-06-02 09:40:27.134
56.0, 25605.242026477103, -4939.556710667219, -61572.75278243456, -38642.120497479504, -12579.360613746718, -36891.956554884506, -7975.035366420194, -28164.00267648729, -0.012, 0.914, 0.454, 192.0, 0.0, 0.0, 0.0, 0.0, 0.0, 0.0, 0.0, 0.0, 0.0, 1.6541556271344993E9, 0.0, 2022-06-02 09:40:27.134
57.0, 25596.793067073, -4956.387574242065, -61586.74497446358, -38656.47031741981, -12585.686157427568, -36911.1119998827, -7980.91387521194, -28192.61290939008, -0.012, 0.914, 0.454, 192.0, 0.0, 0.0, 0.0, 0.0, 0.0, 0.0, 0.0, 0.0, 0.0, 1.6541556271345043E9, 0.0, 2022-06-02 09:40:27.134
58.0, 25601.30811945297, -4951.69370790645, -61586.700270974674, -38650.591808628065, -12589.083622584776, -36908.34038357024, -7991.4862503393, -28190.33303145564, -0.012, 0.914, 0.458, 192.0, 255.0, 160.0, 28.0, 144.0, 14.0, 80.0, 0.0, 0.0, 0.0, 1.6541556271345108E9, 0.0, 2022-06-02 09:40:27.134
59.0, 25610.315872468458, -4941.009574056813, -61576.75374469206, -38636.4208026434, -12582.333395759273, -36900.740790455435, -7984.356043858057, -28174.306830681187, -0.012, 0.914, 0.458, 192.0, 0.0, 0.0, 0.0, 0.0, 0.0, 0.0, 0.0, 0.0, 0.0, 1.6541556271345172E9, 0.0, 2022-06-02 09:40:27.134
60.0, 25615.07679403744, -4927.442065172442, -61559.49819797256, -38624.52967459318, -12568.765886874902, -36884.42401700306, -7975.884732709495, -28139.683978519915, -0.012, 0.914, 0.458, 192.0, 0.0, 0.0, 0.0, 0.0, 0.0, 0.0, 0.0, 0.0, 0.0, 1.654155627134523E9, 0.0, 2022-06-02 09:40:27.134
61.0, 25607.410145689268, -4933.901719320026, -61561.77807590701, -38625.69196530485, -12571.068116553799, -36880.400703001105, -7983.976064202317, -28142.589705299106, -0.012, 0.914, 0.458, 192.0, 0.0, 0.0, 0.0, 0.0, 0.0, 0.0, 0.0, 0.0, 0.0, 1.654155627134528E9, 0.0, 2022-06-02 09:40:27.134
62.0, 25597.553026384478, -4948.206835771422, -61578.96656739314, -38643.30513993563, -12581.171105047597, -36901.63486023365, -7993.855535251562, -28190.936528555936, -0.012, 0.914, 0.458, 192.0, 0.0, 0.0, 0.0, 0.0, 0.0, 0.0, 0.0, 0.0, 0.0, 1.654155627134534E9, 0.0, 2022-06-02 09:40:27.134
63.0, 25604.97380554364, -4945.524626436785, -61583.034584884, -38646.92612253739, -12588.54718071785, -36909.03328764836, -8004.763186545752, -28198.893749582025, -0.012, 0.914, 0.458, 192.0, 0.0, 0.0, 0.0, 0.0, 0.0, 0.0, 0.0, 0.0, 0.0, 1.65415562713454E9, 0.0, 2022-06-02 09:40:27.134
64.0, 25602.202189231182, -4946.128123537079, -61576.19495108068, -38645.49561089225, -12593.822192409301, -36906.418133547086, -7993.810831762652, -28171.535214368727, -0.012, 0.914, 0.458, 192.0, 0.0, 0.0, 0.0, 0.0, 0.0, 0.0, 0.0, 0.0, 0.0, 1.6541556271345503E9, 0.0, 2022-06-02 09:40:27.134
65.0, 25601.26341596406, -4942.328326979677, -61565.91314863124, -38637.13605846597, -12582.109878314719, -36896.73982819794, -7969.536837284189, -28153.407949615474, -0.012, 0.914, 0.458, 192.0, 0.0, 0.0, 0.0, 0.0, 0.0, 0.0, 0.0, 0.0, 0.0, 1.6541556271345563E9, 0.0, 2022-06-02 09:40:27.134
66.0, 25607.87953232283, -4932.3594489526095, -61557.50889271604, -38626.47427636079, -12569.43643920856, -36888.29086879383, -7971.235569862792, -28179.67124935046, -0.012, 0.914, 0.458, 192.0, 0.0, 0.0, 0.0, 0.0, 0.0, 0.0, 0.0, 0.0, 0.0, 1.6541556271345615E9, 0.0, 2022-06-02 09:40:27.134
67.0, 25606.82900033343, -4938.886158333559, -61560.59343345087, -38635.772602054196, -12573.213884021508, -36896.896290409124, -7981.606779290054, -28175.245603948308, -0.012, 0.914, 0.458, 192.0, 0.0, 0.0, 0.0, 0.0, 0.0, 0.0, 0.0, 0.0, 0.0, 1.6541556271345673E9, 0.0, 2022-06-02 09:40:27.134
68.0, 25611.500514924588, -4937.366239710598, -61557.41948573822, -38635.12440146499, -12574.912616600112, -36897.2092148315, -7977.695224010376, -28149.362283869064, -0.008, 0.924, 0.46, 192.0, 255.0, 192.0, 28.0, 224.0, 14.0, 96.0, 0.0, 0.0, 0.0, 1.6541556271345725E9, 0.0, 2022-06-02 09:40:27.134
69.0, 25610.248817235093, -4935.891024576548, -61555.51958745952, -38637.02429974369, -12571.604558420726, -36888.78260717185, -7977.024671676716, -28163.28742066472, -0.008, 0.924, 0.46, 192.0, 0.0, 0.0, 0.0, 0.0, 0.0, 0.0, 0.0, 0.0, 0.0, 1.6541556271345787E9, 0.0, 2022-06-02 09:40:27.134
70.0, 25608.795953845496, -4935.287527476255, -61555.56429094843, -38634.47620087578, -12571.15752353162, -36884.64753444762, -7969.268616350725, -28160.71697005236, -0.008, 0.924, 0.46, 192.0, 0.0, 0.0, 0.0, 0.0, 0.0, 0.0, 0.0, 0.0, 0.0, 1.6541556271345844E9, 0.0, 2022-06-02 09:40:27.134
71.0, 25612.81926784745, -4928.671411117484, -61549.9763548346, -38625.44609611584, -12564.563758917304, -36880.64657219012, -7956.729287711298, -28158.079464206632, -0.008, 0.924, 0.46, 192.0, 0.0, 0.0, 0.0, 0.0, 0.0, 0.0, 0.0, 0.0, 0.0, 1.6541556271345897E9, 0.0, 2022-06-02 09:40:27.134
72.0, 25604.83969507691, -4935.734562365361, -61561.532206717995, -38635.191456698354, -12572.63273866567, -36888.06735134928, -7964.775915715208, -28147.529440823728, -0.008, 0.924, 0.46, 192.0, 0.0, 0.0, 0.0, 0.0, 0.0, 0.0, 0.0, 0.0, 0.0, 1.654155627134596E9, 0.0, 2022-06-02 09:40:27.134
73.0, 25589.707564080665, -4953.146571296045, -61581.93934940569, -38653.40812842943, -12592.548142975349, -36904.96527015749, -7992.760299773253, -28180.118284239565, -0.008, 0.924, 0.46, 192.0, 0.0, 0.0, 0.0, 0.0, 0.0, 0.0, 0.0, 0.0, 0.0, 1.654155627134602E9, 0.0, 2022-06-02 09:40:27.134
74.0, 25598.670613607243, -4936.919204821492, -61562.00159335156, -38639.70650907833, -12582.8698376262, -36889.67667695006, -7989.765166016241, -28193.506979168294, -0.008, 0.924, 0.46, 192.0, 0.0, 0.0, 0.0, 0.0, 0.0, 0.0, 0.0, 0.0, 0.0, 1.6541556271346076E9, 0.0, 2022-06-02 09:40:27.134
75.0, 25603.275072965036, -4926.078608760668, -61550.80336937945, -38623.456790859316, -12568.564721174804, -36873.65047617561, -7962.406630802946, -28154.659647304972, -0.008, 0.924, 0.46, 192.0, 0.0, 0.0, 0.0, 0.0, 0.0, 0.0, 0.0, 0.0, 0.0, 1.6541556271346133E9, 0.0, 2022-06-02 09:40:27.134
76.0, 25606.516075911055, -4928.380838439565, -61551.09394205737, -38622.29450014764, -12564.787276361856, -36866.207345271985, -7958.606834245544, -28134.61013252856, -0.008, 0.924, 0.46, 192.0, 0.0, 0.0, 0.0, 0.0, 0.0, 0.0, 0.0, 0.0, 0.0, 1.6541556271346188E9, 0.0, 2022-06-02 09:40:27.134
77.0, 25600.346994441392, -4942.842417102149, -61568.32713703241, -38637.583093355075, -12577.907750357122, -36882.993505357925, -7991.82152650613, -28164.62852533204, -0.008, 0.924, 0.46, 192.0, 0.0, 0.0, 0.0, 0.0, 0.0, 0.0, 0.0, 0.0, 0.0, 1.654155627134624E9, 0.0, 2022-06-02 09:40:27.134
78.0, 25595.988404272608, -4950.442010216953, -61581.08998311639, -38642.90280853544, -12593.06223309782, -36895.04109561934, -8007.378340647023, -28170.57408935715, -0.018000000000000002, 0.924, 0.456, 192.0, 255.0, 112.0, 28.0, 224.0, 14.0, 64.0, 0.0, 0.0, 0.0, 1.6541556271346297E9, 0.0, 2022-06-02 09:40:27.134
79.0, 25598.58120662942, -4939.109675778112, -61568.70711668815, -38636.15258170993, -12589.217733051508, -36886.6591914486, -7983.640788035487, -28159.62173457405, -0.018000000000000002, 0.924, 0.456, 192.0, 0.0, 0.0, 0.0, 0.0, 0.0, 0.0, 0.0, 0.0, 0.0, 1.6541556271346352E9, 0.0, 2022-06-02 09:40:27.134
80.0, 25591.92038678174, -4938.528530422274, -61564.32617477491, -38631.12343920749, -12582.199285292541, -36883.03820884683, -7964.798267459663, -28151.843327503604, -0.018000000000000002, 0.924, 0.456, 192.0, 0.0, 0.0, 0.0, 0.0, 0.0, 0.0, 0.0, 0.0, 0.0, 1.6541556271346407E9, 0.0, 2022-06-02 09:40:27.134
81.0, 25594.4908373941, -4936.159245510012, -61559.20762529464, -38626.20605542732, -12574.398526477638, -36880.17718555655, -7968.933340183895, -28163.466234620362, -0.018000000000000002, 0.924, 0.456, 192.0, 0.0, 0.0, 0.0, 0.0, 0.0, 0.0, 0.0, 0.0, 0.0, 1.6541556271346464E9, 0.0, 2022-06-02 09:40:27.134
82.0, 25591.227482703627, -4946.955138081925, -61570.53995973348, -38642.58988411306, -12581.148753303141, -36893.45412176301, -7975.840029220585, -28184.298060452707, -0.018000000000000002, 0.924, 0.456, 192.0, 0.0, 0.0, 0.0, 0.0, 0.0, 0.0, 0.0, 0.0, 0.0, 1.6541556271346529E9, 0.0, 2022-06-02 09:40:27.134
83.0, 25589.953433269675, -4955.247635274844, -61583.10164011737, -38650.65886386143, -12594.671558698603, -36907.960403914505, -7988.602875304566, -28197.753810614802, -0.018000000000000002, 0.924, 0.456, 192.0, 0.0, 0.0, 0.0, 0.0, 0.0, 0.0, 0.0, 0.0, 0.0, 1.654155627134658E9, 0.0, 2022-06-02 09:40:27.134
84.0, 25591.58511061491, -4953.861827118615, -61580.978224394115, -38645.13798298097, -12595.431518010082, -36902.707743967505, -7994.637846307498, -28156.85011826159, -0.018000000000000002, 0.924, 0.456, 192.0, 0.0, 0.0, 0.0, 0.0, 0.0, 0.0, 0.0, 0.0, 0.0, 1.6541556271346636E9, 0.0, 2022-06-02 09:40:27.134
85.0, 25593.373250171335, -4941.724829879383, -61569.17650332171, -38629.00002348424, -12584.680328927081, -36881.09360707922, -7981.830296734607, -28139.549868053185, -0.018000000000000002, 0.924, 0.456, 192.0, 0.0, 0.0, 0.0, 0.0, 0.0, 0.0, 0.0, 0.0, 0.0, 1.6541556271346688E9, 0.0, 2022-06-02 09:40:27.134
86.0, 25602.939796798208, -4928.917280306492, -61561.08517182889, -38618.60646231252, -12571.090468298253, -36874.253973275896, -7971.615549518532, -28157.543022339705, -0.018000000000000002, 0.924, 0.456, 192.0, 0.0, 0.0, 0.0, 0.0, 0.0, 0.0, 0.0, 0.0, 0.0, 1.6541556271346767E9, 0.0, 2022-06-02 09:40:27.134
87.0, 25604.97380554364, -4934.371105953587, -61567.477770743106, -38630.49759036274, -12572.20805552102, -36888.514386238385, -7980.042157178183, -28200.659537393993, -0.018000000000000002, 0.924, 0.456, 192.0, 0.0, 0.0, 0.0, 0.0, 0.0, 0.0, 0.0, 0.0, 0.0, 1.6541556271346831E9, 0.0, 2022-06-02 09:40:27.134
88.0, 25600.25758746357, -4942.842417102149, -61575.300881302464, -38644.64624460295, -12587.519000472905, -36903.40064804562, -7990.05573869416, -28207.83444736415, -0.012, 0.918, 0.456, 192.0, 255.0, 160.0, 28.0, 176.0, 14.0, 64.0, 0.0, 0.0, 0.0, 1.6541556271346886E9, 0.0, 2022-06-02 09:40:27.134
89.0, 25597.105991495373, -4939.757876367316, -61572.66337545674, -38640.60057885654, -12588.815401651313, -36897.83506367625, -7990.994511961283, -28146.90359197898, -0.012, 0.918, 0.456, 192.0, 0.0, 0.0, 0.0, 0.0, 0.0, 0.0, 0.0, 0.0, 0.0, 1.6541556271346943E9, 0.0, 2022-06-02 09:40:27.134
90.0, 25605.420840432747, -4924.804559326716, -61554.60316593685, -38624.95435773783, -12572.900959599134, -36874.38808374263, -7980.936226956395, -28150.770443769747, -0.012, 0.918, 0.456, 192.0, 0.0, 0.0, 0.0, 0.0, 0.0, 0.0, 0.0, 0.0, 0.0, 1.6541556271347003E9, 0.0, 2022-06-02 09:40:27.134
91.0, 25607.67836662273, -4925.855091316115, -61553.61968918082, -38631.74928805224, -12567.670651396591, -36874.49984246491, -7981.115040912037, -28164.583821843127, -0.012, 0.918, 0.456, 192.0, 0.0, 0.0, 0.0, 0.0, 0.0, 0.0, 0.0, 0.0, 0.0, 1.654155627134706E9, 0.0, 2022-06-02 09:40:27.134
92.0, 25601.4422299197, -4943.490617691353, -61570.67407020022, -38635.95141600983, -12574.689099155557, -36892.58240372925, -7974.744793742275, -28149.451690846887, -0.012, 0.918, 0.456, 192.0, 0.0, 0.0, 0.0, 0.0, 0.0, 0.0, 0.0, 0.0, 0.0, 1.6541556271347115E9, 0.0, 2022-06-02 09:40:27.134
93.0, 25587.673555335234, -4961.103792322135, -61586.364994807846, -38648.98248302728, -12593.822192409301, -36909.16739811509, -7981.29385486768, -28168.405970144984, -0.012, 0.918, 0.456, 192.0, 0.0, 0.0, 0.0, 0.0, 0.0, 0.0, 0.0, 0.0, 0.0, 1.6541556271347172E9, 0.0, 2022-06-02 09:40:27.134
94.0, 25582.890282021795, -4963.137801067567, -61579.54771274897, -38651.061195261624, -12595.744442432457, -36908.653307992616, -8000.24813416578, -28197.262072236786, -0.012, 0.918, 0.456, 192.0, 0.0, 0.0, 0.0, 0.0, 0.0, 0.0, 0.0, 0.0, 0.0, 1.6541556271347227E9, 0.0, 2022-06-02 09:40:27.134
95.0, 25587.651203590776, -4953.6606614185175, -61568.57300622142, -38644.80270681414, -12583.450982982038, -36893.05179036281, -7988.982854960305, -28196.54681641422, -0.012, 0.918, 0.456, 192.0, 0.0, 0.0, 0.0, 0.0, 0.0, 0.0, 0.0, 0.0, 0.0, 1.6541556271347308E9, 0.0, 2022-06-02 09:40:27.134
96.0, 25596.502494395078, -4946.016364814802, -61566.40488700925, -38643.97569226929, -12581.01464283641, -36889.11788333868, -7976.085898409593, -28189.70718261089, -0.012, 0.918, 0.456, 192.0, 0.0, 0.0, 0.0, 0.0, 0.0, 0.0, 0.0, 0.0, 0.0, 1.654155627134736E9, 0.0, 2022-06-02 09:40:27.134
97.0, 25600.592863630398, -4948.6762224049835, -61569.24355855508, -38639.84061954506, -12576.63370092317, -36895.68929620854, -7965.535875026689, -28169.52355736775, -0.012, 0.916, 0.462, 192.0, 255.0, 160.0, 28.0, 160.0, 14.0, 112.0, 0.0, 0.0, 0.0, 1.6541556271347413E9, 0.0, 2022-06-02 09:40:27.134
98.0, 25588.701735580176, -4956.320519008698, -61575.07736385791, -38644.95916902532, -12588.63658769567, -36901.99248814493, -7990.838049750096, -28149.25052514679, -0.012, 0.916, 0.462, 192.0, 0.0, 0.0, 0.0, 0.0, 0.0, 0.0, 0.0, 0.0, 0.0, 1.6541556271347466E9, 0.0, 2022-06-02 09:40:27.134
99.0, 25582.555005854967, -4958.086306820668, -61575.94908189167, -38644.020395758205, -12594.537448231871, -36901.18782534455, -8002.2374394223025, -28181.81701681817, -0.012, 0.916, 0.462, 192.0, 0.0, 0.0, 0.0, 0.0, 0.0, 0.0, 0.0, 0.0, 0.0, 1.6541556271347523E9, 0.0, 2022-06-02 09:40:27.134
100.0, 25587.561796612954, -4948.922091593992, -61565.84609339787, -38634.09622122005, -12582.825134137289, -36893.208252574, -7989.385186360501, -28191.271804722765, -0.012, 0.916, 0.462, 192.0, 0.0, 0.0, 0.0, 0.0, 0.0, 0.0, 0.0, 0.0, 0.0, 1.6541556271347575E9, 0.0, 2022-06-02 09:40:27.134
101.0, 25586.220691945637, -4948.385649727064, -61563.05212534096, -38632.889227019456, -12577.661881168115, -36894.2587845634, -7973.448392563867, -28168.249507933797, -0.012, 0.916, 0.462, 192.0, 0.0, 0.0, 0.0, 0.0, 0.0, 0.0, 0.0, 0.0, 0.0, 1.6541556271347628E9, 0.0, 2022-06-02 09:40:27.134
102.0, 25586.53361636801, -4954.26415851881, -61571.34462253388, -38639.41593640041, -12579.874703869189, -36903.53475851235, -7974.34246234208, -28163.019199731258, -0.012, 0.916, 0.462, 192.0, 0.0, 0.0, 0.0, 0.0, 0.0, 0.0, 0.0, 0.0, 0.0, 1.654155627134768E9, 0.0, 2022-06-02 09:40:27.134
103.0, 25585.773657056532, -4957.818085887205, -61574.98795688009, -38646.21086671482, -12588.413070251116, -36907.64747949213, -7989.787517760697, -28181.459388906886, -0.012, 0.916, 0.462, 192.0, 0.0, 0.0, 0.0, 0.0, 0.0, 0.0, 0.0, 0.0, 0.0, 1.6541556271347733E9, 0.0, 2022-06-02 09:40:27.134
104.0, 25590.042840247494, -4949.771457883294, -61560.52637821751, -38639.1700672114, -12582.914541115111, -36899.73496195495, -7981.740889756787, -28178.978345272346, -0.012, 0.916, 0.462, 192.0, 0.0, 0.0, 0.0, 0.0, 0.0, 0.0, 0.0, 0.0, 0.0, 1.6541556271347785E9, 0.0, 2022-06-02 09:40:27.134
105.0, 25595.16138972776, -4939.914338578504, -61554.64786942576, -38637.51603812171, -12580.29938701384, -36896.11397935319, -7985.741852014286, -28168.76359805627, -0.012, 0.916, 0.462, 192.0, 0.0, 0.0, 0.0, 0.0, 0.0, 0.0, 0.0, 0.0, 0.0, 1.6541556271347835E9, 0.0, 2022-06-02 09:40:27.134
106.0, 25601.799857830985, -4933.5887948976515, -61556.99480259357, -38636.040822987656, -12579.986462591465, -36893.96821188548, -7988.111136926549, -28173.0998364806, -0.012, 0.916, 0.462, 192.0, 0.0, 0.0, 0.0, 0.0, 0.0, 0.0, 0.0, 0.0, 0.0, 1.6541556276133535E9, 0.0, 2022-06-02 09:40:27.613
107.0, 25593.887340293808, -4938.774399611282, -61553.083247313894, -38630.63170082947, -12575.829038122778, -36893.45412176301, -7981.562075801144, -28164.91909800996, -0.016, 0.916, 0.458, 192.0, 255.0, 128.0, 28.0, 160.0, 14.0, 80.0, 0.0, 0.0, 0.0, 1.6541556276135967E9, 0.0, 2022-06-02 09:40:27.613
108.0, 25581.97386049913, -4955.761725397316, -61557.86652062733, -38637.9183695219, -12586.513171972416, -36901.32193581128, -7995.9565992303615, -28158.548850840194, -0.016, 0.916, 0.458, 192.0, 0.0, 0.0, 0.0, 0.0, 0.0, 0.0, 0.0, 0.0, 0.0, 1.654155627613602E9, 0.0, 2022-06-02 09:40:27.613
109.0, 25578.82226453093, -4955.873484119593, -61560.19110205068, -38641.33818642356, -12591.139983074663, -36902.88655792315, -7997.320055642135, -28204.258168251297, -0.016, 0.916, 0.458, 192.0, 0.0, 0.0, 0.0, 0.0, 0.0, 0.0, 0.0, 0.0, 0.0, 1.6541556276136072E9, 0.0, 2022-06-02 09:40:27.613
110.0, 25578.01760173054, -4950.285548005766, -61555.05020082596, -38638.45481138883, -12584.054480082332, -36901.098418366724, -7978.701052510864, -28186.890862809523, -0.016, 0.916, 0.458, 192.0, 0.0, 0.0, 0.0, 0.0, 0.0, 0.0, 0.0, 0.0, 0.0, 1.6541556276136155E9, 0.0, 2022-06-02 09:40:27.613
111.0, 25579.515168609047, -4946.999841570836, -61554.71492465913, -38640.95820676783, -12577.080735812277, -36897.119807853676, -7974.1189448975265, -28182.085237751635, -0.016, 0.916, 0.458, 192.0, 0.0, 0.0, 0.0, 0.0, 0.0, 0.0, 0.0, 0.0, 0.0, 1.6541556276136217E9, 0.0, 2022-06-02 09:40:27.613
112.0, 25582.82322678843, -4950.5537689392295, -61564.32617477491, -38653.63164587398, -12582.556913203825, -36905.501712024416, -7984.825430491618, -28185.48270290884, -0.016, 0.916, 0.458, 192.0, 0.0, 0.0, 0.0, 0.0, 0.0, 0.0, 0.0, 0.0, 0.0, 1.6541556276136267E9, 0.0, 2022-06-02 09:40:27.613
113.0, 25583.985517500107, -4953.750068396338, -61572.283395801, -38651.44117491737, -12594.40333776514, -36909.97206091548, -8002.617419078043, -28161.56633634166, -0.016, 0.916, 0.458, 192.0, 0.0, 0.0, 0.0, 0.0, 0.0, 0.0, 0.0, 0.0, 0.0, 1.6541556276136317E9, 0.0, 2022-06-02 09:40:27.613
114.0, 25582.53265411051, -4948.45270496043, -61566.53899747599, -38643.41689865791, -12597.309064544328, -36900.00318288842, -8008.898259269984, -28184.18630173043, -0.016, 0.916, 0.458, 192.0, 0.0, 0.0, 0.0, 0.0, 0.0, 0.0, 0.0, 0.0, 0.0, 1.6541556276136367E9, 0.0, 2022-06-02 09:40:27.613
115.0, 25577.794084285986, -4946.195178770445, -61559.52054971702, -38634.07386947559, -12595.811497665823, -36899.3102788103, -7986.591218303588, -28172.228118446845, -0.016, 0.916, 0.458, 192.0, 0.0, 0.0, 0.0, 0.0, 0.0, 0.0, 0.0, 0.0, 0.0, 1.654155627613642E9, 0.0, 2022-06-02 09:40:27.613
116.0, 25594.11085773836, -4926.816216327693, -61541.549747174955, -38613.89024423245, -12577.326605001284, -36878.74667391142, -7973.515447797233, -28155.754882783283, -0.016, 0.916, 0.458, 192.0, 0.0, 0.0, 0.0, 0.0, 0.0, 0.0, 0.0, 0.0, 0.0, 1.6541556276136472E9, 0.0, 2022-06-02 09:40:27.613
117.0, 25593.149732726783, -4934.773437353782, -61550.915128101726, -38624.90965424891, -12581.171105047597, -36884.28990653633, -7990.212200905347, -28178.955993527892, -0.014, 0.916, 0.466, 192.0, 255.0, 144.0, 28.0, 160.0, 14.0, 144.0, 0.0, 0.0, 0.0, 1.6541556276136527E9, 0.0, 2022-06-02 09:40:27.613
118.0, 25581.258604676557, -4947.893911349048, -61568.37184052132, -38647.10493649304, -12598.516058744915, -36905.47936027996, -7996.1354131860035, -28195.63039489155, -0.014, 0.916, 0.466, 192.0, 0.0, 0.0, 0.0, 0.0, 0.0, 0.0, 0.0, 0.0, 0.0, 1.654155627613658E9, 0.0, 2022-06-02 09:40:27.613
119.0, 25578.509340108558, -4943.915300836004, -61564.01325035254, -38642.58988411306, -12596.906733144133, -36898.080932865254, -7979.304549611158, -28178.28544119423, -0.014, 0.916, 0.466, 192.0, 0.0, 0.0, 0.0, 0.0, 0.0, 0.0, 0.0, 0.0, 0.0, 1.6541556276136632E9, 0.0, 2022-06-02 09:40:27.613
120.0, 25591.607462359367, -4937.075667032679, -61553.06089556943, -38630.16231419591, -12585.73086091648, -36882.702932680004, -7979.840991478085, -28159.33116189613, -0.014, 0.916, 0.466, 192.0, 0.0, 0.0, 0.0, 0.0, 0.0, 0.0, 0.0, 0.0, 0.0, 1.6541556276136682E9, 0.0, 2022-06-02 09:40:27.613
121.0, 25595.071982749938, -4929.677239617973, -61550.87042461282, -38623.05445945913, -12578.555950946326, -36878.50080472241, -7978.119907155026, -28160.493452607807, -0.014, 0.916, 0.466, 192.0, 0.0, 0.0, 0.0, 0.0, 0.0, 0.0, 0.0, 0.0, 0.0, 1.6541556276136737E9, 0.0, 2022-06-02 09:40:27.613
122.0, 25584.276090178024, -4945.055239803224, -61561.24163404008, -38640.93585502337, -12589.553009218336, -36894.392895030134, -7985.786555503197, -28162.750978797794, -0.014, 0.916, 0.466, 192.0, 0.0, 0.0, 0.0, 0.0, 0.0, 0.0, 0.0, 0.0, 0.0, 1.6541556276136787E9, 0.0, 2022-06-02 09:40:27.613
123.0, 25577.101180207872, -4953.12421955159, -61569.1317998328, -38653.31872145161, -12604.327512303294, -36904.652345735114, -8004.450262123378, -28183.359287185587, -0.014, 0.916, 0.466, 192.0, 0.0, 0.0, 0.0, 0.0, 0.0, 0.0, 0.0, 0.0, 0.0, 1.6541556276136837E9, 0.0, 2022-06-02 09:40:27.613
124.0, 25582.957337255164, -4943.6247281580845, -61557.37478224931, -38640.868799790005, -12594.380986020684, -36893.54352874083, -7996.58244807511, -28173.636278347527, -0.014, 0.916, 0.466, 192.0, 0.0, 0.0, 0.0, 0.0, 0.0, 0.0, 0.0, 0.0, 0.0, 1.6541556276136892E9, 0.0, 2022-06-02 09:40:27.613
125.0, 25578.956374997662, -4940.719001378894, -61551.85390136885, -38634.856180531526, -12589.77652666289, -36889.02847636086, -7990.100442183071, -28170.395275401508, -0.014, 0.916, 0.466, 192.0, 0.0, 0.0, 0.0, 0.0, 0.0, 0.0, 0.0, 0.0, 0.0, 1.6541556276136944E9, 0.0, 2022-06-02 09:40:27.613
126.0, 25583.717296566643, -4939.98139381187, -61548.59054667837, -38635.54908460964, -12583.003948092932, -36888.670848449576, -7972.040232663183, -28187.49435990982, -0.014, 0.916, 0.466, 192.0, 0.0, 0.0, 0.0, 0.0, 0.0, 0.0, 0.0, 0.0, 0.0, 1.6541556276136994E9, 0.0, 2022-06-02 09:40:27.613
127.0, 25586.31009892346, -4946.753972381827, -61554.692572914675, -38645.22738995879, -12579.15944804662, -36901.72426721147, -7973.4707443083225, -28177.212557460378, -0.014, 0.918, 0.464, 192.0, 255.0, 144.0, 28.0, 176.0, 14.0, 128.0, 0.0, 0.0, 0.0, 1.6541556276137047E9, 0.0, 2022-06-02 09:40:27.613
128.0, 25577.86113951935, -4961.0590888332235, -61570.80818066695, -38661.342997711065, -12598.605465722736, -36918.845703464234, -7993.028520706716, -28177.793702816216, -0.014, 0.918, 0.464, 192.0, 0.0, 0.0, 0.0, 0.0, 0.0, 0.0, 0.0, 0.0, 0.0, 1.6541556276137145E9, 0.0, 2022-06-02 09:40:27.613
129.0, 25583.40437214427, -4949.6149956721065, -61553.7314479031, -38646.3226254371, -12588.994215606954, -36900.91960441108, -7984.870133980529, -28197.038554792234, -0.014, 0.918, 0.464, 192.0, 0.0, 0.0, 0.0, 0.0, 0.0, 0.0, 0.0, 0.0, 0.0, 1.65415562761372E9, 0.0, 2022-06-02 09:40:27.613
130.0, 25591.518055381544, -4934.0581815312125, -61544.74604663206, -38634.81147704262, -12577.214846279008, -36887.73207518245, -7982.992587446283, -28184.72274359736, -0.014, 0.918, 0.464, 192.0, 0.0, 0.0, 0.0, 0.0, 0.0, 0.0, 0.0, 0.0, 0.0, 1.6541556276137252E9, 0.0, 2022-06-02 09:40:27.613
131.0, 25594.87081704984, -4926.92797504997, -61543.58375592039, -38623.680308303876, -12568.229445007973, -36882.21119430199, -7970.632072762499, -28157.788891528715, -0.014, 0.918, 0.464, 192.0, 0.0, 0.0, 0.0, 0.0, 0.0, 0.0, 0.0, 0.0, 0.0, 1.6541556276137304E9, 0.0, 2022-06-02 09:40:27.613
132.0, 25588.92525302473, -4937.209777499411, -61550.781017634996, -38631.72693630778, -12572.319814243296, -36889.11788333868, -7964.060659892638, -28149.496394335794, -0.014, 0.918, 0.464, 192.0, 0.0, 0.0, 0.0, 0.0, 0.0, 0.0, 0.0, 0.0, 0.0, 1.6541556276137354E9, 0.0, 2022-06-02 09:40:27.613
133.0, 25582.86793027734, -4948.005670071325, -61562.91801487422, -38639.818267800605, -12593.173991820096, -36901.99248814493, -7982.120869412526, -28161.99101948631, -0.014, 0.918, 0.464, 192.0, 0.0, 0.0, 0.0, 0.0, 0.0, 0.0, 0.0, 0.0, 0.0, 1.6541556276137404E9, 0.0, 2022-06-02 09:40:27.613
134.0, 25589.72991582512, -4935.891024576548, -61550.423389723706, -38626.317814149596, -12587.407241750627, -36893.342363040734, -7986.524163070222, -28170.05999923468, -0.014, 0.918, 0.464, 192.0, 0.0, 0.0, 0.0, 0.0, 0.0, 0.0, 0.0, 0.0, 0.0, 1.6541556276137457E9, 0.0, 2022-06-02 09:40:27.613
135.0, 25592.12155248184, -4927.911451806003, -61541.16976751921, -38618.65116580143, -12575.069078811299, -36881.384179757144, -7972.509619296744, -28161.611039830572, -0.014, 0.918, 0.464, 192.0, 0.0, 0.0, 0.0, 0.0, 0.0, 0.0, 0.0, 0.0, 0.0, 1.6541556276137512E9, 0.0, 2022-06-02 09:40:27.613
136.0, 25597.35186068438, -4924.871614560082, -61544.0754942984, -38617.35476462302, -12568.698831641535, -36878.321990766766, -7970.944997184873, -28161.119301452556, -0.014, 0.918, 0.464, 192.0, 0.0, 0.0, 0.0, 0.0, 0.0, 0.0, 0.0, 0.0, 0.0, 1.6541556276137564E9, 0.0, 2022-06-02 09:40:27.613
137.0, 25588.5899768579, -4935.064010031701, -61561.57691020691, -38630.54229385165, -12578.757116646424, -36891.57657522876, -7977.2258373768145, -28173.72568532535, -0.014, 0.916, 0.466, 192.0, 255.0, 144.0, 28.0, 160.0, 14.0, 144.0, 0.0, 0.0, 0.0, 1.6541556276137614E9, 0.0, 2022-06-02 09:40:27.613
138.0, 25569.00984871505, -4952.945405595948, -61575.97143363613, -38649.2730557052, -12600.393605279161, -36913.10130513922, -7989.407538104956, -28189.841293077625, -0.014, 0.916, 0.466, 192.0, 0.0, 0.0, 0.0, 0.0, 0.0, 0.0, 0.0, 0.0, 0.0, 1.6541556276137667E9, 0.0, 2022-06-02 09:40:27.613
139.0, 25573.14492143928, -4948.072725304691, -61570.204683566655, -38646.7696603262, -12599.276018056396, -36909.79324695984, -7983.171401401926, -28175.96085977088, -0.014, 0.916, 0.466, 192.0, 0.0, 0.0, 0.0, 0.0, 0.0, 0.0, 0.0, 0.0, 0.0, 1.6541556276137717E9, 0.0, 2022-06-02 09:40:27.613
140.0, 25575.134226695805, -4939.422600200486, -61560.25815728404, -38637.583093355075, -12590.558837718825, -36898.505616009905, -7984.668968280432, -28170.037647490222, -0.014, 0.916, 0.466, 192.0, 0.0, 0.0, 0.0, 0.0, 0.0, 0.0, 0.0, 0.0, 0.0, 1.6541556276137767E9, 0.0, 2022-06-02 09:40:27.613
141.0, 25576.96706974114, -4932.9405943084475, -61548.83641586738, -38620.43930535785, -12580.992291091954, -36886.43567400404, -7975.4824013093, -28166.751941055292, -0.014, 0.916, 0.466, 192.0, 0.0, 0.0, 0.0, 0.0, 0.0, 0.0, 0.0, 0.0, 0.0, 1.654155627613782E9, 0.0, 2022-06-02 09:40:27.613
142.0, 25576.63179357431, -4939.735524622861, -61557.73241016059, -38630.56464559611, -12582.959244604022, -36898.796188687826, -7971.392032073979, -28196.0550780362, -0.014, 0.916, 0.466, 192.0, 0.0, 0.0, 0.0, 0.0, 0.0, 0.0, 0.0, 0.0, 0.0, 1.6541556276137872E9, 0.0, 2022-06-02 09:40:27.613
143.0, 25578.419933130735, -4947.715097393406, -61563.58856720789, -38639.01360500021, -12591.318797030306, -36910.12852312667, -7982.165572901437, -28187.47200816536, -0.014, 0.916, 0.466, 192.0, 0.0, 0.0, 0.0, 0.0, 0.0, 0.0, 0.0, 0.0, 0.0, 1.6541556276137922E9, 0.0, 2022-06-02 09:40:27.613
144.0, 25589.104066980373, -4937.790922855249, -61549.64107866777, -38626.47427636079, -12587.29548302835, -36895.89046190864, -7997.655331808965, -28165.008504987778, -0.014, 0.916, 0.466, 192.0, 0.0, 0.0, 0.0, 0.0, 0.0, 0.0, 0.0, 0.0, 0.0, 1.6541556276137977E9, 0.0, 2022-06-02 09:40:27.613
145.0, 25590.087543736405, -4925.139835493545, -61536.90058432825, -38615.611328555504, -12574.465581711005, -36881.026551845855, -7984.758375258252, -28157.543022339705, -0.014, 0.916, 0.466, 192.0, 0.0, 0.0, 0.0, 0.0, 0.0, 0.0, 0.0, 0.0, 0.0, 1.6541556276138027E9, 0.0, 2022-06-02 09:40:27.613
146.0, 25586.332450667913, -4928.35848669511, -61536.18532850568, -38618.87468324598, -12571.604558420726, -36885.228679803455, -7960.842008691074, -28141.38271109852, -0.014, 0.916, 0.466, 192.0, 0.0, 0.0, 0.0, 0.0, 0.0, 0.0, 0.0, 0.0, 0.0, 1.654155627613808E9, 0.0, 2022-06-02 09:40:27.613
147.0, 25587.71825882414, -4932.9405943084475, -61538.28639248448, -38621.62394781398, -12570.8669508537, -36883.9546303695, -7965.602930260055, -28154.257315904775, -0.01, 0.916, 0.462, 192.0, 255.0, 176.0, 28.0, 160.0, 14.0, 112.0, 0.0, 0.0, 0.0, 1.6541556276138127E9, 0.0, 2022-06-02 09:40:27.613
148.0, 25585.416029145246, -4935.689858876451, -61543.2261280091, -38630.47523861829, -12579.047689324343, -36895.085799108245, -7980.645654278476, -28198.53612167074, -0.01, 0.916, 0.462, 192.0, 0.0, 0.0, 0.0, 0.0, 0.0, 0.0, 0.0, 0.0, 0.0, 1.6541556276138182E9, 0.0, 2022-06-02 09:40:27.613
