%OpenBCI Raw EEG Data
%Number of channels = 8
%Sample Rate = 250 Hz
%Board = OpenBCI_GUI$BoardCytonSerial
Sample Index, EXG Channel 0, EXG Channel 1, EXG Channel 2, EXG Channel 3, EXG Channel 4, EXG Channel 5, EXG Channel 6, EXG Channel 7, Accel Channel 0, Accel Channel 1, Accel Channel 2, Other, Other, Other, Other, Other, Other, Other, Analog Channel 0, Analog Channel 1, Analog Channel 2, Timestamp, Other, Timestamp (Formatted)
0.0, 0.0, 0.0, 0.0, 0.0, 0.0, 0.0, 0.0, 0.0, 0.032, 0.92, 0.47800000000000004, 192.0, 1.0, 0.0, 28.0, 192.0, 14.0, 240.0, 0.0, 0.0, 0.0, 1.6541739290632212E9, 0.0, 2022-06-02 14:45:29.063
1.0, -13555.573052832253, 10036.134426132969, -45629.901663053235, -38959.96230363397, -22991.49608510686, -20060.511834682446, -8217.082407126714, -9262.607605768157, 0.032, 0.92, 0.47800000000000004, 192.0, 0.0, 0.0, 0.0, 0.0, 0.0, 0.0, 0.0, 0.0, 0.0, 1.6541739290794613E9, 0.0, 2022-06-02 14:45:29.079
2.0, -13559.842236023216, 10034.122769131991, -45631.60039563184, -38957.43655651052, -22987.74099203837, -20061.964698072043, -8219.943430416994, -9282.992396711397, 0.032, 0.92, 0.47800000000000004, 192.0, 0.0, 0.0, 0.0, 0.0, 0.0, 0.0, 0.0, 0.0, 0.0, 1.6541739295589862E9, 0.0, 2022-06-02 14:45:29.558
3.0, -13531.656686265074, 10061.347193878555, -45605.851186019325, -38921.24908223737, -22948.603087497126, -20025.352540654247, -8197.122299328124, -9250.917643418032, 0.032, 0.92, 0.47800000000000004, 192.0, 0.0, 0.0, 0.0, 0.0, 0.0, 0.0, 0.0, 0.0, 0.0, 1.654173929559102E9, 0.0, 2022-06-02 14:45:29.559
4.0, -13528.438035063511, 10068.65621431544, -45603.414845873696, -38917.918672313535, -22942.25519207182, -20023.117366208717, -8194.23892429339, -9228.320029773717, 0.032, 0.92, 0.47800000000000004, 192.0, 0.0, 0.0, 0.0, 0.0, 0.0, 0.0, 0.0, 0.0, 0.0, 1.6541739295591092E9, 0.0, 2022-06-02 14:45:29.559
5.0, -13566.368945404167, 10035.396818565943, -45643.245654493054, -38962.577457735235, -22988.03156471629, -20075.21928253404, -8214.802529192273, -9292.737757293911, 0.032, 0.92, 0.47800000000000004, 192.0, 0.0, 0.0, 0.0, 0.0, 0.0, 0.0, 0.0, 0.0, 0.0, 1.6541739295591235E9, 0.0, 2022-06-02 14:45:29.559
6.0, -13591.469954427475, 10009.468794997787, -45674.8286694084, -38993.624030783656, -23021.536829654793, -20106.288207326914, -8237.176625392036, -9313.7483970819, 0.032, 0.92, 0.47800000000000004, 192.0, 0.0, 0.0, 0.0, 0.0, 0.0, 0.0, 0.0, 0.0, 0.0, 1.654173929559139E9, 0.0, 2022-06-02 14:45:29.559
7.0, -13579.914102544082, 10020.264687569701, -45657.93075060019, -38971.36169330617, -23000.59324510017, -20079.421410491635, -8228.258279354368, -9273.023518684331, 0.032, 0.92, 0.47800000000000004, 192.0, 0.0, 0.0, 0.0, 0.0, 0.0, 0.0, 0.0, 0.0, 0.0, 1.6541739295591567E9, 0.0, 2022-06-02 14:45:29.559
8.0, -13553.628451064642, 10047.98085069428, -45619.485750137064, -38926.70290788447, -22957.946116679446, -20025.643113332168, -8185.588799189187, -9207.756424874833, 0.036000000000000004, 0.9, 0.466, 192.0, 1.0, 32.0, 28.0, 32.0, 14.0, 144.0, 0.0, 0.0, 0.0, 1.6541739295591688E9, 0.0, 2022-06-02 14:45:29.559
9.0, -13554.522520842853, 10046.572690793597, -45626.52654964048, -38936.76119288936, -22962.081189403678, -20033.175651213605, -8202.933752886505, -9223.804977393744, 0.036000000000000004, 0.9, 0.466, 192.0, 0.0, 0.0, 0.0, 0.0, 0.0, 0.0, 0.0, 0.0, 0.0, 1.6541739295591784E9, 0.0, 2022-06-02 14:45:29.559
10.0, -13583.177457234557, 10015.79433867864, -45672.90641938525, -38979.00598990989, -22999.766230555324, -20064.177520773115, -8234.87439571314, -9288.31211189176, 0.036000000000000004, 0.9, 0.466, 192.0, 0.0, 0.0, 0.0, 0.0, 0.0, 0.0, 0.0, 0.0, 0.0, 1.6541739295591922E9, 0.0, 2022-06-02 14:45:29.559
11.0, -13588.11719275918, 10000.55044896012, -45692.17362310572, -38996.9544407075, -23012.2832074503, -20085.97047161704, -8235.321430602246, -9331.160406012585, 0.036000000000000004, 0.9, 0.466, 192.0, 0.0, 0.0, 0.0, 0.0, 0.0, 0.0, 0.0, 0.0, 0.0, 1.654173929559203E9, 0.0, 2022-06-02 14:45:29.559
12.0, -13569.654651839097, 10018.454196268822, -45672.59349496287, -38975.60852475268, -22992.30074790725, -20070.011326075954, -8216.858889682162, -9316.698827350001, 0.036000000000000004, 0.9, 0.466, 192.0, 0.0, 0.0, 0.0, 0.0, 0.0, 0.0, 0.0, 0.0, 0.0, 1.6541739295592165E9, 0.0, 2022-06-02 14:45:29.559
13.0, -13556.802398777296, 10037.900213944939, -45642.195122503654, -38943.53377145932, -22961.991782425855, -20035.835508803786, -8204.744244187385, -9264.462800557947, 0.036000000000000004, 0.9, 0.466, 192.0, 0.0, 0.0, 0.0, 0.0, 0.0, 0.0, 0.0, 0.0, 0.0, 1.6541739295592375E9, 0.0, 2022-06-02 14:45:29.559
14.0, -13559.171683689558, 10034.011010409715, -45647.447782450654, -38949.94872211799, -22967.64677377305, -20044.95502054155, -8223.184433363012, -9259.59012026669, 0.036000000000000004, 0.9, 0.466, 192.0, 0.0, 0.0, 0.0, 0.0, 0.0, 0.0, 0.0, 0.0, 0.0, 1.6541739295592527E9, 0.0, 2022-06-02 14:45:29.559
15.0, -13572.895654785116, 10013.737978188752, -45675.29805604197, -38983.72220798996, -22995.497047364363, -20085.21051230556, -8209.169889589535, -9294.83882127271, 0.036000000000000004, 0.9, 0.466, 192.0, 0.0, 0.0, 0.0, 0.0, 0.0, 0.0, 0.0, 0.0, 0.0, 1.6541739295592604E9, 0.0, 2022-06-02 14:45:29.559
16.0, -13580.83052406675, 9999.254047781713, -45690.027855638014, -39002.67648728806, -23017.871143564123, -20096.140515344207, -8232.125131145136, -9318.50931865088, 0.036000000000000004, 0.9, 0.466, 192.0, 0.0, 0.0, 0.0, 0.0, 0.0, 0.0, 0.0, 0.0, 0.0, 1.6541739295592663E9, 0.0, 2022-06-02 14:45:29.559
17.0, -13571.800419306806, 10014.185013077857, -45675.834497908894, -38985.26447835738, -23003.096640479165, -20071.464189465547, -8253.2475296554, -9306.148803967095, 0.026000000000000002, 0.894, 0.452, 192.0, 0.0, 208.0, 27.0, 240.0, 14.0, 32.0, 0.0, 0.0, 0.0, 1.6541739295592723E9, 0.0, 2022-06-02 14:45:29.559
18.0, -13547.861700995172, 10051.445371084854, -45634.75199160004, -38944.15962030407, -22958.88488994657, -20037.601296615758, -8212.232078579913, -9263.389916824093, 0.026000000000000002, 0.894, 0.452, 192.0, 0.0, 0.0, 0.0, 0.0, 0.0, 0.0, 0.0, 0.0, 0.0, 1.654173929559278E9, 0.0, 2022-06-02 14:45:29.559
19.0, -13552.555567330786, 10043.264632614211, -45637.41184919022, -38950.641626196106, -22964.562233038218, -20051.101750266764, -8183.912418355038, -9254.248053341873, 0.026000000000000002, 0.894, 0.452, 192.0, 0.0, 0.0, 0.0, 0.0, 0.0, 0.0, 0.0, 0.0, 0.0, 1.6541739295592842E9, 0.0, 2022-06-02 14:45:29.559
20.0, -13570.906349528594, 10022.097530615036, -45664.34570125886, -38982.939896934025, -22995.65350957555, -20077.566215701845, -8222.402122307078, -9290.256713659372, 0.026000000000000002, 0.894, 0.452, 192.0, 0.0, 0.0, 0.0, 0.0, 0.0, 0.0, 0.0, 0.0, 0.0, 1.65417392955929E9, 0.0, 2022-06-02 14:45:29.559
21.0, -13573.767372818873, 10018.521251502187, -45675.94625663117, -38995.300411617805, -23010.36095742714, -20087.289224539905, -8248.419552853054, -9320.140995996118, 0.026000000000000002, 0.894, 0.452, 192.0, 0.0, 0.0, 0.0, 0.0, 0.0, 0.0, 0.0, 0.0, 0.0, 1.6541739295592964E9, 0.0, 2022-06-02 14:45:29.559
22.0, -13558.814055778272, 10034.726266232285, -45654.35447148734, -38973.57451600725, -22994.826495030702, -20065.943308585087, -8230.828729966728, -9301.45493763148, 0.026000000000000002, 0.894, 0.452, 192.0, 0.0, 0.0, 0.0, 0.0, 0.0, 0.0, 0.0, 0.0, 0.0, 1.654173929559343E9, 0.0, 2022-06-02 14:45:29.559
23.0, -13545.067732938258, 10053.568786808108, -45621.720924582594, -38944.070213326246, -22957.610840512614, -20032.281581435393, -8215.607191992664, -9275.437507085504, 0.026000000000000002, 0.894, 0.452, 192.0, 0.0, 0.0, 0.0, 0.0, 0.0, 0.0, 0.0, 0.0, 0.0, 1.6541739295593562E9, 0.0, 2022-06-02 14:45:29.559
24.0, -13546.20767190548, 10050.216025139813, -45620.0668954929, -38953.52500123084, -22963.17642488199, -20035.410825659135, -8205.593610476686, -9268.396707582082, 0.026000000000000002, 0.894, 0.452, 192.0, 0.0, 0.0, 0.0, 0.0, 0.0, 0.0, 0.0, 0.0, 0.0, 1.6541739295593617E9, 0.0, 2022-06-02 14:45:29.559
25.0, -13557.16002668858, 10034.882728443472, -45636.69659336765, -38975.2508968414, -22980.45432334594, -20057.15907301415, -8180.04556656427, -9266.228588369917, 0.026000000000000002, 0.894, 0.452, 192.0, 0.0, 0.0, 0.0, 0.0, 0.0, 0.0, 0.0, 0.0, 0.0, 1.654173929559368E9, 0.0, 2022-06-02 14:45:29.559
26.0, -13578.371832176666, 10010.295809542635, -45658.73541340058, -38999.68135353105, -23003.566027112727, -20083.847055893788, -8211.516822757343, -9291.441356115503, 0.026000000000000002, 0.894, 0.452, 192.0, 0.0, 0.0, 0.0, 0.0, 0.0, 0.0, 0.0, 0.0, 0.0, 1.654173929559374E9, 0.0, 2022-06-02 14:45:29.559
27.0, -13562.725611057951, 10031.082931886069, -45633.14266599926, -38972.41222529557, -22973.234709886874, -20055.01330554644, -8198.306941784256, -9268.8884459601, 0.02, 0.902, 0.444, 192.0, 0.0, 160.0, 28.0, 48.0, 13.0, 224.0, 0.0, 0.0, 0.0, 1.6541739295593805E9, 0.0, 2022-06-02 14:45:29.559
28.0, -13549.336916129223, 10051.89240597396, -45596.97754347057, -38939.84573362419, -22945.183270595466, -20020.278694662895, -8176.245770006868, -9235.517291488326, 0.02, 0.902, 0.444, 192.0, 0.0, 0.0, 0.0, 0.0, 0.0, 0.0, 0.0, 0.0, 0.0, 1.6541739295593872E9, 0.0, 2022-06-02 14:45:29.559
29.0, -13548.554605073286, 10049.433714083876, -45596.97754347057, -38945.9924633494, -22962.617631270605, -20029.040578489374, -8193.925999871017, -9229.817596652221, 0.02, 0.902, 0.444, 192.0, 0.0, 0.0, 0.0, 0.0, 0.0, 0.0, 0.0, 0.0, 0.0, 1.6541739295593965E9, 0.0, 2022-06-02 14:45:29.559
30.0, -13574.594387363719, 10024.332705060568, -45629.05229676393, -38984.05748415679, -22999.095678221667, -20069.899567353674, -8223.899689185582, -9308.629847601635, 0.02, 0.902, 0.444, 192.0, 0.0, 0.0, 0.0, 0.0, 0.0, 0.0, 0.0, 0.0, 0.0, 1.6541739295594034E9, 0.0, 2022-06-02 14:45:29.559
31.0, -13590.17355324907, 10007.546544974632, -45645.436125449676, -39003.59290881073, -23015.032472018298, -20089.3902885187, -8245.692640029507, -9339.005868316397, 0.02, 0.902, 0.444, 192.0, 0.0, 0.0, 0.0, 0.0, 0.0, 0.0, 0.0, 0.0, 0.0, 1.65417392955941E9, 0.0, 2022-06-02 14:45:29.559
32.0, -13564.35728840319, 10033.787492965163, -45612.64611633374, -38966.26549557036, -22981.996593713357, -20055.817968346833, -8221.306886828766, -9254.896253931076, 0.02, 0.902, 0.444, 192.0, 0.0, 0.0, 0.0, 0.0, 0.0, 0.0, 0.0, 0.0, 0.0, 1.6541739295594163E9, 0.0, 2022-06-02 14:45:29.559
33.0, -13535.747055500397, 10066.175170680901, -45567.18266811164, -38924.490085183395, -22934.029750112266, -20010.376871869194, -8165.80750534624, -9209.455157453438, 0.02, 0.902, 0.444, 192.0, 0.0, 0.0, 0.0, 0.0, 0.0, 0.0, 0.0, 0.0, 0.0, 1.6541739295594237E9, 0.0, 2022-06-02 14:45:29.559
34.0, -13526.180508873524, 10072.388955639477, -45558.5548947519, -38918.611576391646, -22927.10070933112, -20009.10282243524, -8148.149627226548, -9213.634933666579, 0.02, 0.902, 0.444, 192.0, 0.0, 0.0, 0.0, 0.0, 0.0, 0.0, 0.0, 0.0, 0.0, 1.6541739295594292E9, 0.0, 2022-06-02 14:45:29.559
35.0, -13554.92485224305, 10035.776798221685, -45600.55382258342, -38965.50553625888, -22977.88387273358, -20060.69064863809, -8192.361377759145, -9270.140143649596, 0.02, 0.902, 0.444, 192.0, 0.0, 0.0, 0.0, 0.0, 0.0, 0.0, 0.0, 0.0, 0.0, 1.6541739295594356E9, 0.0, 2022-06-02 14:45:29.559
36.0, -13574.616739108174, 10013.156832832914, -45620.73744782656, -38986.51617604687, -23006.583512614194, -20079.264948280448, -8228.370038076644, -9292.111908449162, 0.02, 0.902, 0.444, 192.0, 0.0, 0.0, 0.0, 0.0, 0.0, 0.0, 0.0, 0.0, 0.0, 1.6541739295594416E9, 0.0, 2022-06-02 14:45:29.559
37.0, -13567.553587860297, 10026.120844616991, -45600.84439526134, -38968.07598687124, -22988.702117049947, -20058.500177681468, -8219.138767616603, -9291.195486926496, 0.01, 0.922, 0.448, 192.0, 0.0, 80.0, 28.0, 208.0, 14.0, 0.0, 0.0, 0.0, 0.0, 1.6541739295594473E9, 0.0, 2022-06-02 14:45:29.559
38.0, -13523.945334427994, 10076.635787085985, -45544.07096434486, -38906.4298756635, -22923.949113362924, -19995.892941462153, -8159.593720387665, -9258.807809210755, 0.01, 0.922, 0.448, 192.0, 0.0, 0.0, 0.0, 0.0, 0.0, 0.0, 0.0, 0.0, 0.0, 1.654173929559454E9, 0.0, 2022-06-02 14:45:29.559
39.0, -13527.320447840744, 10071.025499227704, -45550.21769407007, -38915.21411123444, -22930.699340188425, -20011.025072458397, -8171.954235071449, -9256.103248131663, 0.01, 0.922, 0.448, 192.0, 0.0, 0.0, 0.0, 0.0, 0.0, 0.0, 0.0, 0.0, 0.0, 1.6541739295594597E9, 0.0, 2022-06-02 14:45:29.559
40.0, -13534.897689211093, 10056.407458353933, -45575.4081100712, -38939.689271413, -22963.69051500446, -20029.48761337848, -8210.153366345568, -9244.323878803716, 0.01, 0.922, 0.448, 192.0, 0.0, 0.0, 0.0, 0.0, 0.0, 0.0, 0.0, 0.0, 0.0, 1.6541739295594673E9, 0.0, 2022-06-02 14:45:29.559
41.0, -13537.132863656625, 10052.630013540986, -45586.561630554395, -38948.9428936175, -22976.721582021903, -20036.997799515462, -8229.554680532776, -9258.852512699666, 0.01, 0.922, 0.448, 192.0, 0.0, 0.0, 0.0, 0.0, 0.0, 0.0, 0.0, 0.0, 0.0, 1.6541739295594735E9, 0.0, 2022-06-02 14:45:29.559
42.0, -13541.826729992239, 10052.384144351978, -45582.40420608571, -38942.460887725465, -22968.02675342879, -20029.10763372274, -8201.279723796812, -9276.108059419163, 0.01, 0.922, 0.448, 192.0, 0.0, 0.0, 0.0, 0.0, 0.0, 0.0, 0.0, 0.0, 0.0, 1.6541739295594792E9, 0.0, 2022-06-02 14:45:29.559
43.0, -13539.010410190871, 10058.642632799463, -45565.953322166606, -38923.19368400499, -22943.26102057231, -20011.24858990295, -8165.315766968223, -9243.630974725602, 0.01, 0.922, 0.448, 192.0, 0.0, 0.0, 0.0, 0.0, 0.0, 0.0, 0.0, 0.0, 0.0, 1.654173929559492E9, 0.0, 2022-06-02 14:45:29.559
44.0, -13525.956991428971, 10070.310243405132, -45553.1010691048, -38912.06251526625, -22929.78291866576, -20003.648996788146, -8136.616127087609, -9231.806901908743, 0.01, 0.922, 0.448, 192.0, 0.0, 0.0, 0.0, 0.0, 0.0, 0.0, 0.0, 0.0, 0.0, 1.6541739295594983E9, 0.0, 2022-06-02 14:45:29.559
45.0, -13531.500224053887, 10062.822409012606, -45571.09422339132, -38927.59697766268, -22954.168671866497, -20010.846258502756, -8162.544150655765, -9186.25404670883, 0.01, 0.922, 0.448, 192.0, 0.0, 0.0, 0.0, 0.0, 0.0, 0.0, 0.0, 0.0, 0.0, 1.6541739295595036E9, 0.0, 2022-06-02 14:45:29.559
46.0, -13540.664439280563, 10046.975022193792, -45592.79776725743, -38946.52890521633, -22974.173483153998, -20033.24270644697, -8201.883220897105, -9230.868128641621, 0.01, 0.922, 0.448, 192.0, 0.0, 0.0, 0.0, 0.0, 0.0, 0.0, 0.0, 0.0, 0.0, 1.6541739295595093E9, 0.0, 2022-06-02 14:45:29.559
47.0, -13536.596421789698, 10052.898234474449, -45589.37795035577, -38937.87878011212, -22956.247384100843, -20027.207735444037, -8195.021235349326, -9290.07789970373, 0.016, 0.936, 0.46, 192.0, 0.0, 128.0, 29.0, 64.0, 14.0, 96.0, 0.0, 0.0, 0.0, 1.6541739295595198E9, 0.0, 2022-06-02 14:45:29.559
48.0, -13519.139709370103, 10077.70867081984, -45558.57724649635, -38906.98866927489, -22918.160011549, -19994.6188920282, -8151.345926683656, -9259.321899333227, 0.016, 0.936, 0.46, 192.0, 0.0, 0.0, 0.0, 0.0, 0.0, 0.0, 0.0, 0.0, 0.0, 1.6541739295595267E9, 0.0, 2022-06-02 14:45:29.559
49.0, -13523.185375116513, 10070.600816083052, -45560.94653140861, -38914.29768971178, -22924.619665696584, -20007.359386367727, -8162.208874488935, -9204.358959717627, 0.016, 0.936, 0.46, 192.0, 0.0, 0.0, 0.0, 0.0, 0.0, 0.0, 0.0, 0.0, 0.0, 1.6541739295595329E9, 0.0, 2022-06-02 14:45:29.559
50.0, -13542.899613726095, 10047.399705338443, -45591.76958701248, -38945.098393571185, -22956.269735845297, -20038.405959416148, -8194.99888360487, -9209.164584775519, 0.016, 0.936, 0.46, 192.0, 0.0, 0.0, 0.0, 0.0, 0.0, 0.0, 0.0, 0.0, 0.0, 1.654173929559543E9, 0.0, 2022-06-02 14:45:29.559
51.0, -13567.665346582575, 10022.455158526322, -45623.12908448328, -38978.38014106514, -22992.36780314062, -20061.048276549373, -8216.076578626225, -9251.968175407432, 0.016, 0.936, 0.46, 192.0, 0.0, 0.0, 0.0, 0.0, 0.0, 0.0, 0.0, 0.0, 0.0, 1.654173929559549E9, 0.0, 2022-06-02 14:45:29.559
52.0, -13558.814055778272, 10033.049885398137, -45606.29822090843, -38955.581361720724, -22973.435875586973, -20039.031808260897, -8198.753976673363, -9212.53969818827, 0.016, 0.936, 0.46, 192.0, 0.0, 0.0, 0.0, 0.0, 0.0, 0.0, 0.0, 0.0, 0.0, 1.654173929559555E9, 0.0, 2022-06-02 14:45:29.559
53.0, -13536.529366556331, 10056.988603709771, -45572.68119724765, -38914.1859309895, -22926.92189537548, -20002.374947354194, -8156.75504884184, -9182.968340273897, 0.016, 0.936, 0.46, 192.0, 0.0, 0.0, 0.0, 0.0, 0.0, 0.0, 0.0, 0.0, 0.0, 1.6541739295595608E9, 0.0, 2022-06-02 14:45:29.559
54.0, -13541.11147416967, 10050.484246073276, -45579.54318279543, -38924.624195650125, -22926.564267464193, -20012.455584103536, -8153.111714495625, -9199.441575937459, 0.016, 0.936, 0.46, 192.0, 0.0, 0.0, 0.0, 0.0, 0.0, 0.0, 0.0, 0.0, 0.0, 1.6541739295595672E9, 0.0, 2022-06-02 14:45:29.559
55.0, -13565.318413414767, 10025.405588794421, -45611.77439829998, -38959.62702746714, -22973.21235814242, -20042.876308307208, -8195.28945628279, -9234.153835076551, 0.016, 0.936, 0.46, 192.0, 0.0, 0.0, 0.0, 0.0, 0.0, 0.0, 0.0, 0.0, 0.0, 1.6541739295595741E9, 0.0, 2022-06-02 14:45:29.559
56.0, -13575.041422252825, 10016.822518923584, -45632.85209332134, -38975.67557998605, -22996.45817237594, -20054.163939257138, -8218.714084471952, -9257.511408032347, 0.016, 0.936, 0.46, 192.0, 0.0, 0.0, 0.0, 0.0, 0.0, 0.0, 0.0, 0.0, 0.0, 1.65417392955958E9, 0.0, 2022-06-02 14:45:29.559
57.0, -13569.11820997217, 10025.65145798343, -45625.140741484254, -38964.87968741413, -22979.64966054555, -20046.050256019862, -8204.364264531645, -9256.572634765225, 0.014, 0.922, 0.47000000000000003, 192.0, 0.0, 112.0, 28.0, 208.0, 14.0, 176.0, 0.0, 0.0, 0.0, 1.6541739295595872E9, 0.0, 2022-06-02 14:45:29.559
58.0, -13538.563375301765, 10060.251958400246, -45586.40516834321, -38922.74664911588, -22933.895639645536, -20002.91138922112, -8167.640348391575, -9209.455157453438, 0.014, 0.922, 0.47000000000000003, 192.0, 0.0, 0.0, 0.0, 0.0, 0.0, 0.0, 0.0, 0.0, 0.0, 1.6541739295595958E9, 0.0, 2022-06-02 14:45:29.559
59.0, -13530.762616486862, 10072.2771969172, -45581.44308107413, -38918.45511418046, -22934.58854372365, -19993.456601316524, -8172.33421472719, -9202.369654461105, 0.014, 0.922, 0.47000000000000003, 192.0, 0.0, 0.0, 0.0, 0.0, 0.0, 0.0, 0.0, 0.0, 0.0, 1.6541739295596018E9, 0.0, 2022-06-02 14:45:29.559
60.0, -13554.075485953748, 10043.644612269953, -45619.99984025954, -38956.90011464359, -22974.106427920633, -20031.320456423815, -8213.260258824857, -9247.453123027459, 0.014, 0.922, 0.47000000000000003, 192.0, 0.0, 0.0, 0.0, 0.0, 0.0, 0.0, 0.0, 0.0, 0.0, 1.6541739295596077E9, 0.0, 2022-06-02 14:45:29.559
61.0, -13579.288253699335, 10014.296771800135, -45654.019195320514, -38991.56767029377, -23005.175352713508, -20066.92678534112, -8239.38944809311, -9283.282969389316, 0.014, 0.922, 0.47000000000000003, 192.0, 0.0, 0.0, 0.0, 0.0, 0.0, 0.0, 0.0, 0.0, 0.0, 1.6541739295596137E9, 0.0, 2022-06-02 14:45:29.559
62.0, -13575.309643186289, 10022.3657515485, -45645.346718471854, -38985.10801614619, -22996.927559009502, -20063.082285294808, -8239.434151582022, -9274.878713474121, 0.014, 0.922, 0.47000000000000003, 192.0, 0.0, 0.0, 0.0, 0.0, 0.0, 0.0, 0.0, 0.0, 0.0, 1.6541739295596197E9, 0.0, 2022-06-02 14:45:29.559
63.0, -13552.220291163958, 10048.22671988329, -45611.12619771078, -38943.66788192605, -22958.571965524196, -20022.491517363967, -8202.10673834166, -9232.92448913151, 0.014, 0.922, 0.47000000000000003, 192.0, 0.0, 0.0, 0.0, 0.0, 0.0, 0.0, 0.0, 0.0, 0.0, 1.654173929559626E9, 0.0, 2022-06-02 14:45:29.559
64.0, -13540.597384047198, 10052.98764145227, -45608.75691279852, -38944.80782089327, -22956.560308523218, -20023.519697608914, -8197.882258639605, -9231.516329230826, 0.014, 0.922, 0.47000000000000003, 192.0, 0.0, 0.0, 0.0, 0.0, 0.0, 0.0, 0.0, 0.0, 0.0, 1.6541739295596373E9, 0.0, 2022-06-02 14:45:29.559
65.0, -13547.571128317253, 10039.777760479185, -45629.45462816413, -38972.90396367359, -22981.92953847999, -20045.849090319763, -8227.207747364968, -9261.914701690042, 0.014, 0.922, 0.47000000000000003, 192.0, 0.0, 0.0, 0.0, 0.0, 0.0, 0.0, 0.0, 0.0, 0.0, 1.654173929559646E9, 0.0, 2022-06-02 14:45:29.559
66.0, -13578.72946008795, 10010.45227175382, -45660.523552957005, -39007.459760601494, -23013.89253305108, -20091.334890286314, -8252.174645921546, -9310.954429024987, 0.014, 0.922, 0.47000000000000003, 192.0, 0.0, 0.0, 0.0, 0.0, 0.0, 0.0, 0.0, 0.0, 0.0, 1.6541739295596514E9, 0.0, 2022-06-02 14:45:29.559
67.0, -13579.109439743692, 10020.018818380693, -45642.50804692603, -38987.745521991914, -22993.664204319026, -20074.861654622753, -8223.698523485486, -9284.892294990099, 0.014, 0.912, 0.47000000000000003, 192.0, 0.0, 112.0, 28.0, 128.0, 14.0, 176.0, 0.0, 0.0, 0.0, 1.6541739295596566E9, 0.0, 2022-06-02 14:45:29.559
68.0, -13555.796570276807, 10050.148969906446, -45597.87161324878, -38941.16448654705, -22953.69928523294, -20025.419595887615, -8200.43035750751, -9237.081913600197, 0.014, 0.912, 0.47000000000000003, 192.0, 0.0, 0.0, 0.0, 0.0, 0.0, 0.0, 0.0, 0.0, 0.0, 1.6541739295596623E9, 0.0, 2022-06-02 14:45:29.559
69.0, -13543.547814315298, 10061.235435156279, -45587.120424165776, -38933.87781785463, -22952.78286371027, -20014.6237033157, -8265.16100945008, -9226.286021028283, 0.014, 0.912, 0.47000000000000003, 192.0, 0.0, 0.0, 0.0, 0.0, 0.0, 0.0, 0.0, 0.0, 0.0, 1.6541739295596678E9, 0.0, 2022-06-02 14:45:29.559
70.0, -13564.737268058929, 10032.401684808932, -45624.514892639505, -38977.3519608202, -22995.854675275645, -20046.25142171996, -8320.414521743598, -9253.26457658584, 0.014, 0.912, 0.47000000000000003, 192.0, 0.0, 0.0, 0.0, 0.0, 0.0, 0.0, 0.0, 0.0, 0.0, 1.6541739295596733E9, 0.0, 2022-06-02 14:45:29.559
71.0, -13588.318358459277, 10003.389120505944, -45652.141648786266, -39012.66771705958, -23011.098564994165, -20085.769305916943, -8222.558584518265, -9302.773690554344, 0.014, 0.912, 0.47000000000000003, 192.0, 0.0, 0.0, 0.0, 0.0, 0.0, 0.0, 0.0, 0.0, 0.0, 1.6541739295596788E9, 0.0, 2022-06-02 14:45:29.559
72.0, -13587.468992169976, 10010.206402564812, -45643.670337637705, -39002.60943205469, -22997.285186920784, -20086.55161697288, -8176.692804895974, -9318.241097717417, 0.014, 0.912, 0.47000000000000003, 192.0, 0.0, 0.0, 0.0, 0.0, 0.0, 0.0, 0.0, 0.0, 0.0, 1.6541739295596848E9, 0.0, 2022-06-02 14:45:29.559
73.0, -13547.615831806164, 10054.46285658632, -45592.59660155733, -38951.08866108521, -22952.939325921456, -20041.021113517418, -8150.965947027916, -9286.278103146327, 0.014, 0.912, 0.47000000000000003, 192.0, 0.0, 0.0, 0.0, 0.0, 0.0, 0.0, 0.0, 0.0, 0.0, 1.6541739295596905E9, 0.0, 2022-06-02 14:45:29.559
74.0, -13537.289325867812, 10060.251958400246, -45578.313836850386, -38942.662053425556, -22947.12787236308, -20029.241744189472, -8150.4518569054435, -9256.840855698689, 0.014, 0.912, 0.47000000000000003, 192.0, 0.0, 0.0, 0.0, 0.0, 0.0, 0.0, 0.0, 0.0, 0.0, 1.6541739295597005E9, 0.0, 2022-06-02 14:45:29.559
75.0, -13549.381619618132, 10045.41040008192, -45600.77734002797, -38967.60660023768, -22971.468922074906, -20046.29612520887, -8179.486772952888, -9252.012878896341, 0.014, 0.912, 0.47000000000000003, 192.0, 0.0, 0.0, 0.0, 0.0, 0.0, 0.0, 0.0, 0.0, 0.0, 1.6541739295597067E9, 0.0, 2022-06-02 14:45:29.559
76.0, -13560.021049978859, 10029.630068496475, -45623.620822861296, -38984.951553935, -22991.138457195575, -20066.479750452014, -8210.175718090024, -9278.365585609148, 0.014, 0.912, 0.47000000000000003, 192.0, 0.0, 0.0, 0.0, 0.0, 0.0, 0.0, 0.0, 0.0, 0.0, 1.6541739295597122E9, 0.0, 2022-06-02 14:45:29.559
77.0, -13557.96468948897, 10030.881766185972, -45618.81519780341, -38970.04294038331, -22987.74099203837, -20058.455474192557, -8206.778252932818, -9262.048812156774, 0.028, 0.898, 0.47200000000000003, 192.0, 0.0, 224.0, 28.0, 16.0, 14.0, 192.0, 0.0, 0.0, 0.0, 1.654173929559719E9, 0.0, 2022-06-02 14:45:29.559
78.0, -13543.927793971037, 10055.580443809085, -45582.515964807986, -38937.342338245195, -22959.0190004133, -20020.09988070725, -8185.298226511268, -9223.201480293452, 0.028, 0.898, 0.47200000000000003, 192.0, 0.0, 0.0, 0.0, 0.0, 0.0, 0.0, 0.0, 0.0, 0.0, 1.6541739295597274E9, 0.0, 2022-06-02 14:45:29.559
79.0, -13527.3427995852, 10068.99149048227, -45569.17197336817, -38926.32292822873, -22952.425235798986, -20013.796688770854, -8184.337101499689, -9217.658247668534, 0.028, 0.898, 0.47200000000000003, 192.0, 0.0, 0.0, 0.0, 0.0, 0.0, 0.0, 0.0, 0.0, 0.0, 1.6541739295597377E9, 0.0, 2022-06-02 14:45:29.559
80.0, -13533.578936288231, 10057.592100810063, -45589.154432911215, -38945.61248369366, -22974.240538387363, -20035.29906693686, -8211.270953568335, -9230.01876235232, 0.028, 0.898, 0.47200000000000003, 192.0, 0.0, 0.0, 0.0, 0.0, 0.0, 0.0, 0.0, 0.0, 0.0, 1.6541739295597432E9, 0.0, 2022-06-02 14:45:29.559
81.0, -13557.87528251115, 10031.2170423528, -45618.32345942539, -38977.64253349812, -23003.27545443481, -20071.017154576442, -8260.713012303473, -9264.59691102468, 0.028, 0.898, 0.47200000000000003, 192.0, 0.0, 0.0, 0.0, 0.0, 0.0, 0.0, 0.0, 0.0, 0.0, 1.654173929559756E9, 0.0, 2022-06-02 14:45:29.559
82.0, -13562.502093613399, 10029.875937685483, -45619.12812222578, -38974.93797241902, -22998.916864266022, -20066.815026618842, -8257.851989013194, -9272.621187284134, 0.028, 0.898, 0.47200000000000003, 192.0, 0.0, 0.0, 0.0, 0.0, 0.0, 0.0, 0.0, 0.0, 0.0, 1.654173929559765E9, 0.0, 2022-06-02 14:45:29.559
83.0, -13538.049285179291, 10059.447295599854, -45578.13502289475, -38934.70483239947, -22952.425235798986, -20038.80829081634, -8175.3964037175665, -9279.371414109637, 0.028, 0.898, 0.47200000000000003, 192.0, 0.0, 0.0, 0.0, 0.0, 0.0, 0.0, 0.0, 0.0, 0.0, 1.6541739295597734E9, 0.0, 2022-06-02 14:45:29.559
84.0, -13535.411779333566, 10058.553225821643, -45575.4081100712, -38938.45992546796, -22947.574907252183, -20038.271848949415, -8160.264272721323, -9275.817486741244, 0.028, 0.898, 0.47200000000000003, 192.0, 0.0, 0.0, 0.0, 0.0, 0.0, 0.0, 0.0, 0.0, 0.0, 1.6541739295597787E9, 0.0, 2022-06-02 14:45:29.559
85.0, -13550.4992068409, 10041.543548291153, -45604.44302611864, -38966.846640926204, -22976.185140154976, -20062.4340847056, -8194.4847934824, -9234.578518221202, 0.028, 0.898, 0.47200000000000003, 192.0, 0.0, 0.0, 0.0, 0.0, 0.0, 0.0, 0.0, 0.0, 0.0, 1.654173929559785E9, 0.0, 2022-06-02 14:45:29.559
86.0, -13564.960785503483, 10020.689370714352, -45628.24763396355, -38994.51810056187, -23005.22005620242, -20093.190085076105, -8264.132829205135, -9269.156666893563, 0.028, 0.898, 0.47200000000000003, 192.0, 0.0, 0.0, 0.0, 0.0, 0.0, 0.0, 0.0, 0.0, 0.0, 1.6541739295597951E9, 0.0, 2022-06-02 14:45:29.559
87.0, -13560.937471501527, 10023.237469582256, -45623.17378797219, -38982.582269022736, -23001.263797433832, -20082.26008203746, -8295.917009820581, -9267.524989548325, 0.046, 0.908, 0.464, 192.0, 1.0, 112.0, 28.0, 96.0, 14.0, 128.0, 0.0, 0.0, 0.0, 1.6541739295598009E9, 0.0, 2022-06-02 14:45:29.559
88.0, -13549.15810217358, 10040.805940724129, -45595.63643880325, -38948.69702442849, -22965.21043362742, -20040.417616417126, -8198.329293528712, -9205.230677751384, 0.046, 0.908, 0.464, 192.0, 0.0, 0.0, 0.0, 0.0, 0.0, 0.0, 0.0, 0.0, 0.0, 1.654173929559807E9, 0.0, 2022-06-02 14:45:29.559
89.0, -13533.713046754963, 10054.261690886224, -45576.97273218307, -38934.32485274373, -22950.905317176024, -20031.029883745898, -8133.911566008516, -9225.570765205714, 0.046, 0.908, 0.464, 192.0, 0.0, 0.0, 0.0, 0.0, 0.0, 0.0, 0.0, 0.0, 0.0, 1.6541739295598145E9, 0.0, 2022-06-02 14:45:29.559
90.0, -13537.11051191217, 10041.543548291153, -45597.35752312631, -38959.515268744864, -22977.347430866652, -20063.86459635074, -8174.569389172721, -9270.296605860784, 0.046, 0.908, 0.464, 192.0, 0.0, 0.0, 0.0, 0.0, 0.0, 0.0, 0.0, 0.0, 0.0, 1.6541739295598204E9, 0.0, 2022-06-02 14:45:29.559
91.0, -13533.891860710606, 10041.722362246795, -45607.192290686646, -38969.75236770539, -22987.36101238263, -20075.487503467502, -8241.95989870547, -9265.200408124972, 0.046, 0.908, 0.464, 192.0, 0.0, 0.0, 0.0, 0.0, 0.0, 0.0, 0.0, 0.0, 0.0, 1.6541739295598264E9, 0.0, 2022-06-02 14:45:29.559
92.0, -13536.507014811876, 10041.498844802243, -45609.896851765734, -38965.50553625888, -22988.523303094305, -20066.92678534112, -8248.397201108599, -9234.757332176845, 0.046, 0.908, 0.464, 192.0, 0.0, 0.0, 0.0, 0.0, 0.0, 0.0, 0.0, 0.0, 0.0, 1.6541739295598328E9, 0.0, 2022-06-02 14:45:29.559
93.0, -13527.96864842995, 10055.356926364533, -45583.633552030755, -38932.112030042656, -22954.392189311053, -20037.042503004373, -8157.760877342329, -9231.203404808452, 0.046, 0.908, 0.464, 192.0, 0.0, 0.0, 0.0, 0.0, 0.0, 0.0, 0.0, 0.0, 0.0, 1.6541739295598388E9, 0.0, 2022-06-02 14:45:29.559
94.0, -13531.76844498735, 10053.367621108011, -45581.532488051955, -38930.569759675236, -22953.83339569967, -20032.86272679123, -8137.487845121365, -9215.668942412012, 0.046, 0.908, 0.464, 192.0, 0.0, 0.0, 0.0, 0.0, 0.0, 0.0, 0.0, 0.0, 0.0, 1.6541739295598452E9, 0.0, 2022-06-02 14:45:29.559
95.0, -13545.134788171625, 10037.855510456027, -45603.99599122954, -38955.82723090974, -22984.343526881163, -20050.453549677557, -8180.2690840088235, -9237.886576400588, 0.046, 0.908, 0.464, 192.0, 0.0, 0.0, 0.0, 0.0, 0.0, 0.0, 0.0, 0.0, 0.0, 1.6541739295598516E9, 0.0, 2022-06-02 14:45:29.559
96.0, -13537.803415990284, 10038.257841856223, -45612.17672970018, -38963.15860309108, -22991.809009529235, -20065.809198118353, -8204.028988364815, -9273.559960551258, 0.046, 0.908, 0.464, 192.0, 0.0, 0.0, 0.0, 0.0, 0.0, 0.0, 0.0, 0.0, 0.0, 1.654173929559858E9, 0.0, 2022-06-02 14:45:29.559
97.0, -13526.359322829167, 10049.858397228527, -45597.08930219285, -38947.624140694636, -22978.889701234068, -20060.22126200453, -8192.271970781323, -9258.852512699666, 0.056, 0.91, 0.464, 192.0, 1.0, 192.0, 28.0, 112.0, 14.0, 128.0, 0.0, 0.0, 0.0, 1.6541739295598643E9, 0.0, 2022-06-02 14:45:29.559
98.0, -13507.762671442351, 10075.071164974113, -45554.28571156094, -38908.86621580913, -22940.28823855975, -20017.350616139247, -8159.616072132119, -9228.856471640644, 0.056, 0.91, 0.464, 192.0, 0.0, 0.0, 0.0, 0.0, 0.0, 0.0, 0.0, 0.0, 0.0, 1.6541739295598705E9, 0.0, 2022-06-02 14:45:29.559
99.0, -13505.393386530088, 10077.731022564296, -45549.994176625514, -38909.20149197597, -22937.62838096957, -20014.802517271342, -8166.4110024465335, -9224.810805894233, 0.056, 0.91, 0.464, 192.0, 0.0, 0.0, 0.0, 0.0, 0.0, 0.0, 0.0, 0.0, 0.0, 1.6541739295598762E9, 0.0, 2022-06-02 14:45:29.559
100.0, -13527.58866877421, 10051.691240273864, -45574.5587437819, -38939.51045745736, -22970.753666252338, -20053.292221223383, -8210.645104723586, -9232.097474586662, 0.056, 0.91, 0.464, 192.0, 0.0, 0.0, 0.0, 0.0, 0.0, 0.0, 0.0, 0.0, 0.0, 1.654173929559882E9, 0.0, 2022-06-02 14:45:29.559
101.0, -13557.316488899767, 10020.577611992076, -45605.13593019676, -38977.687236987025, -23006.248236447365, -20089.233826307514, -8270.927759519549, -9261.78059122331, 0.056, 0.91, 0.464, 192.0, 0.0, 0.0, 0.0, 0.0, 0.0, 0.0, 0.0, 0.0, 0.0, 1.6541739295598876E9, 0.0, 2022-06-02 14:45:29.559
102.0, -13551.080352196735, 10028.847757440539, -45595.47997659206, -38970.15469910559, -22987.271605404807, -20075.59926218978, -8232.750979989885, -9240.63584096859, 0.056, 0.91, 0.464, 192.0, 0.0, 0.0, 0.0, 0.0, 0.0, 0.0, 0.0, 0.0, 0.0, 1.654173929559894E9, 0.0, 2022-06-02 14:45:29.559
103.0, -13533.400122332589, 10053.457028085832, -45555.4032987837, -38924.87006483914, -22949.20658459742, -20040.551726883856, -8169.361432714633, -9210.68450339848, 0.056, 0.91, 0.464, 192.0, 0.0, 0.0, 0.0, 0.0, 0.0, 0.0, 0.0, 0.0, 0.0, 1.6541739295599E9, 0.0, 2022-06-02 14:45:29.559
104.0, -13517.955066913972, 10070.980795738793, -45534.05738282888, -38911.615480377135, -22939.394168781542, -20027.25243893295, -8138.337211410668, -9210.081006298185, 0.056, 0.91, 0.464, 192.0, 0.0, 0.0, 0.0, 0.0, 0.0, 0.0, 0.0, 0.0, 0.0, 1.6541739295599055E9, 0.0, 2022-06-02 14:45:29.559
105.0, -13535.456482822477, 10048.383182094478, -45559.27015057447, -38944.60665519317, -22965.724523749894, -20062.165863772138, -8170.769592615318, -9249.464780028437, 0.056, 0.91, 0.464, 192.0, 0.0, 0.0, 0.0, 0.0, 0.0, 0.0, 0.0, 0.0, 0.0, 1.654173929559911E9, 0.0, 2022-06-02 14:45:29.559
106.0, -13548.152273673091, 10031.775835964185, -45581.73365375205, -38968.0983386157, -22987.897454249556, -20078.415581991147, -8212.902630913572, -9270.989509938898, 0.06, 0.9440000000000001, 0.47200000000000003, 192.0, 1.0, 224.0, 29.0, 128.0, 14.0, 192.0, 0.0, 0.0, 0.0, 1.6541739295599167E9, 0.0, 2022-06-02 14:45:29.559
107.0, -13535.702352011485, 10045.969193693303, -45566.221543100066, -38947.691195928004, -22969.792541240757, -20055.34858171327, -8195.065938838237, -9262.7864197238, 0.06, 0.9440000000000001, 0.47200000000000003, 192.0, 0.0, 0.0, 0.0, 0.0, 0.0, 0.0, 0.0, 0.0, 0.0, 1.6541739295599303E9, 0.0, 2022-06-02 14:45:29.559
108.0, -13514.155270356569, 10069.639691071474, -45537.700717175096, -38919.304480469764, -22936.756662935815, -20020.837488274276, -8152.195292972958, -9234.332649032194, 0.06, 0.9440000000000001, 0.47200000000000003, 192.0, 0.0, 0.0, 0.0, 0.0, 0.0, 0.0, 0.0, 0.0, 0.0, 1.6541739295599377E9, 0.0, 2022-06-02 14:45:29.559
109.0, -13515.00463664587, 10069.259711415734, -45539.91353987617, -38926.8370183512, -22943.43983452795, -20018.267037661917, -8165.919264068516, -9222.374465748604, 0.06, 0.9440000000000001, 0.47200000000000003, 192.0, 0.0, 0.0, 0.0, 0.0, 0.0, 0.0, 0.0, 0.0, 0.0, 1.6541739295599437E9, 0.0, 2022-06-02 14:45:29.559
110.0, -13532.260183365368, 10051.288908873667, -45565.64039774423, -38953.30148378629, -22963.377590582084, -20039.43413966109, -8205.258334309858, -9233.662096698536, 0.06, 0.9440000000000001, 0.47200000000000003, 192.0, 0.0, 0.0, 0.0, 0.0, 0.0, 0.0, 0.0, 0.0, 0.0, 1.6541739295599492E9, 0.0, 2022-06-02 14:45:29.559
111.0, -13547.30290738379, 10035.106245888024, -45587.65686603271, -38968.52302176035, -22974.553462809738, -20060.534186426903, -8209.326351800722, -9232.857433898143, 0.06, 0.9440000000000001, 0.47200000000000003, 192.0, 0.0, 0.0, 0.0, 0.0, 0.0, 0.0, 0.0, 0.0, 0.0, 1.6541739295599551E9, 0.0, 2022-06-02 14:45:29.559
112.0, -13540.507977069376, 10043.197577380846, -45577.55387753891, -38954.03909135331, -22961.05300915873, -20047.50311940946, -8188.807450390751, -9230.532852474791, 0.06, 0.9440000000000001, 0.47200000000000003, 192.0, 0.0, 0.0, 0.0, 0.0, 0.0, 0.0, 0.0, 0.0, 0.0, 1.6541739295599613E9, 0.0, 2022-06-02 14:45:29.559
113.0, -13511.428357533021, 10073.953577751348, -45539.91353987617, -38912.46484666644, -22929.604104710117, -20001.302063620336, -8152.776438328796, -9191.283189211272, 0.06, 0.9440000000000001, 0.47200000000000003, 192.0, 0.0, 0.0, 0.0, 0.0, 0.0, 0.0, 0.0, 0.0, 0.0, 1.65417392955997E9, 0.0, 2022-06-02 14:45:29.559
114.0, -13507.539153997799, 10077.70867081984, -45534.884397373724, -38910.162616987545, -22921.40101449502, -19996.719956007, -8148.820179560206, -9190.903209555532, 0.06, 0.9440000000000001, 0.47200000000000003, 192.0, 0.0, 0.0, 0.0, 0.0, 0.0, 0.0, 0.0, 0.0, 0.0, 1.6541739295599759E9, 0.0, 2022-06-02 14:45:29.559
115.0, -13536.328200856233, 10049.478417572787, -45575.69868274912, -38952.63093145263, -22958.527262035284, -20040.529375139402, -8192.361377759145, -9256.013841153841, 0.06, 0.9440000000000001, 0.47200000000000003, 192.0, 0.0, 0.0, 0.0, 0.0, 0.0, 0.0, 0.0, 0.0, 0.0, 1.6541739295599828E9, 0.0, 2022-06-02 14:45:29.559
116.0, -13553.360230131178, 10031.775835964185, -45602.27490690648, -38973.88744042962, -22986.377535626598, -20062.568195172335, -8236.997811436393, -9271.749469250379, 0.042, 0.9380000000000001, 0.464, 192.0, 1.0, 80.0, 29.0, 80.0, 14.0, 128.0, 0.0, 0.0, 0.0, 1.6541739295599897E9, 0.0, 2022-06-02 14:45:29.559
117.0, -13546.945279472504, 10038.146083133946, -45597.93866848215, -38961.92925714603, -22977.638003544573, -20046.564346142335, -8235.030857924326, -9256.438524298492, 0.042, 0.9380000000000001, 0.464, 192.0, 0.0, 0.0, 0.0, 0.0, 0.0, 0.0, 0.0, 0.0, 0.0, 1.654173929559997E9, 0.0, 2022-06-02 14:45:29.559
118.0, -13529.242697863901, 10061.928339234393, -45568.188496612136, -38930.25683525286, -22940.15412809302, -20015.048386460352, -8181.140802042581, -9222.128596559596, 0.042, 0.9380000000000001, 0.464, 192.0, 0.0, 0.0, 0.0, 0.0, 0.0, 0.0, 0.0, 0.0, 0.0, 1.6541739295600026E9, 0.0, 2022-06-02 14:45:29.560
119.0, -13527.409854818567, 10065.974004980804, -45556.76675519547, -38927.32875672922, -22928.57592446517, -20006.308854378327, -8135.789112542762, -9194.367729946105, 0.042, 0.9380000000000001, 0.464, 192.0, 0.0, 0.0, 0.0, 0.0, 0.0, 0.0, 0.0, 0.0, 0.0, 1.6541739295600095E9, 0.0, 2022-06-02 14:45:29.560
120.0, -13553.024953964348, 10037.60964126702, -45584.90760146471, -38965.21496358096, -22962.617631270605, -20041.49050015098, -8168.601473403153, -9219.781663391788, 0.042, 0.9380000000000001, 0.464, 192.0, 0.0, 0.0, 0.0, 0.0, 0.0, 0.0, 0.0, 0.0, 0.0, 1.6541739295600152E9, 0.0, 2022-06-02 14:45:29.560
121.0, -13558.143503444613, 10027.238431839756, -45606.07470346388, -38984.884498701635, -22980.610785557128, -20061.11533178274, -8210.712159956951, -9261.132390634108, 0.042, 0.9380000000000001, 0.464, 192.0, 0.0, 0.0, 0.0, 0.0, 0.0, 0.0, 0.0, 0.0, 0.0, 1.6541739295600219E9, 0.0, 2022-06-02 14:45:29.560
122.0, -13550.007468462882, 10037.073199400093, -45600.37500862778, -38975.317952074765, -22974.8216837432, -20045.044427519373, -8219.04936063878, -9263.635786013101, 0.042, 0.9380000000000001, 0.464, 192.0, 0.0, 0.0, 0.0, 0.0, 0.0, 0.0, 0.0, 0.0, 0.0, 1.6541739300396445E9, 0.0, 2022-06-02 14:45:30.039
123.0, -13539.077465424236, 10052.60766179653, -45572.0553484029, -38947.490030227906, -22948.245459585843, -20013.01437771492, -8187.555752701253, -9223.268535526817, 0.042, 0.9380000000000001, 0.464, 192.0, 0.0, 0.0, 0.0, 0.0, 0.0, 0.0, 0.0, 0.0, 0.0, 1.6541739300398593E9, 0.0, 2022-06-02 14:45:30.039
124.0, -13525.48760479541, 10062.151856678945, -45555.4032987837, -38935.263626010856, -22937.471918758383, -20005.5712468113, -8176.8045636182505, -9211.779738876789, 0.042, 0.9380000000000001, 0.464, 192.0, 0.0, 0.0, 0.0, 0.0, 0.0, 0.0, 0.0, 0.0, 0.0, 1.654173930039872E9, 0.0, 2022-06-02 14:45:30.039
125.0, -13538.25045087939, 10046.706801260329, -45577.486822305546, -38958.889419900115, -22960.20364286943, -20030.8287180458, -8210.2874768123, -9242.44633226947, 0.042, 0.9380000000000001, 0.464, 192.0, 0.0, 0.0, 0.0, 0.0, 0.0, 0.0, 0.0, 0.0, 0.0, 1.6541739300398831E9, 0.0, 2022-06-02 14:45:30.039
126.0, -13547.995811461904, 10035.977963921781, -45599.68210454966, -38980.212984110476, -22981.191930912966, -20052.15228225616, -8238.115398659158, -9275.236341385405, 0.026000000000000002, 0.926, 0.456, 192.0, 0.0, 208.0, 28.0, 240.0, 14.0, 64.0, 0.0, 0.0, 0.0, 1.6541739300399048E9, 0.0, 2022-06-02 14:45:30.039
127.0, -13541.334991614223, 10045.41040008192, -45592.77541551297, -38967.29367581531, -22969.07728541819, -20034.74027332548, -8238.182453892525, -9251.767009707333, 0.026000000000000002, 0.926, 0.456, 192.0, 0.0, 0.0, 0.0, 0.0, 0.0, 0.0, 0.0, 0.0, 0.0, 1.6541739300399146E9, 0.0, 2022-06-02 14:45:30.039
128.0, -13525.129976884125, 10067.270406159212, -45561.326511064355, -38935.241274266395, -22936.510793746806, -20002.732575265476, -8182.213685776435, -9219.15581454704, 0.026000000000000002, 0.926, 0.456, 192.0, 0.0, 0.0, 0.0, 0.0, 0.0, 0.0, 0.0, 0.0, 0.0, 1.6541739300399666E9, 0.0, 2022-06-02 14:45:30.039
129.0, -13519.944372170494, 10074.020632984715, -45554.10689760529, -38927.17229451803, -22928.888848887545, -19999.089240919264, -8152.910548795528, -9210.751558631844, 0.026000000000000002, 0.926, 0.456, 192.0, 0.0, 0.0, 0.0, 0.0, 0.0, 0.0, 0.0, 0.0, 0.0, 1.6541739300399776E9, 0.0, 2022-06-02 14:45:30.039
130.0, -13529.265049608357, 10059.983737466782, -45576.637456016244, -38949.18876280651, -22957.655544001525, -20027.945343011063, -8210.645104723586, -9252.750486463367, 0.026000000000000002, 0.926, 0.456, 192.0, 0.0, 0.0, 0.0, 0.0, 0.0, 0.0, 0.0, 0.0, 0.0, 1.6541739300399866E9, 0.0, 2022-06-02 14:45:30.039
131.0, -13527.58866877421, 10054.596967053052, -45592.0601596904, -38965.70670195898, -22972.474750575395, -20043.904488552154, -8241.915195216561, -9286.233399657416, 0.026000000000000002, 0.926, 0.456, 192.0, 0.0, 0.0, 0.0, 0.0, 0.0, 0.0, 0.0, 0.0, 0.0, 1.6541739300399952E9, 0.0, 2022-06-02 14:45:30.039
132.0, -13529.265049608357, 10055.17811240889, -45589.780281755964, -38960.81166992327, -22959.577794024684, -20040.283505950392, -8210.063959367748, -9297.36456839616, 0.026000000000000002, 0.926, 0.456, 192.0, 0.0, 0.0, 0.0, 0.0, 0.0, 0.0, 0.0, 0.0, 0.0, 1.6541739300400045E9, 0.0, 2022-06-02 14:45:30.040
133.0, -13519.72085472594, 10072.99245273977, -45563.18170585415, -38931.46382945345, -22936.0637588577, -20010.48863059147, -8163.460572178433, -9268.217893626439, 0.026000000000000002, 0.926, 0.456, 192.0, 0.0, 0.0, 0.0, 0.0, 0.0, 0.0, 0.0, 0.0, 0.0, 1.6541739300400147E9, 0.0, 2022-06-02 14:45:30.040
134.0, -13514.378787801123, 10080.815563299127, -45552.98931038252, -38920.913806070545, -22928.844145398634, -19995.28944436186, -8127.787188027763, -9204.493070184359, 0.026000000000000002, 0.926, 0.456, 192.0, 0.0, 0.0, 0.0, 0.0, 0.0, 0.0, 0.0, 0.0, 0.0, 1.654173930040024E9, 0.0, 2022-06-02 14:45:30.040
135.0, -13525.331142584222, 10063.157685179434, -45581.040749673935, -38952.20624830798, -22957.007343412322, -20029.331151167295, -8150.18363597198, -9243.49686425887, 0.026000000000000002, 0.926, 0.456, 192.0, 0.0, 0.0, 0.0, 0.0, 0.0, 0.0, 0.0, 0.0, 0.0, 1.654173930040034E9, 0.0, 2022-06-02 14:45:30.040
136.0, -13545.53711957182, 10039.420132567899, -45613.29431692295, -38979.9000596881, -22988.03156471629, -20057.382590458703, -8202.844345908683, -9288.93796073651, 0.028, 0.916, 0.442, 192.0, 0.0, 224.0, 28.0, 160.0, 13.0, 208.0, 0.0, 0.0, 0.0, 1.6541739300400417E9, 0.0, 2022-06-02 14:45:30.040
137.0, -13548.644012051107, 10039.04015291216, -45613.629593089776, -38976.636704997625, -22985.572872826204, -20062.07645679432, -8229.219404365946, -9312.094367992207, 0.028, 0.916, 0.442, 192.0, 0.0, 0.0, 0.0, 0.0, 0.0, 0.0, 0.0, 0.0, 0.0, 1.6541739300400548E9, 0.0, 2022-06-02 14:45:30.040
138.0, -13530.15911938657, 10056.809789754128, -45580.01256942899, -38941.36565224715, -22946.323209562684, -20025.173726698606, -8188.695691668474, -9258.249015599373, 0.028, 0.916, 0.442, 192.0, 0.0, 0.0, 0.0, 0.0, 0.0, 0.0, 0.0, 0.0, 0.0, 1.654173930040064E9, 0.0, 2022-06-02 14:45:30.040
139.0, -13511.3389505552, 10070.980795738793, -45565.863915188784, -38922.90311132707, -22930.118194832587, -19993.14367689415, -8151.144760983559, -9188.221000220896, 0.028, 0.916, 0.442, 192.0, 0.0, 0.0, 0.0, 0.0, 0.0, 0.0, 0.0, 0.0, 0.0, 1.6541739300400739E9, 0.0, 2022-06-02 14:45:30.040
140.0, -13524.079444894725, 10051.937109462871, -45588.12625266627, -38948.76407966186, -22953.743988721846, -20022.491517363967, -8170.166095515025, -9199.307465470727, 0.028, 0.916, 0.442, 192.0, 0.0, 0.0, 0.0, 0.0, 0.0, 0.0, 0.0, 0.0, 0.0, 1.654173930040082E9, 0.0, 2022-06-02 14:45:30.040
141.0, -13541.178529403036, 10025.338533561056, -45619.68691583716, -38980.88353644413, -22981.527207079795, -20058.522529425925, -8192.629598692609, -9250.06827712873, 0.028, 0.916, 0.442, 192.0, 0.0, 0.0, 0.0, 0.0, 0.0, 0.0, 0.0, 0.0, 0.0, 1.6541739300400903E9, 0.0, 2022-06-02 14:45:30.040
142.0, -13550.186282418525, 10022.477510270775, -45625.83364556237, -38979.81065271028, -22979.806122756734, -20062.00940156095, -8191.28849402529, -9233.975021120908, 0.028, 0.916, 0.442, 192.0, 0.0, 0.0, 0.0, 0.0, 0.0, 0.0, 0.0, 0.0, 0.0, 1.6541739300400996E9, 0.0, 2022-06-02 14:45:30.040
143.0, -13532.48370080992, 10049.970155950805, -45589.3108951224, -38935.75536438887, -22937.650732714028, -20012.813212014822, -8152.239996461868, -9202.660227139024, 0.028, 0.916, 0.442, 192.0, 0.0, 0.0, 0.0, 0.0, 0.0, 0.0, 0.0, 0.0, 0.0, 1.6541739300401096E9, 0.0, 2022-06-02 14:45:30.040
144.0, -13518.178584358524, 10062.285967145679, -45576.905676949704, -38925.1382857726, -22922.67506392897, -19999.983310697477, -8140.259461433824, -9207.48820394137, 0.028, 0.916, 0.442, 192.0, 0.0, 0.0, 0.0, 0.0, 0.0, 0.0, 0.0, 0.0, 0.0, 1.65417393004012E9, 0.0, 2022-06-02 14:45:30.040
145.0, -13548.085218439724, 10029.965344663304, -45621.385648415766, -38970.57938225024, -22963.98108768238, -20044.172709485618, -8194.641255693587, -9252.54932076327, 0.028, 0.916, 0.442, 192.0, 0.0, 0.0, 0.0, 0.0, 0.0, 0.0, 0.0, 0.0, 0.0, 1.6541739300401282E9, 0.0, 2022-06-02 14:45:30.040
146.0, -13560.602195334697, 10012.12865258797, -45648.61007316233, -38996.01566744038, -22991.339622895674, -20072.35825924376, -8228.995886921393, -9282.992396711397, 0.03, 0.904, 0.442, 192.0, 0.0, 240.0, 28.0, 64.0, 13.0, 208.0, 0.0, 0.0, 0.0, 1.654173930040136E9, 0.0, 2022-06-02 14:45:30.040
147.0, -13543.883090482128, 10023.12571085998, -45634.95315730014, -38979.229507354445, -22974.59816629865, -20055.30387822436, -8205.995941876881, -9268.754335493366, 0.03, 0.904, 0.442, 192.0, 0.0, 0.0, 0.0, 0.0, 0.0, 0.0, 0.0, 0.0, 0.0, 1.6541739300401468E9, 0.0, 2022-06-02 14:45:30.040
148.0, -13528.974476930438, 10042.370562836, -45601.44789236163, -38946.88653312761, -22941.71875020489, -20019.563438840323, -8171.931883326994, -9230.510500730337, 0.03, 0.904, 0.442, 192.0, 0.0, 0.0, 0.0, 0.0, 0.0, 0.0, 0.0, 0.0, 0.0, 1.6541739300401547E9, 0.0, 2022-06-02 14:45:30.040
149.0, -13527.476910051932, 10045.432751826376, -45593.08833993535, -38940.18100979102, -22938.29893330323, -20018.088223706272, -8175.150534528558, -9224.028494838298, 0.03, 0.904, 0.442, 192.0, 0.0, 0.0, 0.0, 0.0, 0.0, 0.0, 0.0, 0.0, 0.0, 1.6541739300401623E9, 0.0, 2022-06-02 14:45:30.040
150.0, -13532.282535109824, 10040.336554090567, -45611.03679073296, -38959.96230363397, -22961.54474753675, -20041.758721084443, -8206.755901188362, -9270.721289005434, 0.03, 0.904, 0.442, 192.0, 0.0, 0.0, 0.0, 0.0, 0.0, 0.0, 0.0, 0.0, 0.0, 1.6541739300401757E9, 0.0, 2022-06-02 14:45:30.040
151.0, -13537.021104934349, 10031.999353408737, -45629.49933165304, -38977.53077477584, -22985.148189681553, -20062.031753305408, -8236.81899748075, -9277.873847231132, 0.03, 0.904, 0.442, 192.0, 0.0, 0.0, 0.0, 0.0, 0.0, 0.0, 0.0, 0.0, 0.0, 1.6541739300401833E9, 0.0, 2022-06-02 14:45:30.040
152.0, -13541.62556429214, 10026.657286483918, -45631.734506098575, -38977.24020209792, -22990.356146139642, -20066.435046963103, -8225.888994442104, -9284.087632189707, 0.03, 0.904, 0.442, 192.0, 0.0, 0.0, 0.0, 0.0, 0.0, 0.0, 0.0, 0.0, 0.0, 1.654173930040193E9, 0.0, 2022-06-02 14:45:30.040
153.0, -13527.387503074111, 10042.102341902535, -45601.20202317262, -38944.31608251525, -22953.788692210757, -20037.936572782586, -8165.941615812972, -9259.813637711244, 0.03, 0.904, 0.442, 192.0, 0.0, 0.0, 0.0, 0.0, 0.0, 0.0, 0.0, 0.0, 0.0, 1.6541739300402048E9, 0.0, 2022-06-02 14:45:30.040
154.0, -13501.839459161694, 10070.08672596058, -45567.69675823412, -38915.14705600108, -22918.67410167147, -20007.314682878816, -8144.998031258349, -9200.760328860322, 0.03, 0.904, 0.442, 192.0, 0.0, 0.0, 0.0, 0.0, 0.0, 0.0, 0.0, 0.0, 0.0, 1.654173930040213E9, 0.0, 2022-06-02 14:45:30.040
155.0, -13514.669360479042, 10050.305432117633, -45593.423616102176, -38941.29859701379, -22953.185195110465, -20026.648941832656, -8206.53238374381, -9201.363825960616, 0.03, 0.904, 0.442, 192.0, 0.0, 0.0, 0.0, 0.0, 0.0, 0.0, 0.0, 0.0, 0.0, 1.654173930040221E9, 0.0, 2022-06-02 14:45:30.040
156.0, -13535.009447933371, 10023.4162835379, -45629.1193519973, -38975.317952074765, -22991.049050217756, -20060.44477944908, -8240.328221360234, -9254.7844952088, 0.038, 0.916, 0.45, 192.0, 1.0, 48.0, 28.0, 160.0, 14.0, 16.0, 0.0, 0.0, 0.0, 1.6541739300402298E9, 0.0, 2022-06-02 14:45:30.040
157.0, -13536.01527643386, 10025.919678916893, -45627.13004674078, -38971.49580377291, -22983.784733269782, -20059.103674781763, -8198.888087140094, -9275.772783252332, 0.038, 0.916, 0.45, 192.0, 0.0, 0.0, 0.0, 0.0, 0.0, 0.0, 0.0, 0.0, 0.0, 1.6541739300402389E9, 0.0, 2022-06-02 14:45:30.040
158.0, -13502.062976606248, 10062.08480144558, -45583.38768284174, -38923.41720144954, -22933.515659989796, -20014.511944593425, -8158.587891887176, -9215.668942412012, 0.038, 0.916, 0.45, 192.0, 0.0, 0.0, 0.0, 0.0, 0.0, 0.0, 0.0, 0.0, 0.0, 1.6541739300402474E9, 0.0, 2022-06-02 14:45:30.040
159.0, -13480.515894951332, 10081.083784232591, -45565.036900643936, -38901.691305838984, -22911.29802600122, -19994.708299006023, -8143.2322434463795, -9174.09469772514, 0.038, 0.916, 0.45, 192.0, 0.0, 0.0, 0.0, 0.0, 0.0, 0.0, 0.0, 0.0, 0.0, 1.6541739300402567E9, 0.0, 2022-06-02 14:45:30.040
160.0, -13508.992017387392, 10053.993469952758, -45596.88813649275, -38935.12951554412, -22953.945154421945, -20032.505098879945, -8180.917284598027, -9224.363771005126, 0.038, 0.916, 0.45, 192.0, 0.0, 0.0, 0.0, 0.0, 0.0, 0.0, 0.0, 0.0, 0.0, 1.6541739300402648E9, 0.0, 2022-06-02 14:45:30.040
161.0, -13541.782026503328, 10025.115016116502, -45630.058125264426, -38974.42388229655, -22992.434858373985, -20077.432105235115, -8203.96193313145, -9292.782460782822, 0.038, 0.916, 0.45, 192.0, 0.0, 0.0, 0.0, 0.0, 0.0, 0.0, 0.0, 0.0, 0.0, 1.6541739300402725E9, 0.0, 2022-06-02 14:45:30.040
162.0, -13529.10858739717, 10037.184958122369, -45621.27388969349, -38963.58328623573, -22980.431971601483, -20074.34756450028, -8188.405118990555, -9297.073995718241, 0.038, 0.916, 0.45, 192.0, 0.0, 0.0, 0.0, 0.0, 0.0, 0.0, 0.0, 0.0, 0.0, 1.6541739300402815E9, 0.0, 2022-06-02 14:45:30.040
163.0, -13511.450709277477, 10058.03913569917, -45582.62772353026, -38926.12176252863, -22937.851898414123, -20036.97544777101, -8145.378010914089, -9241.082875857697, 0.038, 0.916, 0.45, 192.0, 0.0, 0.0, 0.0, 0.0, 0.0, 0.0, 0.0, 0.0, 0.0, 1.6541739300402896E9, 0.0, 2022-06-02 14:45:30.040
164.0, -13488.875447377617, 10081.039080743682, -45553.92808364965, -38900.48431163839, -22912.683834157448, -20010.846258502756, -8124.345019381645, -9196.267628224807, 0.038, 0.916, 0.45, 192.0, 0.0, 0.0, 0.0, 0.0, 0.0, 0.0, 0.0, 0.0, 0.0, 1.6541739300402977E9, 0.0, 2022-06-02 14:45:30.040
165.0, -13508.522630753832, 10055.17811240889, -45582.60537178581, -38932.51436144285, -22945.384436295564, -20037.02015125992, -8162.3653367001225, -9197.273456725296, 0.038, 0.916, 0.45, 192.0, 0.0, 0.0, 0.0, 0.0, 0.0, 0.0, 0.0, 0.0, 0.0, 1.654173930040306E9, 0.0, 2022-06-02 14:45:30.040
166.0, -13512.836517433707, 10044.89630995945, -45594.608258558306, -38946.998291849886, -22960.74008473636, -20042.74219784048, -8188.338063757189, -9221.525099459303, 0.04, 0.934, 0.464, 192.0, 1.0, 64.0, 29.0, 48.0, 14.0, 128.0, 0.0, 0.0, 0.0, 1.654173930040316E9, 0.0, 2022-06-02 14:45:30.040
167.0, -13519.050302392281, 10037.810806967116, -45599.32447663838, -38952.943855875004, -22960.963602180913, -20042.071645506818, -8193.166040559536, -9230.532852474791, 0.04, 0.934, 0.464, 192.0, 0.0, 0.0, 0.0, 0.0, 0.0, 0.0, 0.0, 0.0, 0.0, 1.654173930040326E9, 0.0, 2022-06-02 14:45:30.040
168.0, -13510.53428775481, 10054.775781008695, -45575.05048215992, -38922.545483415786, -22935.326151290676, -20006.018281700406, -8167.193313502469, -9212.91967784401, 0.04, 0.934, 0.464, 192.0, 0.0, 0.0, 0.0, 0.0, 0.0, 0.0, 0.0, 0.0, 0.0, 1.6541739300403342E9, 0.0, 2022-06-02 14:45:30.040
169.0, -13503.314674295745, 10063.60472006854, -45565.64039774423, -38916.06347752374, -22925.200811052422, -20002.48670607647, -8171.931883326994, -9227.984753606886, 0.04, 0.934, 0.464, 192.0, 0.0, 0.0, 0.0, 0.0, 0.0, 0.0, 0.0, 0.0, 0.0, 1.6541739300403428E9, 0.0, 2022-06-02 14:45:30.040
170.0, -13529.086235652714, 10035.955612177326, -45599.36918012729, -38958.04005361081, -22961.187119625465, -20044.507985652446, -8213.170851847035, -9260.774762722822, 0.04, 0.934, 0.464, 192.0, 0.0, 0.0, 0.0, 0.0, 0.0, 0.0, 0.0, 0.0, 0.0, 1.6541739300403512E9, 0.0, 2022-06-02 14:45:30.040
171.0, -13550.454503351988, 10013.089777599547, -45629.476979908584, -38992.12646390515, -22986.39988737105, -20072.022983076928, -8223.407950807567, -9286.568675824246, 0.04, 0.934, 0.464, 192.0, 0.0, 0.0, 0.0, 0.0, 0.0, 0.0, 0.0, 0.0, 0.0, 1.6541739300403688E9, 0.0, 2022-06-02 14:45:30.040
172.0, -13537.982229945927, 10025.249126583234, -45615.03775299046, -38977.01668465337, -22966.328020850186, -20056.9355555696, -8194.618903949131, -9260.595948767179, 0.04, 0.934, 0.464, 192.0, 0.0, 0.0, 0.0, 0.0, 0.0, 0.0, 0.0, 0.0, 0.0, 1.6541739300403767E9, 0.0, 2022-06-02 14:45:30.040
173.0, -13531.142596142603, 10031.820539453094, -45593.60243005782, -38954.57553322024, -22943.931572905967, -20033.44387214707, -8181.587836931687, -9218.038227324276, 0.04, 0.934, 0.464, 192.0, 0.0, 0.0, 0.0, 0.0, 0.0, 0.0, 0.0, 0.0, 0.0, 1.654173930040384E9, 0.0, 2022-06-02 14:45:30.040
174.0, -13527.812186218762, 10036.916737188905, -45590.54024106744, -38951.245123296394, -22939.707093203913, -20022.849145275253, -8182.303092754257, -9225.749579161356, 0.04, 0.934, 0.464, 192.0, 0.0, 0.0, 0.0, 0.0, 0.0, 0.0, 0.0, 0.0, 0.0, 1.654173930040392E9, 0.0, 2022-06-02 14:45:30.040
175.0, -13528.30392459678, 10036.916737188905, -45592.283677134954, -38962.599809479696, -22950.123006120088, -20032.594505857767, -8197.323465028223, -9237.774817678312, 0.04, 0.934, 0.464, 192.0, 0.0, 0.0, 0.0, 0.0, 0.0, 0.0, 0.0, 0.0, 0.0, 1.6541739300404E9, 0.0, 2022-06-02 14:45:30.040
176.0, -13539.859776480173, 10021.561088748109, -45607.326401153376, -38985.33153359074, -22975.671050032503, -20058.455474192557, -8221.575107762232, -9265.870960458633, 0.032, 0.922, 0.464, 192.0, 1.0, 0.0, 28.0, 208.0, 14.0, 128.0, 0.0, 0.0, 0.0, 1.6541739300404084E9, 0.0, 2022-06-02 14:45:30.040
177.0, -13544.285421882323, 10015.347303789533, -45614.523662867985, -38989.26544061487, -22977.392134355563, -20058.097846281275, -8209.728683200918, -9259.858341200155, 0.032, 0.922, 0.464, 192.0, 0.0, 0.0, 0.0, 0.0, 0.0, 0.0, 0.0, 0.0, 0.0, 1.6541739300404172E9, 0.0, 2022-06-02 14:45:30.040
178.0, -13525.48760479541, 10042.102341902535, -45580.50430780701, -38945.03133833782, -22938.902430403523, -20013.48376434848, -8154.944557540961, -9207.130576030086, 0.032, 0.922, 0.464, 192.0, 0.0, 0.0, 0.0, 0.0, 0.0, 0.0, 0.0, 0.0, 0.0, 1.6541739300404255E9, 0.0, 2022-06-02 14:45:30.040
179.0, -13520.68197973752, 10054.194635652857, -45565.506287277494, -38929.67568989703, -22929.045311098733, -19998.686909519067, -8154.6763366074965, -9199.642741637557, 0.032, 0.922, 0.464, 192.0, 0.0, 0.0, 0.0, 0.0, 0.0, 0.0, 0.0, 0.0, 0.0, 1.6541739300404365E9, 0.0, 2022-06-02 14:45:30.040
180.0, -13534.070674666247, 10038.302545345134, -45593.44596784663, -38964.32089380275, -22955.576831767183, -20032.750968068955, -8206.331218043711, -9246.849625927165, 0.032, 0.922, 0.464, 192.0, 0.0, 0.0, 0.0, 0.0, 0.0, 0.0, 0.0, 0.0, 0.0, 1.654173930040445E9, 0.0, 2022-06-02 14:45:30.040
181.0, -13548.800474262294, 10019.147100346936, -45623.196139716645, -38994.27223137287, -22982.8236082582, -20055.8850235802, -8239.925889960037, -9282.768879266845, 0.032, 0.922, 0.464, 192.0, 0.0, 0.0, 0.0, 0.0, 0.0, 0.0, 0.0, 0.0, 0.0, 1.6541739300404603E9, 0.0, 2022-06-02 14:45:30.040
182.0, -13556.847102266205, 10010.005236864716, -45628.40409617473, -38997.24501338542, -22986.35518388214, -20061.607070160757, -8224.704351985974, -9275.057527429763, 0.032, 0.922, 0.464, 192.0, 0.0, 0.0, 0.0, 0.0, 0.0, 0.0, 0.0, 0.0, 0.0, 1.6541739300404692E9, 0.0, 2022-06-02 14:45:30.040
183.0, -13531.433168820522, 10041.118865146502, -45588.08154917736, -38948.62996919513, -22944.043331628243, -20021.5750958413, -8156.352717441645, -9225.906041372544, 0.032, 0.922, 0.464, 192.0, 0.0, 0.0, 0.0, 0.0, 0.0, 0.0, 0.0, 0.0, 0.0, 1.6541739300404775E9, 0.0, 2022-06-02 14:45:30.040
184.0, -13513.90940116756, 10063.336499135077, -45567.62970300075, -38927.95460557397, -22923.747947662825, -19995.177685639585, -8137.063161976715, -9218.06057906873, 0.032, 0.922, 0.464, 192.0, 0.0, 0.0, 0.0, 0.0, 0.0, 0.0, 0.0, 0.0, 0.0, 1.6541739300404875E9, 0.0, 2022-06-02 14:45:30.040
185.0, -13528.214517618957, 10042.728190747284, -45601.69376155064, -38962.1974780795, -22961.768264981303, -20023.43029063109, -8215.875412926127, -9256.572634765225, 0.03, 0.916, 0.462, 192.0, 0.0, 240.0, 28.0, 160.0, 14.0, 112.0, 0.0, 0.0, 0.0, 1.6541739300404987E9, 0.0, 2022-06-02 14:45:30.040
186.0, -13535.948221200493, 10027.640763239951, -45621.54211062695, -38985.28683010183, -22984.902320492547, -20046.318476953325, -8237.511901558864, -9269.626053527123, 0.03, 0.916, 0.462, 192.0, 0.0, 0.0, 0.0, 0.0, 0.0, 0.0, 0.0, 0.0, 0.0, 1.6541739300405145E9, 0.0, 2022-06-02 14:45:30.040
187.0, -13540.172700902547, 10027.864280684506, -45627.64413686325, -38984.50451904589, -22986.489294348874, -20043.882136807697, -8232.840386967706, -9268.463762815449, 0.03, 0.916, 0.462, 192.0, 0.0, 0.0, 0.0, 0.0, 0.0, 0.0, 0.0, 0.0, 0.0, 1.6541739300405228E9, 0.0, 2022-06-02 14:45:30.040
188.0, -13528.862718208162, 10047.734981505273, -45604.957116241116, -38955.51430648736, -22960.538919036262, -20012.232066658984, -8236.170796891547, -9260.707707489457, 0.03, 0.916, 0.462, 192.0, 0.0, 0.0, 0.0, 0.0, 0.0, 0.0, 0.0, 0.0, 0.0, 1.6541739300405347E9, 0.0, 2022-06-02 14:45:30.040
189.0, -13522.224250104935, 10054.060525186125, -45595.54703182543, -38945.85835288267, -22942.568116494193, -20002.889037476663, -8205.05716860976, -9246.223777082418, 0.03, 0.916, 0.462, 192.0, 0.0, 0.0, 0.0, 0.0, 0.0, 0.0, 0.0, 0.0, 0.0, 1.6541739300405447E9, 0.0, 2022-06-02 14:45:30.040
190.0, -13535.881165967128, 10031.082931886069, -45620.60333735983, -38976.793167208816, -22961.74591323685, -20047.324305453814, -8158.342022698167, -9274.208161140461, 0.03, 0.916, 0.462, 192.0, 0.0, 0.0, 0.0, 0.0, 0.0, 0.0, 0.0, 0.0, 0.0, 1.6541739300405583E9, 0.0, 2022-06-02 14:45:30.040
191.0, -13553.673154553551, 10011.279286298668, -45645.302014982946, -39004.397571611116, -22990.46790486192, -20080.695459925588, -8186.3711102451225, -9333.686153136034, 0.03, 0.916, 0.462, 192.0, 0.0, 0.0, 0.0, 0.0, 0.0, 0.0, 0.0, 0.0, 0.0, 1.6541739300405676E9, 0.0, 2022-06-02 14:45:30.040
192.0, -13557.91998600006, 10006.339550774044, -45650.12999178529, -39002.27415588786, -22995.631157831092, -20080.06961108084, -8219.004657149871, -9309.635676102123, 0.03, 0.916, 0.462, 192.0, 0.0, 0.0, 0.0, 0.0, 0.0, 0.0, 0.0, 0.0, 0.0, 1.6541739300405867E9, 0.0, 2022-06-02 14:45:30.040
193.0, -13538.116340412658, 10033.452216798332, -45613.85311053433, -38960.47639375644, -22965.16573013851, -20033.577982613802, -8198.709273184451, -9231.650439697558, 0.03, 0.916, 0.462, 192.0, 0.0, 0.0, 0.0, 0.0, 0.0, 0.0, 0.0, 0.0, 0.0, 1.6541739300405946E9, 0.0, 2022-06-02 14:45:30.040
194.0, -13532.506052554376, 10044.337516348067, -45594.27298239148, -38944.763117404356, -22938.29893330323, -20021.82096503031, -8155.883330808084, -9206.169451018506, 0.03, 0.916, 0.462, 192.0, 0.0, 0.0, 0.0, 0.0, 0.0, 0.0, 0.0, 0.0, 0.0, 1.6541739300406024E9, 0.0, 2022-06-02 14:45:30.040
195.0, -13540.73149451393, 10029.160681862913, -45614.389552401255, -38970.691140972514, -22964.092846404656, -20046.139662997684, -8189.790927146784, -9224.944916360964, 0.03, 0.914, 0.46, 192.0, 0.0, 240.0, 28.0, 144.0, 14.0, 96.0, 0.0, 0.0, 0.0, 1.6541739300406127E9, 0.0, 2022-06-02 14:45:30.040
196.0, -13552.957898730981, 10011.16752757639, -45643.0221370485, -39000.977754709456, -22990.758477539835, -20077.007422090464, -8216.47891002642, -9257.01966965433, 0.03, 0.914, 0.46, 192.0, 0.0, 0.0, 0.0, 0.0, 0.0, 0.0, 0.0, 0.0, 0.0, 1.6541739300406225E9, 0.0, 2022-06-02 14:45:30.040
197.0, -13550.119227185158, 10010.988713620749, -45642.66450913722, -38997.62499304116, -22986.243425159864, -20073.766419144442, -8214.579011747719, -9282.590065311202, 0.03, 0.914, 0.46, 192.0, 0.0, 0.0, 0.0, 0.0, 0.0, 0.0, 0.0, 0.0, 0.0, 1.654173930040632E9, 0.0, 2022-06-02 14:45:30.040
198.0, -13530.427340320033, 10032.200519108836, -45610.38859014375, -38954.86610589816, -22947.217279340897, -20024.994912742965, -8190.819107391729, -9237.01485836683, 0.03, 0.914, 0.46, 192.0, 0.0, 0.0, 0.0, 0.0, 0.0, 0.0, 0.0, 0.0, 0.0, 1.6541739300406413E9, 0.0, 2022-06-02 14:45:30.040
199.0, -13528.683904252519, 10034.636859254464, -45605.582965085865, -38955.53665823182, -22948.468977030396, -20025.777223798897, -8185.946427100472, -9217.948820346453, 0.03, 0.914, 0.46, 192.0, 0.0, 0.0, 0.0, 0.0, 0.0, 0.0, 0.0, 0.0, 0.0, 1.6541739300406508E9, 0.0, 2022-06-02 14:45:30.040
200.0, -13538.742189257408, 10028.087798129058, -45617.65290709173, -38973.32864681824, -22967.155035395033, -20046.989029286986, -8184.538267199787, -9229.035285596286, 0.03, 0.914, 0.46, 192.0, 0.0, 0.0, 0.0, 0.0, 0.0, 0.0, 0.0, 0.0, 0.0, 1.6541739300406604E9, 0.0, 2022-06-02 14:45:30.040
201.0, -13556.82475052175, 10007.680655441363, -45642.84332309286, -38999.703705275504, -22993.93242525249, -20077.45445697957, -8212.410892535556, -9280.891332732599, 0.03, 0.914, 0.46, 192.0, 0.0, 0.0, 0.0, 0.0, 0.0, 0.0, 0.0, 0.0, 0.0, 1.6541739300406723E9, 0.0, 2022-06-02 14:45:30.040
202.0, -13550.566262074264, 10013.782681677661, -45634.70728811113, -38986.53852779133, -22983.203587913944, -20064.222224262026, -8200.34095052969, -9258.83016095521, 0.03, 0.914, 0.46, 192.0, 0.0, 0.0, 0.0, 0.0, 0.0, 0.0, 0.0, 0.0, 0.0, 1.6541739300406804E9, 0.0, 2022-06-02 14:45:30.040
203.0, -13518.022122147337, 10051.691240273864, -45585.73461600955, -38934.190742276995, -22932.018093111288, -20010.131002680184, -8142.025249245793, -9222.218003537417, 0.03, 0.914, 0.46, 192.0, 0.0, 0.0, 0.0, 0.0, 0.0, 0.0, 0.0, 0.0, 0.0, 1.6541739300406923E9, 0.0, 2022-06-02 14:45:30.040
204.0, -13517.91036342506, 10047.153836149435, -45582.583020041355, -38936.716489400445, -22931.146375077533, -20008.924008479597, -8148.239034204368, -9242.468684013926, 0.03, 0.914, 0.46, 192.0, 0.0, 0.0, 0.0, 0.0, 0.0, 0.0, 0.0, 0.0, 0.0, 1.6541739300407012E9, 0.0, 2022-06-02 14:45:30.040
205.0, -13530.673209509041, 10030.613545252509, -45603.72777029607, -38963.985617635924, -22954.72746547788, -20034.561459369834, -8175.239941506379, -9251.677602729513, 0.022, 0.914, 0.45, 192.0, 0.0, 176.0, 28.0, 144.0, 14.0, 16.0, 0.0, 0.0, 0.0, 1.6541739300407088E9, 0.0, 2022-06-02 14:45:30.040
206.0, -13549.53808182932, 10011.256934554212, -45633.03090727698, -38997.06619942978, -22983.762381525325, -20069.273718508928, -8216.210689092957, -9291.396652626592, 0.022, 0.914, 0.45, 192.0, 0.0, 0.0, 0.0, 0.0, 0.0, 0.0, 0.0, 0.0, 0.0, 1.6541739300407174E9, 0.0, 2022-06-02 14:45:30.040
207.0, -13548.286384139823, 10016.084911356558, -45632.561520643416, -38990.49478655992, -22986.578701326693, -20063.171692272626, -8238.853006226183, -9279.997262954386, 0.022, 0.914, 0.45, 192.0, 0.0, 0.0, 0.0, 0.0, 0.0, 0.0, 0.0, 0.0, 0.0, 1.6541739300407255E9, 0.0, 2022-06-02 14:45:30.040
208.0, -13523.878279194627, 10047.243243127257, -45594.42944460266, -38948.16058256156, -22945.87617467358, -20015.83069751629, -8212.522651257832, -9232.790378664778, 0.022, 0.914, 0.45, 192.0, 0.0, 0.0, 0.0, 0.0, 0.0, 0.0, 0.0, 0.0, 0.0, 1.654173930040734E9, 0.0, 2022-06-02 14:45:30.040
209.0, -13518.022122147337, 10056.809789754128, -45580.50430780701, -38933.1402102876, -22929.02295935428, -20008.76754626841, -8176.692804895974, -9227.15773906204, 0.022, 0.914, 0.45, 192.0, 0.0, 0.0, 0.0, 0.0, 0.0, 0.0, 0.0, 0.0, 0.0, 1.654173930040748E9, 0.0, 2022-06-02 14:45:30.040
210.0, -13526.024046662336, 10042.437618069365, -45601.96198248411, -38955.111975087166, -22949.92184041999, -20043.233936218494, -8196.585857461198, -9296.045815473297, 0.022, 0.914, 0.45, 192.0, 0.0, 0.0, 0.0, 0.0, 0.0, 0.0, 0.0, 0.0, 0.0, 1.654173930040759E9, 0.0, 2022-06-02 14:45:30.040
211.0, -13542.206709647979, 10019.817652680595, -45635.51195091152, -38987.79022548082, -22986.31048039323, -20074.794599389388, -8230.96284043346, -9319.157519240085, 0.022, 0.914, 0.45, 192.0, 0.0, 0.0, 0.0, 0.0, 0.0, 0.0, 0.0, 0.0, 0.0, 1.6541739300407708E9, 0.0, 2022-06-02 14:45:30.040
212.0, -13538.898651468595, 10019.974114891782, -45628.31468919691, -38981.308219588784, -22982.711849535925, -20065.384514973703, -8209.728683200918, -9266.541512792292, 0.022, 0.914, 0.45, 192.0, 0.0, 0.0, 0.0, 0.0, 0.0, 0.0, 0.0, 0.0, 0.0, 1.6541739300407789E9, 0.0, 2022-06-02 14:45:30.040
213.0, -13514.825822690229, 10042.862301214016, -45597.78220627096, -38942.41618423655, -22941.629343227072, -20024.167898198117, -8177.966854329927, -9205.521250429303, 0.022, 0.914, 0.45, 192.0, 0.0, 0.0, 0.0, 0.0, 0.0, 0.0, 0.0, 0.0, 0.0, 1.6541739300407906E9, 0.0, 2022-06-02 14:45:30.040
214.0, -13494.508086980355, 10068.633862570985, -45574.49168854853, -38912.2860327108, -22921.06573832819, -19992.026089671384, -8170.277854237302, -9188.377462432083, 0.022, 0.914, 0.45, 192.0, 0.0, 0.0, 0.0, 0.0, 0.0, 0.0, 0.0, 0.0, 0.0, 1.654173930040807E9, 0.0, 2022-06-02 14:45:30.040
215.0, -13518.24563959189, 10043.264632614211, -45611.4167703887, -38950.17223956254, -22966.39507608355, -20049.53712815489, -8188.293360268279, -9239.674715957013, 0.028, 0.922, 0.45, 192.0, 0.0, 224.0, 28.0, 208.0, 14.0, 16.0, 0.0, 0.0, 0.0, 1.6541739300408168E9, 0.0, 2022-06-02 14:45:30.040
216.0, -13524.05709315027, 10034.882728443472, -45633.07561076589, -38970.57938225024, -22991.093753706667, -20075.487503467502, -8206.934715144005, -9272.35296635067, 0.028, 0.922, 0.45, 192.0, 0.0, 0.0, 0.0, 0.0, 0.0, 0.0, 0.0, 0.0, 0.0, 1.6541739300408282E9, 0.0, 2022-06-02 14:45:30.040
217.0, -13522.380712316122, 10033.496920287243, -45636.406020689734, -38967.830117682235, -22993.485390363385, -20067.887910352696, -8227.610078765163, -9272.934111706509, 0.028, 0.922, 0.45, 192.0, 0.0, 0.0, 0.0, 0.0, 0.0, 0.0, 0.0, 0.0, 0.0, 1.6541739300408375E9, 0.0, 2022-06-02 14:45:30.040
218.0, -13509.461404020954, 10054.820484497606, -45605.18063368567, -38931.64264340909, -22957.946116679446, -20029.554668611847, -8176.75986012934, -9257.958442921454, 0.028, 0.922, 0.45, 192.0, 0.0, 0.0, 0.0, 0.0, 0.0, 0.0, 0.0, 0.0, 0.0, 1.6541739300408454E9, 0.0, 2022-06-02 14:45:30.040
219.0, -13508.880258665116, 10060.14019967797, -45596.01641845899, -38922.56783516024, -22945.339732806653, -20019.831659773787, -8148.820179560206, -9231.091646086174, 0.028, 0.922, 0.45, 192.0, 0.0, 0.0, 0.0, 0.0, 0.0, 0.0, 0.0, 0.0, 0.0, 1.6541739300408535E9, 0.0, 2022-06-02 14:45:30.040
220.0, -13519.944372170494, 10044.51633030371, -45619.30693618142, -38946.95358836098, -22968.965526695913, -20040.372912928215, -8193.903648126561, -9219.982829091887, 0.028, 0.922, 0.45, 192.0, 0.0, 0.0, 0.0, 0.0, 0.0, 0.0, 0.0, 0.0, 0.0, 1.654173930040862E9, 0.0, 2022-06-02 14:45:30.040
221.0, -13542.653744537085, 10017.113091601503, -45658.355433744844, -38982.76108297838, -23002.046108489765, -20089.502047240978, -8229.845253210695, -9268.486114559902, 0.028, 0.922, 0.45, 192.0, 0.0, 0.0, 0.0, 0.0, 0.0, 0.0, 0.0, 0.0, 0.0, 1.6541739300408778E9, 0.0, 2022-06-02 14:45:30.040
222.0, -13533.780101988328, 10024.064484127102, -45649.973529574105, -38968.61242873817, -22980.320212879207, -20080.36018375876, -8177.028081062804, -9244.770913692822, 0.028, 0.922, 0.45, 192.0, 0.0, 0.0, 0.0, 0.0, 0.0, 0.0, 0.0, 0.0, 0.0, 1.6541739300409007E9, 0.0, 2022-06-02 14:45:30.040
223.0, -13494.418680002533, 10061.74952527875, -45604.398322629735, -38916.64462287958, -22920.19402029443, -20015.62953181619, -8106.351865095123, -9180.040261750253, 0.028, 0.922, 0.45, 192.0, 0.0, 0.0, 0.0, 0.0, 0.0, 0.0, 0.0, 0.0, 0.0, 1.6541739300409114E9, 0.0, 2022-06-02 14:45:30.040
224.0, -13483.332214752701, 10074.221798684812, -45592.17191841268, -38899.90316628256, -22909.599293422616, -19999.022185685895, -8111.582173297665, -9188.48922115436, 0.028, 0.922, 0.45, 192.0, 0.0, 0.0, 0.0, 0.0, 0.0, 0.0, 0.0, 0.0, 0.0, 1.6541739300409195E9, 0.0, 2022-06-02 14:45:30.040
225.0, -13504.789889429796, 10052.719420518806, -45624.514892639505, -38934.213094021456, -22944.222145583888, -20042.563383884833, -8150.921243539005, -9256.907910932054, 0.034, 0.924, 0.454, 192.0, 1.0, 16.0, 28.0, 224.0, 14.0, 48.0, 0.0, 0.0, 0.0, 1.6541739300409284E9, 0.0, 2022-06-02 14:45:30.040
226.0, -13513.216497089446, 10039.509539545721, -45652.36516623082, -38960.99048387891, -22970.798369741246, -20076.918015112642, -8179.911456097539, -9290.346120637194, 0.034, 0.924, 0.454, 192.0, 0.0, 0.0, 0.0, 0.0, 0.0, 0.0, 0.0, 0.0, 0.0, 1.654173930040939E9, 0.0, 2022-06-02 14:45:30.040
227.0, -13505.728662696918, 10049.925452461894, -45660.56825644592, -38958.531791988826, -22975.581643054684, -20065.87625335172, -8195.62473244962, -9252.21404459644, 0.034, 0.924, 0.454, 192.0, 0.0, 0.0, 0.0, 0.0, 0.0, 0.0, 0.0, 0.0, 0.0, 1.654173930040949E9, 0.0, 2022-06-02 14:45:30.040
228.0, -13481.879351363106, 10079.250941187256, -45633.120314254804, -38923.305442727265, -22939.461224014907, -20027.431252888593, -8171.954235071449, -9203.017855050308, 0.034, 0.924, 0.454, 192.0, 0.0, 0.0, 0.0, 0.0, 0.0, 0.0, 0.0, 0.0, 0.0, 1.6541739300409622E9, 0.0, 2022-06-02 14:45:30.040
229.0, -13490.082441578203, 10063.314147390622, -45624.9172240397, -38915.90701531256, -22930.00643611031, -20016.68006380559, -8173.451801949955, -9195.440613679959, 0.034, 0.924, 0.454, 192.0, 0.0, 0.0, 0.0, 0.0, 0.0, 0.0, 0.0, 0.0, 0.0, 1.6541739300409715E9, 0.0, 2022-06-02 14:45:30.040
230.0, -13509.528459254321, 10040.381257579476, -45635.914282311714, -38933.22961726542, -22934.946171634936, -20033.10859598024, -8178.033909563293, -9221.815672137222, 0.034, 0.924, 0.454, 192.0, 0.0, 0.0, 0.0, 0.0, 0.0, 0.0, 0.0, 0.0, 0.0, 1.654173930040982E9, 0.0, 2022-06-02 14:45:30.040
231.0, -13532.170776387547, 10015.257896811712, -45670.51478272853, -38973.26159158487, -22966.663297017014, -20074.146398800185, -8197.301113283767, -9265.803905225266, 0.034, 0.924, 0.454, 192.0, 0.0, 0.0, 0.0, 0.0, 0.0, 0.0, 0.0, 0.0, 0.0, 1.6541739300409918E9, 0.0, 2022-06-02 14:45:30.040
232.0, -13537.065808423258, 10010.876954898471, -45676.16977407572, -38980.704722488495, -22979.493198334363, -20080.673108181134, -8201.011502863348, -9250.716477717933, 0.034, 0.924, 0.454, 192.0, 0.0, 0.0, 0.0, 0.0, 0.0, 0.0, 0.0, 0.0, 0.0, 1.654173930041005E9, 0.0, 2022-06-02 14:45:30.041
233.0, -13528.81801471925, 10023.706856215818, -45646.754878372536, -38948.20528605048, -22955.30861083372, -20047.72663685401, -8181.520781698321, -9218.999352335853, 0.034, 0.924, 0.454, 192.0, 0.0, 0.0, 0.0, 0.0, 0.0, 0.0, 0.0, 0.0, 0.0, 1.6541739300410209E9, 0.0, 2022-06-02 14:45:30.041
234.0, -13519.96672391495, 10035.195652865847, -45624.0678577504, -38923.0372217938, -22928.888848887545, -20012.09795619225, -8149.714249338419, -9202.704930627935, 0.034, 0.924, 0.454, 192.0, 0.0, 0.0, 0.0, 0.0, 0.0, 0.0, 0.0, 0.0, 0.0, 1.6541739300410335E9, 0.0, 2022-06-02 14:45:30.041
235.0, -13528.370979830144, 10020.97994339227, -45647.78305861748, -38952.54152447481, -22948.021942141288, -20031.6780843351, -8185.6111509336415, -9249.241262583884, 0.032, 0.93, 0.462, 192.0, 1.0, 0.0, 29.0, 16.0, 14.0, 112.0, 0.0, 0.0, 0.0, 1.6541739300410671E9, 0.0, 2022-06-02 14:45:30.041
236.0, -13550.58861381872, 9993.800222134618, -45690.69840797167, -38994.83102498425, -22990.378497884096, -20077.566215701845, -8246.25143364089, -9309.345103424204, 0.032, 0.93, 0.462, 192.0, 0.0, 0.0, 0.0, 0.0, 0.0, 0.0, 0.0, 0.0, 0.0, 1.6541739300410776E9, 0.0, 2022-06-02 14:45:30.041
237.0, -13542.050247436793, 10003.255010039213, -45691.771291705525, -38985.935030691035, -22992.0772304627, -20076.69449766809, -8226.470139797942, -9284.132335678618, 0.032, 0.93, 0.462, 192.0, 0.0, 0.0, 0.0, 0.0, 0.0, 0.0, 0.0, 0.0, 0.0, 1.6541739300410905E9, 0.0, 2022-06-02 14:45:30.041
238.0, -13504.454613262966, 10047.623222782997, -45634.14849449974, -38925.42885845052, -22936.108462346612, -20017.30591265034, -8155.704516852441, -9206.214154507417, 0.032, 0.93, 0.462, 192.0, 0.0, 0.0, 0.0, 0.0, 0.0, 0.0, 0.0, 0.0, 0.0, 1.6541739300411096E9, 0.0, 2022-06-02 14:45:30.041
239.0, -13503.269970806834, 10050.260728628722, -45627.6217851188, -38915.75055310137, -22924.0608720852, -20003.96192121052, -8130.938783995961, -9195.172392746495, 0.032, 0.93, 0.462, 192.0, 0.0, 0.0, 0.0, 0.0, 0.0, 0.0, 0.0, 0.0, 0.0, 1.6541739300411243E9, 0.0, 2022-06-02 14:45:30.041
240.0, -13530.87437520914, 10020.734074203263, -45668.905457127745, -38956.9448181325, -22967.177387139487, -20043.233936218494, -8175.329348484201, -9232.633916453591, 0.032, 0.93, 0.462, 192.0, 0.0, 0.0, 0.0, 0.0, 0.0, 0.0, 0.0, 0.0, 0.0, 1.6541739300411344E9, 0.0, 2022-06-02 14:45:30.041
241.0, -13538.764541001861, 10010.809899665106, -45688.37382654832, -38976.5472980198, -22980.0743436902, -20062.903471339163, -8194.90947662705, -9251.230567840406, 0.032, 0.93, 0.462, 192.0, 0.0, 0.0, 0.0, 0.0, 0.0, 0.0, 0.0, 0.0, 0.0, 1.654173930041145E9, 0.0, 2022-06-02 14:45:30.041
242.0, -13545.738285271918, 10001.086890827048, -45703.64006801129, -38987.76787373637, -22985.394058870563, -20075.19693078958, -8206.867659910638, -9262.607605768157, 0.032, 0.93, 0.462, 192.0, 0.0, 0.0, 0.0, 0.0, 0.0, 0.0, 0.0, 0.0, 0.0, 1.654173930520058E9, 0.0, 2022-06-02 14:45:30.520
243.0, -13524.973514672938, 10028.803053951628, -45670.447727495164, -38944.22667553743, -22952.62640149908, -20038.182441971596, -8186.57227594522, -9208.829308608689, 0.032, 0.93, 0.462, 192.0, 0.0, 0.0, 0.0, 0.0, 0.0, 0.0, 0.0, 0.0, 0.0, 1.6541739305202074E9, 0.0, 2022-06-02 14:45:30.520
244.0, -13509.662569721053, 10043.599908781041, -45654.287416253974, -38924.02069854983, -22937.181346080466, -20018.49055510647, -8204.252505809369, -9200.737977115867, 0.032, 0.93, 0.462, 192.0, 0.0, 0.0, 0.0, 0.0, 0.0, 0.0, 0.0, 0.0, 0.0, 1.6541739305202703E9, 0.0, 2022-06-02 14:45:30.520
245.0, -13518.357398314167, 10028.534833018164, -45683.21057357914, -38954.8437541537, -22958.236689357364, -20046.00555253095, -8218.311753071755, -9246.44729452697, 0.036000000000000004, 0.92, 0.468, 192.0, 1.0, 32.0, 28.0, 192.0, 14.0, 160.0, 0.0, 0.0, 0.0, 1.6541739305202763E9, 0.0, 2022-06-02 14:45:30.520
246.0, -13525.621715262141, 10018.230678824268, -45699.30382958696, -38974.960324163476, -22977.16861691101, -20063.417561461636, -8178.5032961968545, -9269.201370382472, 0.036000000000000004, 0.92, 0.468, 192.0, 0.0, 0.0, 0.0, 0.0, 0.0, 0.0, 0.0, 0.0, 0.0, 1.6541739305202825E9, 0.0, 2022-06-02 14:45:30.520
247.0, -13521.285476837813, 10027.283135328667, -45687.65857072575, -38962.46569901296, -22970.038410429766, -20056.7343898695, -8176.6257496626085, -9249.285966072794, 0.036000000000000004, 0.92, 0.468, 192.0, 0.0, 0.0, 0.0, 0.0, 0.0, 0.0, 0.0, 0.0, 0.0, 1.6541739305202885E9, 0.0, 2022-06-02 14:45:30.520
248.0, -13519.162061114557, 10033.3181063316, -45671.028872851, -38940.203361535474, -22950.994724153847, -20040.9317065396, -8195.445918493977, -9250.314146317738, 0.036000000000000004, 0.92, 0.468, 192.0, 0.0, 0.0, 0.0, 0.0, 0.0, 0.0, 0.0, 0.0, 0.0, 1.6541739305202942E9, 0.0, 2022-06-02 14:45:30.520
249.0, -13497.637331204098, 10056.340403120566, -45643.98326206008, -38915.43762867899, -22921.44571798393, -20013.7743370264, -8168.3556042141445, -9227.850643140155, 0.036000000000000004, 0.92, 0.468, 192.0, 0.0, 0.0, 0.0, 0.0, 0.0, 0.0, 0.0, 0.0, 0.0, 1.6541739305203004E9, 0.0, 2022-06-02 14:45:30.520
250.0, -13506.734491197407, 10045.477455315287, -45663.36222450283, -38937.36468998965, -22948.804253197224, -20031.476918635002, -8181.3866712315885, -9209.566916175714, 0.036000000000000004, 0.92, 0.468, 192.0, 0.0, 0.0, 0.0, 0.0, 0.0, 0.0, 0.0, 0.0, 0.0, 1.654173930520306E9, 0.0, 2022-06-02 14:45:30.520
251.0, -13519.698502981486, 10030.479434785777, -45689.51376551554, -38966.31019905928, -22980.0743436902, -20063.663430650646, -8184.404156733055, -9248.682468972502, 0.036000000000000004, 0.92, 0.468, 192.0, 0.0, 0.0, 0.0, 0.0, 0.0, 0.0, 0.0, 0.0, 0.0, 1.6541739305203118E9, 0.0, 2022-06-02 14:45:30.520
252.0, -13511.763633699851, 10043.331687847578, -45681.780061934005, -38954.41907100905, -22964.070494660198, -20055.05800903535, -8167.461534435933, -9272.97881519542, 0.036000000000000004, 0.92, 0.468, 192.0, 0.0, 0.0, 0.0, 0.0, 0.0, 0.0, 0.0, 0.0, 0.0, 1.6541739305203176E9, 0.0, 2022-06-02 14:45:30.520
253.0, -13494.418680002533, 10062.442429356865, -45655.51676219902, -38924.825361350224, -22929.514697732295, -20015.070738204806, -8152.128237739592, -9203.889573084065, 0.036000000000000004, 0.92, 0.468, 192.0, 0.0, 0.0, 0.0, 0.0, 0.0, 0.0, 0.0, 0.0, 0.0, 1.6541739305203233E9, 0.0, 2022-06-02 14:45:30.520
254.0, -13493.52461022432, 10064.85641775804, -45647.26896849501, -38915.99642229038, -22929.62645645457, -19998.798668241343, -8163.66173787853, -9180.241427450352, 0.036000000000000004, 0.92, 0.468, 192.0, 0.0, 0.0, 0.0, 0.0, 0.0, 0.0, 0.0, 0.0, 0.0, 1.654173930520329E9, 0.0, 2022-06-02 14:45:30.520
255.0, -13507.136822597602, 10053.613490297019, -45664.010425092034, -38932.603768420675, -22948.9160119195, -20024.10084296475, -8158.476133164899, -9223.313239015728, 0.036000000000000004, 0.916, 0.47600000000000003, 192.0, 1.0, 32.0, 28.0, 160.0, 14.0, 224.0, 0.0, 0.0, 0.0, 1.6541739305203347E9, 0.0, 2022-06-02 14:45:30.520
0.0, -13525.241735606402, 10032.781664464674, -45694.09587312888, -38963.60563798018, -22976.945099466455, -20062.4340847056, -8173.250636249857, -9258.69605048848, 0.036000000000000004, 0.916, 0.47600000000000003, 192.0, 0.0, 0.0, 0.0, 0.0, 0.0, 0.0, 0.0, 0.0, 0.0, 1.6541739305203495E9, 0.0, 2022-06-02 14:45:30.520
1.0, -13524.593535017197, 10029.563013263109, -45700.734341232106, -38968.14304210461, -22979.917881479014, -20065.071590551328, -8188.315712012734, -9256.885559187598, 0.036000000000000004, 0.916, 0.47600000000000003, 192.0, 0.0, 0.0, 0.0, 0.0, 0.0, 0.0, 0.0, 0.0, 0.0, 1.6541739305203547E9, 0.0, 2022-06-02 14:45:30.520
2.0, -13500.654816705564, 10055.781609509184, -45663.8316111364, -38932.06732655374, -22938.45539551442, -20018.781127784387, -8154.452819162944, -9215.11014880063, 0.036000000000000004, 0.916, 0.47600000000000003, 192.0, 0.0, 0.0, 0.0, 0.0, 0.0, 0.0, 0.0, 0.0, 0.0, 1.6541739305203602E9, 0.0, 2022-06-02 14:45:30.520
3.0, -13489.501296222365, 10067.85155151505, -45640.60814864733, -38914.32004145623, -22919.054081327213, -19999.37981359718, -8140.594737600653, -9229.348210018661, 0.036000000000000004, 0.916, 0.47600000000000003, 192.0, 0.0, 0.0, 0.0, 0.0, 0.0, 0.0, 0.0, 0.0, 0.0, 1.6541739305203657E9, 0.0, 2022-06-02 14:45:30.520
4.0, -13509.327293554223, 10045.61156578202, -45664.435108236685, -38947.557085461274, -22948.692494474948, -20037.422482660113, -8178.2127235189355, -9253.935128919498, 0.036000000000000004, 0.916, 0.47600000000000003, 192.0, 0.0, 0.0, 0.0, 0.0, 0.0, 0.0, 0.0, 0.0, 0.0, 1.6541739305203707E9, 0.0, 2022-06-02 14:45:30.520
5.0, -13540.597384047198, 10009.848774653528, -45705.31644884544, -38998.47435933046, -22996.994614242867, -20085.143457072194, -8240.10470391568, -9264.239283113395, 0.036000000000000004, 0.916, 0.47600000000000003, 192.0, 0.0, 0.0, 0.0, 0.0, 0.0, 0.0, 0.0, 0.0, 0.0, 1.654173930520376E9, 0.0, 2022-06-02 14:45:30.520
6.0, -13544.978325960437, 10003.992617606238, -45710.61381228135, -39005.73867627844, -23006.851733547657, -20092.363070531257, -8238.048343425793, -9250.001221895363, 0.036000000000000004, 0.916, 0.47600000000000003, 192.0, 0.0, 0.0, 0.0, 0.0, 0.0, 0.0, 0.0, 0.0, 0.0, 1.6541739305203812E9, 0.0, 2022-06-02 14:45:30.520
7.0, -13520.704331481975, 10035.642687754953, -45669.91128562824, -38956.11780358765, -22964.60693652713, -20034.360293669735, -8191.377901003111, -9204.53777367327, 0.036000000000000004, 0.916, 0.47600000000000003, 192.0, 0.0, 0.0, 0.0, 0.0, 0.0, 0.0, 0.0, 0.0, 0.0, 1.6541739305203865E9, 0.0, 2022-06-02 14:45:30.520
8.0, -13489.903627622562, 10067.560978837131, -45627.77824732998, -38918.09748626918, -22930.58758146615, -19996.5187903069, -8161.895950066561, -9205.096567284652, 0.036000000000000004, 0.916, 0.47600000000000003, 192.0, 0.0, 0.0, 0.0, 0.0, 0.0, 0.0, 0.0, 0.0, 0.0, 1.6541739305203917E9, 0.0, 2022-06-02 14:45:30.520
9.0, -13491.267084034334, 10062.196560167857, -45630.50516015353, -38937.342338245195, -22943.618648483593, -20015.00368297144, -8178.2127235189355, -9217.144157546063, 0.036000000000000004, 0.92, 0.47600000000000003, 192.0, 1.0, 32.0, 28.0, 192.0, 14.0, 224.0, 0.0, 0.0, 0.0, 1.6541739305203972E9, 0.0, 2022-06-02 14:45:30.520
10.0, -13513.81999418974, 10029.227737096278, -45674.3816345193, -38992.03705692734, -22997.821628787715, -20068.20083477507, -8246.58670980772, -9252.54932076327, 0.036000000000000004, 0.92, 0.47600000000000003, 192.0, 0.0, 0.0, 0.0, 0.0, 0.0, 0.0, 0.0, 0.0, 0.0, 1.6541739305204024E9, 0.0, 2022-06-02 14:45:30.520
11.0, -13504.834592918705, 10036.849681955538, -45677.10854734285, -38993.78049299485, -22999.654471833048, -20070.50306445397, -8247.72664877494, -9265.647443014079, 0.036000000000000004, 0.92, 0.47600000000000003, 192.0, 0.0, 0.0, 0.0, 0.0, 0.0, 0.0, 0.0, 0.0, 0.0, 1.6541739305204077E9, 0.0, 2022-06-02 14:45:30.520
12.0, -13490.842400889684, 10065.66108055843, -45628.225282219086, -38938.66109116806, -22943.238668827853, -20012.612046314724, -8158.677298864997, -9206.661189396524, 0.036000000000000004, 0.92, 0.47600000000000003, 192.0, 0.0, 0.0, 0.0, 0.0, 0.0, 0.0, 0.0, 0.0, 0.0, 1.6541739305204127E9, 0.0, 2022-06-02 14:45:30.520
13.0, -13497.2349998039, 10065.839894514073, -45611.90850876671, -38923.79718110528, -22926.698377930927, -19993.925987950086, -8141.3546969121335, -9192.467831667404, 0.036000000000000004, 0.92, 0.47600000000000003, 192.0, 0.0, 0.0, 0.0, 0.0, 0.0, 0.0, 0.0, 0.0, 0.0, 1.6541739305204182E9, 0.0, 2022-06-02 14:45:30.520
14.0, -13513.775290700829, 10047.08678091607, -45639.37880270229, -38956.631893710124, -22961.92472719249, -20027.319494166317, -8204.118395342635, -9243.966250892432, 0.036000000000000004, 0.92, 0.47600000000000003, 192.0, 0.0, 0.0, 0.0, 0.0, 0.0, 0.0, 0.0, 0.0, 0.0, 1.6541739305204244E9, 0.0, 2022-06-02 14:45:30.520
15.0, -13526.20286061798, 10025.718513216796, -45673.21934380762, -38994.49574881742, -22997.64281483207, -20067.664392908144, -8261.92000650406, -9300.002074241886, 0.036000000000000004, 0.92, 0.47600000000000003, 192.0, 0.0, 0.0, 0.0, 0.0, 0.0, 0.0, 0.0, 0.0, 0.0, 1.6541739305204298E9, 0.0, 2022-06-02 14:45:30.520
16.0, -13531.477872309431, 10022.253992826223, -45679.388425277284, -38995.0545424288, -23000.190913699975, -20067.44087546359, -8244.01625919536, -9245.039134626286, 0.036000000000000004, 0.92, 0.47600000000000003, 192.0, 0.0, 0.0, 0.0, 0.0, 0.0, 0.0, 0.0, 0.0, 0.0, 1.654173930520435E9, 0.0, 2022-06-02 14:45:30.520
17.0, -13517.798604702784, 10048.450237327843, -45640.63050039179, -38956.229562309934, -22964.316363849208, -20024.86080227623, -8183.443031721477, -9204.381311462083, 0.036000000000000004, 0.92, 0.47600000000000003, 192.0, 0.0, 0.0, 0.0, 0.0, 0.0, 0.0, 0.0, 0.0, 0.0, 1.6541739305204425E9, 0.0, 2022-06-02 14:45:30.520
18.0, -13502.331197539712, 10065.437563113877, -45618.70343908113, -38940.80685863577, -22949.653619486526, -20012.5226393369, -8163.013537289326, -9191.305540955727, 0.044, 0.914, 0.482, 192.0, 1.0, 96.0, 28.0, 144.0, 15.0, 16.0, 0.0, 0.0, 0.0, 1.6541739305204477E9, 0.0, 2022-06-02 14:45:30.520
19.0, -13515.63048549062, 10047.287946616167, -45638.55178815744, -38965.25966706988, -22966.708000505925, -20038.92004953862, -8176.558694429243, -9227.940050117975, 0.044, 0.914, 0.482, 192.0, 0.0, 0.0, 0.0, 0.0, 0.0, 0.0, 0.0, 0.0, 0.0, 1.6541739305204563E9, 0.0, 2022-06-02 14:45:30.520
20.0, -13524.235907105913, 10032.804016209127, -45655.628520921295, -38988.52783304785, -22988.813875772226, -20062.344677727782, -8191.66847368103, -9276.465687330448, 0.044, 0.914, 0.482, 192.0, 0.0, 0.0, 0.0, 0.0, 0.0, 0.0, 0.0, 0.0, 0.0, 1.654173930520468E9, 0.0, 2022-06-02 14:45:30.520
21.0, -13531.232003120424, 10023.885670171461, -45664.859791381336, -38999.54724306431, -23002.716660823426, -20071.017154576442, -8202.464366252943, -9263.144047635085, 0.044, 0.914, 0.482, 192.0, 0.0, 0.0, 0.0, 0.0, 0.0, 0.0, 0.0, 0.0, 0.0, 1.6541739305204792E9, 0.0, 2022-06-02 14:45:30.520
22.0, -13512.501241266877, 10045.41040008192, -45636.38366894527, -38965.28201881433, -22973.279413375785, -20038.20479371605, -8184.158287544047, -9221.68156167049, 0.044, 0.914, 0.482, 192.0, 0.0, 0.0, 0.0, 0.0, 0.0, 0.0, 0.0, 0.0, 0.0, 1.6541739305204892E9, 0.0, 2022-06-02 14:45:30.520
23.0, -13506.242752819391, 10054.999298453247, -45618.83754954786, -38954.93316113152, -22960.851843458637, -20025.374892398704, -8182.995996832371, -9207.354093474638, 0.044, 0.914, 0.482, 192.0, 0.0, 0.0, 0.0, 0.0, 0.0, 0.0, 0.0, 0.0, 0.0, 1.6541739305204945E9, 0.0, 2022-06-02 14:45:30.520
24.0, -13521.777215215829, 10038.883690700972, -45636.763648601016, -38980.257687599384, -22980.0743436902, -20049.179500243605, -8189.701520168963, -9233.863262398632, 0.044, 0.914, 0.482, 192.0, 0.0, 0.0, 0.0, 0.0, 0.0, 0.0, 0.0, 0.0, 0.0, 1.6541739305204997E9, 0.0, 2022-06-02 14:45:30.520
25.0, -13534.227136877435, 10021.918716659393, -45658.154268044746, -39006.275118145364, -23002.537846867785, -20068.424352219627, -8213.86375592515, -9248.526006761314, 0.044, 0.914, 0.482, 192.0, 0.0, 0.0, 0.0, 0.0, 0.0, 0.0, 0.0, 0.0, 0.0, 1.6541739305205052E9, 0.0, 2022-06-02 14:45:30.520
26.0, -13536.797587489795, 10018.74476894674, -45663.541038458476, -39006.87861524566, -23003.521323623816, -20075.554558700867, -8227.900651443082, -9258.293719088284, 0.044, 0.914, 0.482, 192.0, 0.0, 0.0, 0.0, 0.0, 0.0, 0.0, 0.0, 0.0, 0.0, 1.6541739305205104E9, 0.0, 2022-06-02 14:45:30.520
27.0, -13521.19606985999, 10032.781664464674, -45641.70338412564, -38982.13523413363, -22972.11712266411, -20047.994857787475, -8194.104813826658, -9240.881710157599, 0.044, 0.914, 0.482, 192.0, 0.0, 0.0, 0.0, 0.0, 0.0, 0.0, 0.0, 0.0, 0.0, 1.6541739305205157E9, 0.0, 2022-06-02 14:45:30.520
28.0, -13502.554714984264, 10051.847702485049, -45617.33998266936, -38959.96230363397, -22952.805215454726, -20017.73059579499, -8160.979528543893, -9227.44831173996, 0.044, 0.904, 0.47600000000000003, 192.0, 1.0, 96.0, 28.0, 64.0, 14.0, 224.0, 0.0, 0.0, 0.0, 1.654173930520521E9, 0.0, 2022-06-02 14:45:30.520
29.0, -13505.05811036326, 10046.75150474924, -45627.44297116315, -38977.93310617603, -22973.569986053706, -20046.743160097976, -8185.454688722455, -9250.537663762292, 0.044, 0.904, 0.47600000000000003, 192.0, 0.0, 0.0, 0.0, 0.0, 0.0, 0.0, 0.0, 0.0, 0.0, 1.6541739305205264E9, 0.0, 2022-06-02 14:45:30.520
30.0, -13539.211575890968, 10008.731187430762, -45673.398157763266, -39025.788191054846, -23016.686501107994, -20097.3922130337, -8241.915195216561, -9290.74845203739, 0.044, 0.904, 0.47600000000000003, 192.0, 0.0, 0.0, 0.0, 0.0, 0.0, 0.0, 0.0, 0.0, 0.0, 1.6541739305205317E9, 0.0, 2022-06-02 14:45:30.520
31.0, -13539.010410190871, 10010.07229209808, -45676.66151245374, -39026.81637129979, -23014.406623173552, -20093.592416476302, -8260.377736136645, -9308.22751620144, 0.044, 0.904, 0.47600000000000003, 192.0, 0.0, 0.0, 0.0, 0.0, 0.0, 0.0, 0.0, 0.0, 0.0, 1.654173930520537E9, 0.0, 2022-06-02 14:45:30.520
32.0, -13501.660645206053, 10053.389972852467, -45620.87155829329, -38973.641571240616, -22960.941250436455, -20034.58381111429, -8199.938619129494, -9298.057472474275, 0.044, 0.904, 0.47600000000000003, 192.0, 0.0, 0.0, 0.0, 0.0, 0.0, 0.0, 0.0, 0.0, 0.0, 1.654173930520542E9, 0.0, 2022-06-02 14:45:30.520
33.0, -13494.91041838055, 10065.37050788051, -45606.09705520834, -38958.21886756645, -22950.502985775827, -20025.643113332168, -8168.512066425332, -9276.17511465253, 0.044, 0.904, 0.47600000000000003, 192.0, 0.0, 0.0, 0.0, 0.0, 0.0, 0.0, 0.0, 0.0, 0.0, 1.6541739305205476E9, 0.0, 2022-06-02 14:45:30.520
34.0, -13498.352587026668, 10059.89433048896, -45617.78701755846, -38969.014760138365, -22968.473788317897, -20041.043465261875, -8188.159249801547, -9261.624129012123, 0.044, 0.904, 0.47600000000000003, 192.0, 0.0, 0.0, 0.0, 0.0, 0.0, 0.0, 0.0, 0.0, 0.0, 1.654173930520553E9, 0.0, 2022-06-02 14:45:30.520
35.0, -13509.416700532043, 10040.135388390469, -45639.26704398001, -38998.027324441355, -22994.35710839714, -20067.373820230227, -8221.083369384214, -9284.26644614535, 0.044, 0.904, 0.47600000000000003, 192.0, 0.0, 0.0, 0.0, 0.0, 0.0, 0.0, 0.0, 0.0, 0.0, 1.6541739305205584E9, 0.0, 2022-06-02 14:45:30.520
36.0, -13509.975494143426, 10035.329763332578, -45640.36227945832, -38998.4073040971, -22994.535922352785, -20066.949137085576, -8226.380732820122, -9263.412268568549, 0.044, 0.904, 0.47600000000000003, 192.0, 0.0, 0.0, 0.0, 0.0, 0.0, 0.0, 0.0, 0.0, 0.0, 1.6541739305205636E9, 0.0, 2022-06-02 14:45:30.520
37.0, -13491.222380545423, 10058.08383918808, -45606.49938660853, -38956.90011464359, -22960.941250436455, -20030.560497112336, -8194.90947662705, -9191.462003166915, 0.044, 0.904, 0.47600000000000003, 192.0, 0.0, 0.0, 0.0, 0.0, 0.0, 0.0, 0.0, 0.0, 0.0, 1.6541739305205688E9, 0.0, 2022-06-02 14:45:30.520
38.0, -13485.52268570932, 10069.99731898276, -45589.46735733359, -38939.8904371131, -22946.189099095955, -20016.233028916482, -8178.3915374745775, -9187.8186688207, 0.046, 0.908, 0.47200000000000003, 192.0, 1.0, 112.0, 28.0, 96.0, 14.0, 192.0, 0.0, 0.0, 0.0, 1.6541739305205748E9, 0.0, 2022-06-02 14:45:30.520
39.0, -13499.112546338147, 10056.921548476404, -45607.92989825367, -38962.82332692425, -22967.579718539684, -20037.422482660113, -8216.277744326324, -9219.11111105813, 0.046, 0.908, 0.47200000000000003, 192.0, 0.0, 0.0, 0.0, 0.0, 0.0, 0.0, 0.0, 0.0, 0.0, 1.65417393052058E9, 0.0, 2022-06-02 14:45:30.520
40.0, -13510.780156943818, 10042.795245980651, -45631.108657253826, -38979.76594922137, -22996.25700667584, -20053.44868343457, -8256.10855294568, -9259.813637711244, 0.046, 0.908, 0.47200000000000003, 192.0, 0.0, 0.0, 0.0, 0.0, 0.0, 0.0, 0.0, 0.0, 0.0, 1.6541739305205853E9, 0.0, 2022-06-02 14:45:30.520
41.0, -13505.86277316365, 10044.628089025986, -45632.65092762124, -38978.2013271095, -22992.70307930745, -20049.06774152133, -8240.238814382412, -9252.392858552083, 0.046, 0.908, 0.47200000000000003, 192.0, 0.0, 0.0, 0.0, 0.0, 0.0, 0.0, 0.0, 0.0, 0.0, 1.6541739305205917E9, 0.0, 2022-06-02 14:45:30.520
42.0, -13486.059127576247, 10064.208217168834, -45603.63836331825, -38951.78156516333, -22952.961677665913, -20024.7266918095, -8169.09321178117, -9220.25105002535, 0.046, 0.908, 0.47200000000000003, 192.0, 0.0, 0.0, 0.0, 0.0, 0.0, 0.0, 0.0, 0.0, 0.0, 1.6541739305205972E9, 0.0, 2022-06-02 14:45:30.520
43.0, -13477.319595494224, 10080.815563299127, -45578.69381650613, -38935.55419868877, -22930.967561121888, -20012.34382538126, -8145.08743823617, -9217.121805801607, 0.046, 0.908, 0.47200000000000003, 192.0, 0.0, 0.0, 0.0, 0.0, 0.0, 0.0, 0.0, 0.0, 0.0, 1.6541739305206048E9, 0.0, 2022-06-02 14:45:30.520
44.0, -13489.568351455731, 10066.42103986991, -45595.59173531434, -38959.917600145054, -22962.48352080387, -20035.76845357042, -8184.158287544047, -9249.509483517348, 0.046, 0.908, 0.47200000000000003, 192.0, 0.0, 0.0, 0.0, 0.0, 0.0, 0.0, 0.0, 0.0, 0.0, 1.65417393052061E9, 0.0, 2022-06-02 14:45:30.520
45.0, -13502.800584173274, 10048.852568728038, -45619.95513677062, -38984.92920219054, -22990.356146139642, -20058.522529425925, -8206.353569788167, -9272.6882425175, 0.046, 0.908, 0.47200000000000003, 192.0, 0.0, 0.0, 0.0, 0.0, 0.0, 0.0, 0.0, 0.0, 0.0, 1.6541739305206158E9, 0.0, 2022-06-02 14:45:30.520
46.0, -13499.559581227253, 10050.171321650902, -45621.67622109369, -38986.73969349143, -22988.568006583217, -20055.6838578801, -8203.67136045353, -9258.897216188576, 0.046, 0.908, 0.47200000000000003, 192.0, 0.0, 0.0, 0.0, 0.0, 0.0, 0.0, 0.0, 0.0, 0.0, 1.6541739305206218E9, 0.0, 2022-06-02 14:45:30.520
47.0, -13488.942502610982, 10066.89042650347, -45599.36918012729, -38956.430728010026, -22961.9694306814, -20027.207735444037, -8176.71515664043, -9220.429863980993, 0.046, 0.908, 0.47200000000000003, 192.0, 0.0, 0.0, 0.0, 0.0, 0.0, 0.0, 0.0, 0.0, 0.0, 1.6541739305206273E9, 0.0, 2022-06-02 14:45:30.520
48.0, -13480.895874607073, 10077.351042908555, -45581.64424677423, -38936.090640555696, -22942.366950794098, -20012.992025970463, -8152.530569139787, -9209.857488853633, 0.03, 0.906, 0.466, 192.0, 0.0, 240.0, 28.0, 80.0, 14.0, 144.0, 0.0, 0.0, 0.0, 1.6541739305206327E9, 0.0, 2022-06-02 14:45:30.520
49.0, -13489.657758433552, 10060.497827589254, -45605.00181973002, -38961.70573970148, -22960.516567291805, -20036.841337304275, -8184.694729410974, -9231.24810829736, 0.03, 0.906, 0.466, 192.0, 0.0, 0.0, 0.0, 0.0, 0.0, 0.0, 0.0, 0.0, 0.0, 1.6541739305206394E9, 0.0, 2022-06-02 14:45:30.520
50.0, -13508.477927264921, 10034.458045298821, -45638.52943641299, -38999.994277953425, -23001.062631733734, -20066.859730107753, -8238.540081803809, -9264.865131958144, 0.03, 0.906, 0.466, 192.0, 0.0, 0.0, 0.0, 0.0, 0.0, 0.0, 0.0, 0.0, 0.0, 1.6541739305206454E9, 0.0, 2022-06-02 14:45:30.520
51.0, -13508.34381679819, 10033.496920287243, -45642.1727707592, -39006.90096699011, -23005.46592539143, -20070.011326075954, -8240.194110893503, -9286.591027568702, 0.03, 0.906, 0.466, 192.0, 0.0, 0.0, 0.0, 0.0, 0.0, 0.0, 0.0, 0.0, 0.0, 1.6541739305206509E9, 0.0, 2022-06-02 14:45:30.520
52.0, -13500.252485305367, 10048.427885583387, -45616.98235475807, -38977.53077477584, -22971.17834939699, -20046.385532186694, -8181.230209020402, -9263.769896479833, 0.03, 0.906, 0.466, 192.0, 0.0, 0.0, 0.0, 0.0, 0.0, 0.0, 0.0, 0.0, 0.0, 1.654173930520656E9, 0.0, 2022-06-02 14:45:30.520
53.0, -13477.699575149963, 10074.1770951959, -45576.905676949704, -38939.21988477944, -22930.408767510507, -20002.6208165432, -8143.589871357664, -9198.525154414792, 0.03, 0.906, 0.466, 192.0, 0.0, 0.0, 0.0, 0.0, 0.0, 0.0, 0.0, 0.0, 0.0, 1.654173930520661E9, 0.0, 2022-06-02 14:45:30.520
54.0, -13483.019290330327, 10063.448257857353, -45591.90369747922, -38955.76017567637, -22948.513680519307, -20019.317569651317, -8160.554845399242, -9220.943954103464, 0.03, 0.906, 0.466, 192.0, 0.0, 0.0, 0.0, 0.0, 0.0, 0.0, 0.0, 0.0, 0.0, 1.6541739305206666E9, 0.0, 2022-06-02 14:45:30.520
55.0, -13508.410872031554, 10030.770007463696, -45632.78503808797, -39003.16822566608, -22989.305614150242, -20070.011326075954, -8207.851136666672, -9299.867963775154, 0.03, 0.906, 0.466, 192.0, 0.0, 0.0, 0.0, 0.0, 0.0, 0.0, 0.0, 0.0, 0.0, 1.654173930520672E9, 0.0, 2022-06-02 14:45:30.520
56.0, -13516.748072713384, 10023.170414348891, -45637.43420093467, -39007.37035362367, -22996.59228284267, -20070.07838130932, -8215.070750125737, -9298.482155618925, 0.03, 0.906, 0.466, 192.0, 0.0, 0.0, 0.0, 0.0, 0.0, 0.0, 0.0, 0.0, 0.0, 1.6541739305206776E9, 0.0, 2022-06-02 14:45:30.520
57.0, -13485.969720598427, 10060.922510733904, -45603.83952901835, -38954.93316113152, -22960.87419520309, -20024.614933087225, -8170.322557726212, -9215.959515089931, 0.03, 0.906, 0.466, 192.0, 0.0, 0.0, 0.0, 0.0, 0.0, 0.0, 0.0, 0.0, 0.0, 1.6541739305206828E9, 0.0, 2022-06-02 14:45:30.520
58.0, -13454.945499294461, 10097.936999551894, -45566.89209543373, -38918.611576391646, -22928.173593064977, -19990.34970883724, -8141.555862612232, -9197.765195103311, 0.034, 0.918, 0.47000000000000003, 192.0, 1.0, 16.0, 28.0, 176.0, 14.0, 176.0, 0.0, 0.0, 0.0, 1.654173930520688E9, 0.0, 2022-06-02 14:45:30.520
59.0, -13476.246711760368, 10071.360775394533, -45586.40516834321, -38945.00898659337, -22953.87809918858, -20014.33313063778, -8169.763764114829, -9244.659154970546, 0.034, 0.918, 0.47000000000000003, 192.0, 0.0, 0.0, 0.0, 0.0, 0.0, 0.0, 0.0, 0.0, 0.0, 1.6541739305206933E9, 0.0, 2022-06-02 14:45:30.520
60.0, -13498.129069582114, 10040.493016301754, -45622.50323563853, -38983.990428923425, -22990.46790486192, -20042.09399725127, -8213.796700691784, -9274.49873381838, 0.034, 0.918, 0.47000000000000003, 192.0, 0.0, 0.0, 0.0, 0.0, 0.0, 0.0, 0.0, 0.0, 0.0, 1.6541739305206985E9, 0.0, 2022-06-02 14:45:30.520
61.0, -13506.265104563845, 10036.581461022075, -45636.92011081221, -38997.334420363244, -22999.430954388496, -20060.847110849278, -8229.711142743963, -9295.218800928451, 0.034, 0.918, 0.47000000000000003, 192.0, 0.0, 0.0, 0.0, 0.0, 0.0, 0.0, 0.0, 0.0, 0.0, 1.654173930520704E9, 0.0, 2022-06-02 14:45:30.520
62.0, -13489.188371799992, 10062.04009795667, -45612.914337267204, -38960.00700712288, -22965.746875494347, -20029.599372100758, -8197.524630728321, -9271.771820994833, 0.034, 0.918, 0.47000000000000003, 192.0, 0.0, 0.0, 0.0, 0.0, 0.0, 0.0, 0.0, 0.0, 0.0, 1.6541739305207093E9, 0.0, 2022-06-02 14:45:30.520
63.0, -13462.992127298372, 10090.002130270259, -45583.11946190828, -38920.24325373689, -22935.415558268494, -19992.406069327124, -8174.502333939355, -9215.19955577845, 0.034, 0.918, 0.47000000000000003, 192.0, 0.0, 0.0, 0.0, 0.0, 0.0, 0.0, 0.0, 0.0, 0.0, 1.6541739305207143E9, 0.0, 2022-06-02 14:45:30.520
64.0, -13475.352641982156, 10075.741717307774, -45604.86770926329, -38938.45992546796, -22959.801311469237, -20010.756851524933, -8213.707293713964, -9180.442593150448, 0.034, 0.918, 0.47000000000000003, 192.0, 0.0, 0.0, 0.0, 0.0, 0.0, 0.0, 0.0, 0.0, 0.0, 1.654173930520722E9, 0.0, 2022-06-02 14:45:30.520
65.0, -13486.349700254166, 10058.866150244015, -45635.66841312271, -38969.21592583846, -22988.277433905296, -20040.954058284053, -8234.472064312944, -9233.103303087151, 0.034, 0.918, 0.47000000000000003, 192.0, 0.0, 0.0, 0.0, 0.0, 0.0, 0.0, 0.0, 0.0, 0.0, 1.6541739305207274E9, 0.0, 2022-06-02 14:45:30.520
66.0, -13503.426433018021, 10041.141216890957, -45657.61782617782, -38987.56670803627, -23001.532018367296, -20061.562366671846, -8224.704351985974, -9288.110946191662, 0.034, 0.918, 0.47000000000000003, 192.0, 0.0, 0.0, 0.0, 0.0, 0.0, 0.0, 0.0, 0.0, 0.0, 1.6541739305207329E9, 0.0, 2022-06-02 14:45:30.520
67.0, -13482.259331018846, 10065.3258043916, -45624.380782172775, -38953.86027739767, -22968.02675342879, -20028.34767441126, -8191.377901003111, -9246.380239293605, 0.034, 0.918, 0.47000000000000003, 192.0, 0.0, 0.0, 0.0, 0.0, 0.0, 0.0, 0.0, 0.0, 0.0, 1.654173930520738E9, 0.0, 2022-06-02 14:45:30.520
68.0, -13461.539263908777, 10087.766955824729, -45592.440139346145, -38929.83215210821, -22939.841203670647, -19999.670386275102, -8146.272080692302, -9205.521250429303, 0.03, 0.922, 0.47000000000000003, 192.0, 0.0, 240.0, 28.0, 208.0, 14.0, 176.0, 0.0, 0.0, 0.0, 1.6541739305207431E9, 0.0, 2022-06-02 14:45:30.520
69.0, -13469.18356051249, 10078.08865047558, -45609.18159594317, -38951.15571631858, -22958.482558546373, -20015.20484867154, -8166.925092569005, -9228.387085007082, 0.03, 0.922, 0.47000000000000003, 192.0, 0.0, 0.0, 0.0, 0.0, 0.0, 0.0, 0.0, 0.0, 0.0, 1.6541739305207484E9, 0.0, 2022-06-02 14:45:30.520
70.0, -13496.452688747966, 10051.266557129211, -45644.095020782355, -38987.23143186944, -22996.59228284267, -20057.11436952524, -8238.24950912589, -9276.488039074902, 0.03, 0.922, 0.47000000000000003, 192.0, 0.0, 0.0, 0.0, 0.0, 0.0, 0.0, 0.0, 0.0, 0.0, 1.6541739305207536E9, 0.0, 2022-06-02 14:45:30.520
71.0, -13489.14366831108, 10058.709688032828, -45640.7199073696, -38981.732902733434, -22991.8760647626, -20054.700381124065, -8228.682962499019, -9267.614396526145, 0.03, 0.922, 0.47000000000000003, 192.0, 0.0, 0.0, 0.0, 0.0, 0.0, 0.0, 0.0, 0.0, 0.0, 1.654173930520759E9, 0.0, 2022-06-02 14:45:30.520
72.0, -13457.895929562561, 10092.214952971335, -45598.586869071354, -38934.682480655014, -22945.83147118467, -20010.06394744682, -8168.847342592162, -9246.335535804694, 0.03, 0.922, 0.47000000000000003, 192.0, 0.0, 0.0, 0.0, 0.0, 0.0, 0.0, 0.0, 0.0, 0.0, 1.6541739305207644E9, 0.0, 2022-06-02 14:45:30.520
73.0, -13447.18944396847, 10101.110947264546, -45584.97465669807, -38917.04695427978, -22931.43694775545, -19989.835618714766, -8169.830819348195, -9221.972134348409, 0.03, 0.922, 0.47000000000000003, 192.0, 0.0, 0.0, 0.0, 0.0, 0.0, 0.0, 0.0, 0.0, 0.0, 1.6541739305207696E9, 0.0, 2022-06-02 14:45:30.520
74.0, -13467.95421456745, 10075.786420796683, -45606.32057265289, -38949.68050118453, -22958.303744590732, -20019.16110744013, -8185.052357322259, -9228.990582107375, 0.03, 0.922, 0.47000000000000003, 192.0, 0.0, 0.0, 0.0, 0.0, 0.0, 0.0, 0.0, 0.0, 0.0, 1.6541739305207756E9, 0.0, 2022-06-02 14:45:30.520
75.0, -13484.494505464376, 10055.692202531363, -45632.22624447659, -38977.46371954247, -22989.08209670569, -20050.230032233005, -8197.971665617426, -9255.745620220378, 0.03, 0.922, 0.47000000000000003, 192.0, 0.0, 0.0, 0.0, 0.0, 0.0, 0.0, 0.0, 0.0, 0.0, 1.6541739305207808E9, 0.0, 2022-06-02 14:45:30.520
76.0, -13484.963892097938, 10055.781609509184, -45639.26704398001, -38975.22854509694, -22993.150114196553, -20056.98025905851, -8215.875412926127, -9266.519161047836, 0.03, 0.922, 0.47000000000000003, 192.0, 0.0, 0.0, 0.0, 0.0, 0.0, 0.0, 0.0, 0.0, 0.0, 1.6541739305207863E9, 0.0, 2022-06-02 14:45:30.520
77.0, -13464.735563365884, 10085.978816268303, -45607.259345920014, -38942.304425514274, -22960.65067775854, -20018.378796384193, -8222.402122307078, -9256.036192898297, 0.03, 0.922, 0.47000000000000003, 192.0, 0.0, 0.0, 0.0, 0.0, 0.0, 0.0, 0.0, 0.0, 0.0, 1.6541739305207913E9, 0.0, 2022-06-02 14:45:30.520
78.0, -13456.599528384153, 10098.42873792991, -45587.2098311436, -38928.4910474409, -22945.83147118467, -20004.364252610714, -8224.3914275636, -9276.845666986188, 0.032, 0.916, 0.47200000000000003, 192.0, 1.0, 0.0, 28.0, 160.0, 14.0, 192.0, 0.0, 0.0, 0.0, 1.6541739305207968E9, 0.0, 2022-06-02 14:45:30.520
79.0, -13463.103886020648, 10085.509429634742, -45597.84926150433, -38946.95358836098, -22963.511701048817, -20030.851069790253, -8172.736546127385, -9287.842725258199, 0.032, 0.916, 0.47200000000000003, 192.0, 0.0, 0.0, 0.0, 0.0, 0.0, 0.0, 0.0, 0.0, 0.0, 1.654173930520802E9, 0.0, 2022-06-02 14:45:30.520
80.0, -13476.157304782548, 10067.203350925845, -45619.351639670334, -38975.22854509694, -22987.629233316093, -20060.86946259373, -8179.196200274969, -9267.189713381495, 0.032, 0.916, 0.47200000000000003, 192.0, 0.0, 0.0, 0.0, 0.0, 0.0, 0.0, 0.0, 0.0, 0.0, 1.6541739305208073E9, 0.0, 2022-06-02 14:45:30.520
81.0, -13480.873522862617, 10062.844760757062, -45629.40992467522, -38981.82230971126, -22994.55827409724, -20062.67995389461, -8197.658741195053, -9238.557128734246, 0.032, 0.916, 0.47200000000000003, 192.0, 0.0, 0.0, 0.0, 0.0, 0.0, 0.0, 0.0, 0.0, 0.0, 1.654173930520818E9, 0.0, 2022-06-02 14:45:30.520
82.0, -13465.741391866373, 10081.195542954867, -45603.973639485084, -38950.01577735136, -22965.59041328316, -20035.232011703494, -8171.820124604717, -9218.842890124666, 0.032, 0.916, 0.47200000000000003, 192.0, 0.0, 0.0, 0.0, 0.0, 0.0, 0.0, 0.0, 0.0, 0.0, 1.6541739305208232E9, 0.0, 2022-06-02 14:45:30.520
83.0, -13437.667600830508, 10115.214898015845, -45568.0543861454, -38910.05085826527, -22927.72655817587, -19993.18838038306, -8145.445066147455, -9192.356072945127, 0.032, 0.916, 0.47200000000000003, 192.0, 0.0, 0.0, 0.0, 0.0, 0.0, 0.0, 0.0, 0.0, 0.0, 1.6541739305208285E9, 0.0, 2022-06-02 14:45:30.520
84.0, -13452.911490549028, 10103.837860088093, -45587.187479399145, -38933.81076262126, -22949.810081697713, -19995.647072273146, -8179.933807841994, -9227.045980339764, 0.032, 0.916, 0.47200000000000003, 192.0, 0.0, 0.0, 0.0, 0.0, 0.0, 0.0, 0.0, 0.0, 0.0, 1.6541739305208335E9, 0.0, 2022-06-02 14:45:30.520
85.0, -13476.671394905019, 10072.299548661656, -45626.481846151575, -38974.15566136309, -22986.10931469313, -20035.187308214583, -8224.145558374592, -9271.92828320602, 0.032, 0.916, 0.47200000000000003, 192.0, 0.0, 0.0, 0.0, 0.0, 0.0, 0.0, 0.0, 0.0, 0.0, 1.6541739305208387E9, 0.0, 2022-06-02 14:45:30.520
86.0, -13479.420659473022, 10063.045926457158, -45638.06004977942, -38981.308219588784, -22997.776925298804, -20056.846148591776, -8234.67323001304, -9296.202277684484, 0.032, 0.916, 0.47200000000000003, 192.0, 0.0, 0.0, 0.0, 0.0, 0.0, 0.0, 0.0, 0.0, 0.0, 1.6541739305208464E9, 0.0, 2022-06-02 14:45:30.520
87.0, -13468.624766901108, 10078.848609787061, -45619.79867455944, -38951.31217852976, -22971.98301219738, -20030.135813967685, -8176.245770006868, -9260.595948767179, 0.032, 0.916, 0.47200000000000003, 192.0, 0.0, 0.0, 0.0, 0.0, 0.0, 0.0, 0.0, 0.0, 0.0, 1.6541739305208516E9, 0.0, 2022-06-02 14:45:30.520
88.0, -13456.130141750591, 10093.868982061027, -45594.384741113754, -38928.93808233, -22948.133700863567, -20005.39243285566, -8143.455760890933, -9213.76904413331, 0.026000000000000002, 0.908, 0.47600000000000003, 192.0, 0.0, 208.0, 28.0, 96.0, 14.0, 224.0, 0.0, 0.0, 0.0, 1.6541739305208569E9, 0.0, 2022-06-02 14:45:30.520
89.0, -13471.061107046737, 10075.093516718569, -45617.384686158264, -38959.4929170004, -22971.49127381936, -20033.376816913704, -8172.177752516002, -9240.904061902054, 0.026000000000000002, 0.908, 0.47600000000000003, 192.0, 0.0, 0.0, 0.0, 0.0, 0.0, 0.0, 0.0, 0.0, 0.0, 1.6541739305208623E9, 0.0, 2022-06-02 14:45:30.520
90.0, -13478.86186586164, 10061.973042723304, -45639.28939572447, -38986.33736209123, -22994.40181188605, -20056.197948002573, -8211.025084379326, -9258.49488478838, 0.026000000000000002, 0.908, 0.47600000000000003, 192.0, 0.0, 0.0, 0.0, 0.0, 0.0, 0.0, 0.0, 0.0, 0.0, 1.6541739305208676E9, 0.0, 2022-06-02 14:45:30.520
91.0, -13469.764705868329, 10072.14308645047, -45631.443933420655, -38968.947704905004, -22985.68463154848, -20047.614878131735, -8218.311753071755, -9249.7330009619, 0.026000000000000002, 0.908, 0.47600000000000003, 192.0, 0.0, 0.0, 0.0, 0.0, 0.0, 0.0, 0.0, 0.0, 0.0, 1.6541739305208728E9, 0.0, 2022-06-02 14:45:30.520
92.0, -13451.369220181612, 10092.080842504602, -45607.57227034239, -38933.47548645443, -22958.795482968748, -20016.47889810549, -8194.842421393683, -9227.202442550952, 0.026000000000000002, 0.908, 0.47600000000000003, 192.0, 0.0, 0.0, 0.0, 0.0, 0.0, 0.0, 0.0, 0.0, 0.0, 1.654173930520878E9, 0.0, 2022-06-02 14:45:30.520
93.0, -13436.237089185368, 10106.832993845104, -45589.132081166754, -38918.56687290274, -22936.555497235717, -19995.334147850772, -8176.469287451421, -9219.066407569218, 0.026000000000000002, 0.908, 0.47600000000000003, 192.0, 0.0, 0.0, 0.0, 0.0, 0.0, 0.0, 0.0, 0.0, 0.0, 1.6541739305208833E9, 0.0, 2022-06-02 14:45:30.520
94.0, -13450.341039936668, 10092.99726402727, -45601.49259585054, -38943.60082669268, -22951.978200909878, -20019.272866162406, -8175.552865928754, -9234.600869965658, 0.026000000000000002, 0.908, 0.47600000000000003, 192.0, 0.0, 0.0, 0.0, 0.0, 0.0, 0.0, 0.0, 0.0, 0.0, 1.6541739305208888E9, 0.0, 2022-06-02 14:45:30.520
95.0, -13472.692784391975, 10070.265539916223, -45625.05133450643, -38974.06625438527, -22980.0743436902, -20049.939459555088, -8194.95418011596, -9264.64161451359, 0.026000000000000002, 0.908, 0.47600000000000003, 192.0, 0.0, 0.0, 0.0, 0.0, 0.0, 0.0, 0.0, 0.0, 0.0, 1.654173930520894E9, 0.0, 2022-06-02 14:45:30.520
96.0, -13472.022232058316, 10070.690223060874, -45631.33217469838, -38972.97101890696, -22988.925634494502, -20056.712038125042, -8219.138767616603, -9285.451088601481, 0.026000000000000002, 0.908, 0.47600000000000003, 192.0, 0.0, 0.0, 0.0, 0.0, 0.0, 0.0, 0.0, 0.0, 0.0, 1.6541739305208993E9, 0.0, 2022-06-02 14:45:30.520
97.0, -13450.676316103498, 10099.300455963667, -45600.17384292768, -38939.35399524617, -22957.521433534796, -20013.282598648384, -8184.337101499689, -9233.572689720713, 0.03, 0.912, 0.47800000000000004, 192.0, 0.0, 240.0, 28.0, 128.0, 14.0, 240.0, 0.0, 0.0, 0.0, 1.6541739305209045E9, 0.0, 2022-06-02 14:45:30.520
98.0, -13436.3711996521, 10115.304304993666, -45571.0048164135, -38914.81177983425, -22930.319360532685, -19982.884226189166, -8142.092304479159, -9196.11116601362, 0.03, 0.912, 0.47800000000000004, 192.0, 0.0, 0.0, 0.0, 0.0, 0.0, 0.0, 0.0, 0.0, 0.0, 1.65417393052091E9, 0.0, 2022-06-02 14:45:30.520
99.0, -13449.603432369642, 10096.417080928932, -45592.2613253905, -38936.56002718926, -22949.810081697713, -20012.120307936708, -8162.141819255569, -9226.308372772739, 0.03, 0.912, 0.47800000000000004, 192.0, 0.0, 0.0, 0.0, 0.0, 0.0, 0.0, 0.0, 0.0, 0.0, 1.6541739305209155E9, 0.0, 2022-06-02 14:45:30.520
100.0, -13467.797752356262, 10076.300510919156, -45628.20293047463, -38970.065292127765, -22985.952852481947, -20046.318476953325, -8220.77044496184, -9283.595893811691, 0.03, 0.912, 0.47800000000000004, 192.0, 0.0, 0.0, 0.0, 0.0, 0.0, 0.0, 0.0, 0.0, 0.0, 1.654173930520924E9, 0.0, 2022-06-02 14:45:30.520
101.0, -13469.608243657141, 10069.863208516028, -45640.94342481416, -38987.678466758545, -22997.732221809893, -20059.103674781763, -8258.20961692448, -9301.186716698017, 0.03, 0.912, 0.47800000000000004, 192.0, 0.0, 0.0, 0.0, 0.0, 0.0, 0.0, 0.0, 0.0, 0.0, 1.6541739305209312E9, 0.0, 2022-06-02 14:45:30.520
102.0, -13453.783208582785, 10090.113888992535, -45613.36137215631, -38948.048823839286, -22976.565119810715, -20025.66546507662, -8234.740285246407, -9250.269442828829, 0.03, 0.912, 0.47800000000000004, 192.0, 0.0, 0.0, 0.0, 0.0, 0.0, 0.0, 0.0, 0.0, 0.0, 1.654173930520937E9, 0.0, 2022-06-02 14:45:30.520
103.0, -13433.107844961625, 10114.589049171096, -45587.29923812142, -38913.20245423346, -22947.507852018818, -20001.19030489806, -8191.489659725387, -9226.934221617488, 0.03, 0.912, 0.47800000000000004, 192.0, 0.0, 0.0, 0.0, 0.0, 0.0, 0.0, 0.0, 0.0, 0.0, 1.654173930520944E9, 0.0, 2022-06-02 14:45:30.520
104.0, -13434.56070835122, 10108.665836890441, -45597.08930219285, -38927.59697766268, -22964.226956871385, -20016.992988227965, -8222.24566009589, -9252.772838207822, 0.03, 0.912, 0.47800000000000004, 192.0, 0.0, 0.0, 0.0, 0.0, 0.0, 0.0, 0.0, 0.0, 0.0, 1.65417393052095E9, 0.0, 2022-06-02 14:45:30.520
105.0, -13440.260403187323, 10101.3344647091, -45610.25447967702, -38947.57943720573, -22972.340640108665, -20030.225220945504, -8214.62371523663, -9258.651346999568, 0.03, 0.912, 0.47800000000000004, 192.0, 0.0, 0.0, 0.0, 0.0, 0.0, 0.0, 0.0, 0.0, 0.0, 1.6541739305209556E9, 0.0, 2022-06-02 14:45:30.520
106.0, -13450.318688192212, 10084.2800836897, -45627.375915929784, -38972.70279797349, -22984.209416414433, -20048.374837443214, -8177.7433368853735, -9280.936036221508, 0.03, 0.912, 0.47800000000000004, 192.0, 0.0, 0.0, 0.0, 0.0, 0.0, 0.0, 0.0, 0.0, 0.0, 1.6541739305209613E9, 0.0, 2022-06-02 14:45:30.520
107.0, -13431.766740294308, 10108.24115374579, -45593.98240971356, -38940.80685863577, -22947.239631085355, -20019.228162673495, -8174.301168239256, -9261.154742378563, 0.034, 0.918, 0.47800000000000004, 192.0, 1.0, 16.0, 28.0, 176.0, 14.0, 240.0, 0.0, 0.0, 0.0, 1.654173930999931E9, 0.0, 2022-06-02 14:45:30.999
108.0, -13424.65888555752, 10121.38397948551, -45577.129194394256, -38915.37057344563, -22928.01713085379, -19999.37981359718, -8188.695691668474, -9232.58921296468, 0.034, 0.918, 0.47800000000000004, 192.0, 0.0, 0.0, 0.0, 0.0, 0.0, 0.0, 0.0, 0.0, 0.0, 1.65417393100001E9, 0.0, 2022-06-02 14:45:31.000
109.0, -13447.167092224014, 10099.032235030203, -45605.44885461913, -38945.41131799356, -22958.661372502014, -20032.326284924304, -8177.318653740723, -9278.522047820336, 0.034, 0.918, 0.47800000000000004, 192.0, 0.0, 0.0, 0.0, 0.0, 0.0, 0.0, 0.0, 0.0, 0.0, 1.654173931000056E9, 0.0, 2022-06-02 14:45:31.000
110.0, -13454.4761126609, 10087.677548846907, -45624.112561239315, -38967.204268837486, -22980.87900649059, -20050.319439210827, -8181.744299142873, -9305.813527800266, 0.034, 0.918, 0.47800000000000004, 192.0, 0.0, 0.0, 0.0, 0.0, 0.0, 0.0, 0.0, 0.0, 0.0, 1.6541739310000672E9, 0.0, 2022-06-02 14:45:31.000
111.0, -13467.127200022604, 10074.311205662634, -45644.0726690379, -38986.51617604687, -22993.37363164111, -20061.897642838674, -8228.571203776743, -9269.871922716133, 0.034, 0.918, 0.47800000000000004, 192.0, 0.0, 0.0, 0.0, 0.0, 0.0, 0.0, 0.0, 0.0, 0.0, 1.6541739310000796E9, 0.0, 2022-06-02 14:45:31.000
112.0, -13450.51985389231, 10099.702787363862, -45613.07079947839, -38942.41618423655, -22950.570041009196, -20009.929836980085, -8186.862848623139, -9204.649532395546, 0.034, 0.918, 0.47800000000000004, 192.0, 0.0, 0.0, 0.0, 0.0, 0.0, 0.0, 0.0, 0.0, 0.0, 1.6541739310000963E9, 0.0, 2022-06-02 14:45:31.000
113.0, -13435.27596417379, 10114.164366026445, -45590.763758511996, -38919.50564616986, -22929.87232564358, -19993.255435616426, -8143.142836468558, -9211.578573176692, 0.034, 0.918, 0.47800000000000004, 192.0, 0.0, 0.0, 0.0, 0.0, 0.0, 0.0, 0.0, 0.0, 0.0, 1.654173931000109E9, 0.0, 2022-06-02 14:45:31.000
114.0, -13438.025228741793, 10102.519107165232, -45609.80744478792, -38942.37148074764, -22956.15797712302, -20021.508040607936, -8176.938674084983, -9241.596965980169, 0.034, 0.918, 0.47800000000000004, 192.0, 0.0, 0.0, 0.0, 0.0, 0.0, 0.0, 0.0, 0.0, 0.0, 1.654173931000122E9, 0.0, 2022-06-02 14:45:31.000
115.0, -13460.622842386108, 10078.490981875775, -45649.79471561846, -38984.593926023714, -22995.005308986343, -20051.660543878144, -8226.53719503131, -9278.544399564791, 0.034, 0.918, 0.47800000000000004, 192.0, 0.0, 0.0, 0.0, 0.0, 0.0, 0.0, 0.0, 0.0, 0.0, 1.654173931000141E9, 0.0, 2022-06-02 14:45:31.000
116.0, -13458.007688284837, 10082.670758088918, -45650.88995109677, -38983.275173100854, -22990.579663584194, -20043.77037808542, -8222.33506707371, -9285.786364768312, 0.034, 0.918, 0.47800000000000004, 192.0, 0.0, 0.0, 0.0, 0.0, 0.0, 0.0, 0.0, 0.0, 0.0, 1.6541739310001547E9, 0.0, 2022-06-02 14:45:31.000
117.0, -13431.923202505495, 10109.626961902019, -45616.2670989355, -38950.507515729376, -22956.11327363411, -19999.648034530645, -8179.553828186254, -9229.594079207669, 0.034, 0.916, 0.48, 192.0, 1.0, 16.0, 28.0, 160.0, 15.0, 0.0, 0.0, 0.0, 0.0, 1.6541739310001657E9, 0.0, 2022-06-02 14:45:31.000
118.0, -13427.855185014629, 10117.539479439198, -45597.670447548684, -38916.577567646214, -22937.717787947393, -19988.42745881408, -8155.726868596897, -9194.121860757097, 0.034, 0.916, 0.48, 192.0, 0.0, 0.0, 0.0, 0.0, 0.0, 0.0, 0.0, 0.0, 0.0, 1.6541739310001776E9, 0.0, 2022-06-02 14:45:31.000
119.0, -13442.719095077407, 10097.109985007046, -45618.368162914296, -38933.96722483244, -22963.757570237824, -20014.690758549066, -8189.165078302036, -9238.847701412165, 0.034, 0.916, 0.48, 192.0, 0.0, 0.0, 0.0, 0.0, 0.0, 0.0, 0.0, 0.0, 0.0, 1.6541739310001886E9, 0.0, 2022-06-02 14:45:31.000
120.0, -13461.226339486402, 10075.741717307774, -45644.296186482454, -38972.14400436211, -22996.055840975743, -20043.21158447404, -8213.841404180695, -9276.130411163618, 0.034, 0.916, 0.48, 192.0, 0.0, 0.0, 0.0, 0.0, 0.0, 0.0, 0.0, 0.0, 0.0, 1.6541739310002112E9, 0.0, 2022-06-02 14:45:31.000
121.0, -13459.348792952156, 10078.759202809239, -45645.771401616505, -38977.687236987025, -22995.2288264309, -20051.63819213369, -8212.790872191295, -9278.45499258697, 0.034, 0.916, 0.48, 192.0, 0.0, 0.0, 0.0, 0.0, 0.0, 0.0, 0.0, 0.0, 0.0, 1.6541739310002213E9, 0.0, 2022-06-02 14:45:31.000
122.0, -13447.971755024404, 10093.980740783303, -45623.30789843892, -38951.42393725204, -22969.054933673735, -20030.58284885679, -8198.172831317524, -9258.584291766201, 0.034, 0.916, 0.48, 192.0, 0.0, 0.0, 0.0, 0.0, 0.0, 0.0, 0.0, 0.0, 0.0, 1.65417393100023E9, 0.0, 2022-06-02 14:45:31.000
123.0, -13429.643324571052, 10114.253773004268, -45600.822043516884, -38925.674727639525, -22942.434006027463, -20004.09603167725, -8185.789964889284, -9238.266556056327, 0.034, 0.916, 0.48, 192.0, 0.0, 0.0, 0.0, 0.0, 0.0, 0.0, 0.0, 0.0, 0.0, 1.654173931000245E9, 0.0, 2022-06-02 14:45:31.000
124.0, -13443.61316485562, 10097.75818559625, -45623.754933328026, -38949.81461165126, -22963.48934930436, -20022.290351663873, -8213.349665802678, -9261.69118424549, 0.034, 0.916, 0.48, 192.0, 0.0, 0.0, 0.0, 0.0, 0.0, 0.0, 0.0, 0.0, 0.0, 1.654173931000255E9, 0.0, 2022-06-02 14:45:31.000
125.0, -13466.791923855773, 10073.975929495804, -45658.06486106692, -38986.02443766886, -22994.78179154179, -20057.941384070087, -8240.864663227161, -9298.750376552389, 0.034, 0.916, 0.48, 192.0, 0.0, 0.0, 0.0, 0.0, 0.0, 0.0, 0.0, 0.0, 0.0, 1.6541739310002675E9, 0.0, 2022-06-02 14:45:31.000
126.0, -13464.735563365884, 10076.188752196878, -45660.70236691265, -38986.560879535784, -22998.291015421273, -20059.103674781763, -8231.186357878012, -9280.019614698842, 0.034, 0.916, 0.48, 192.0, 0.0, 0.0, 0.0, 0.0, 0.0, 0.0, 0.0, 0.0, 0.0, 1.6541739310002797E9, 0.0, 2022-06-02 14:45:31.000
127.0, -13442.607336355131, 10102.04972053167, -45628.4711514081, -38955.46960299845, -22964.472826060395, -20029.129985467196, -8193.568371959731, -9264.149876135574, 0.03, 0.914, 0.47200000000000003, 192.0, 0.0, 240.0, 28.0, 144.0, 14.0, 192.0, 0.0, 0.0, 0.0, 1.6541739310002935E9, 0.0, 2022-06-02 14:45:31.000
128.0, -13427.22933616988, 10120.579316685118, -45600.71028479461, -38932.20143702048, -22933.71682568989, -20000.00566244193, -8165.516932668321, -9232.879785642599, 0.03, 0.914, 0.47200000000000003, 192.0, 0.0, 0.0, 0.0, 0.0, 0.0, 0.0, 0.0, 0.0, 0.0, 1.654173931000368E9, 0.0, 2022-06-02 14:45:31.000
129.0, -13436.661772330019, 10107.212973500846, -45617.541148369455, -38950.082832584725, -22955.196852111443, -20019.183459184584, -8189.947389357972, -9247.40841953855, 0.03, 0.914, 0.47200000000000003, 192.0, 0.0, 0.0, 0.0, 0.0, 0.0, 0.0, 0.0, 0.0, 0.0, 1.654173931000382E9, 0.0, 2022-06-02 14:45:31.000
130.0, -13460.980470297394, 10080.882618532494, -45652.23105576409, -38981.57644052225, -22986.265776904318, -20044.284468207894, -8204.811299420751, -9293.676530561033, 0.03, 0.914, 0.47200000000000003, 192.0, 0.0, 0.0, 0.0, 0.0, 0.0, 0.0, 0.0, 0.0, 0.0, 1.654173931000393E9, 0.0, 2022-06-02 14:45:31.000
131.0, -13482.549903696765, 10060.31901363361, -45675.700387442164, -39014.0088217269, -23002.962530012435, -20068.78198013091, -8227.185395620512, -9334.580222914246, 0.03, 0.914, 0.47200000000000003, 192.0, 0.0, 0.0, 0.0, 0.0, 0.0, 0.0, 0.0, 0.0, 0.0, 1.6541739310004044E9, 0.0, 2022-06-02 14:45:31.000
132.0, -13458.432371429488, 10087.722252335818, -45643.402116704245, -38971.674617728546, -22972.877081975592, -20040.618782117224, -8213.170851847035, -9268.620225026634, 0.03, 0.914, 0.47200000000000003, 192.0, 0.0, 0.0, 0.0, 0.0, 0.0, 0.0, 0.0, 0.0, 0.0, 1.6541739310004144E9, 0.0, 2022-06-02 14:45:31.000
133.0, -13450.072819003204, 10096.640598373486, -45632.002727032035, -38940.69509991349, -22963.042314415256, -20027.699473822056, -8212.343837302189, -9234.802035665756, 0.03, 0.914, 0.47200000000000003, 192.0, 0.0, 0.0, 0.0, 0.0, 0.0, 0.0, 0.0, 0.0, 0.0, 1.6541739310004222E9, 0.0, 2022-06-02 14:45:31.000
134.0, -13435.18655719597, 10113.359703226055, -45618.54697686994, -38929.92155908603, -22953.69928523294, -20019.362273140225, -8197.189354561491, -9264.507504046858, 0.03, 0.914, 0.47200000000000003, 192.0, 0.0, 0.0, 0.0, 0.0, 0.0, 0.0, 0.0, 0.0, 0.0, 1.6541739310004334E9, 0.0, 2022-06-02 14:45:31.000
135.0, -13450.18457772548, 10100.172173997424, -45637.814180590416, -38956.76600417686, -22976.431009343985, -20042.96571528503, -8219.541099016798, -9285.02640545683, 0.03, 0.914, 0.47200000000000003, 192.0, 0.0, 0.0, 0.0, 0.0, 0.0, 0.0, 0.0, 0.0, 0.0, 1.6541739310004487E9, 0.0, 2022-06-02 14:45:31.000
136.0, -13460.645194130564, 10082.357833666543, -45659.49537271207, -38978.46954804296, -22995.966433997924, -20050.028866532906, -8227.811244465262, -9248.794227694778, 0.03, 0.914, 0.47200000000000003, 192.0, 0.0, 0.0, 0.0, 0.0, 0.0, 0.0, 0.0, 0.0, 0.0, 1.6541739310004568E9, 0.0, 2022-06-02 14:45:31.000
137.0, -13439.388685153566, 10105.983627555803, -45630.683974109175, -38951.49099248541, -22957.253212601332, -20014.511944593425, -8178.436240963489, -9238.11009384514, 0.032, 0.918, 0.47200000000000003, 192.0, 1.0, 0.0, 28.0, 176.0, 14.0, 192.0, 0.0, 0.0, 0.0, 1.654173931000464E9, 0.0, 2022-06-02 14:45:31.000
138.0, -13419.629743055075, 10128.491834222297, -45599.279773149465, -38913.00128853336, -22917.78003189326, -19982.817170955797, -8130.357638640123, -9210.01395106482, 0.032, 0.918, 0.47200000000000003, 192.0, 0.0, 0.0, 0.0, 0.0, 0.0, 0.0, 0.0, 0.0, 0.0, 1.6541739310004735E9, 0.0, 2022-06-02 14:45:31.000
139.0, -13436.61706884111, 10111.795081114184, -45620.670392593194, -38937.65526266757, -22944.669180472993, -20008.834601501778, -8172.267159493824, -9230.01876235232, 0.032, 0.918, 0.47200000000000003, 192.0, 0.0, 0.0, 0.0, 0.0, 0.0, 0.0, 0.0, 0.0, 0.0, 1.6541739310004802E9, 0.0, 2022-06-02 14:45:31.000
140.0, -13457.180673739991, 10088.325749436111, -45652.968663331114, -38965.729053703435, -22989.372669383607, -20041.043465261875, -8215.96481990395, -9288.423870614037, 0.032, 0.918, 0.47200000000000003, 192.0, 0.0, 0.0, 0.0, 0.0, 0.0, 0.0, 0.0, 0.0, 0.0, 1.6541739310004897E9, 0.0, 2022-06-02 14:45:31.000
