%OpenBCI Raw EEG Data
%Number of channels = 8
%Sample Rate = 250 Hz
%Board = OpenBCI_GUI$BoardCytonSerial
Sample Index, EXG Channel 0, EXG Channel 1, EXG Channel 2, EXG Channel 3, EXG Channel 4, EXG Channel 5, EXG Channel 6, EXG Channel 7, Accel Channel 0, Accel Channel 1, Accel Channel 2, Other, Other, Other, Other, Other, Other, Other, Analog Channel 0, Analog Channel 1, Analog Channel 2, Timestamp, Other, Timestamp (Formatted)
0.0, 0.0, 0.0, 0.0, 0.0, 0.0, 0.0, 0.0, 0.0, 0.0, 0.0, 0.0, 192.0, 0.0, 0.0, 0.0, 0.0, 0.0, 0.0, 0.0, 0.0, 0.0, 1.654608822650689E9, 0.0, 2022-06-07 15:33:42.650
1.0, 39225.81395218539, 14014.342607777431, -19561.196215295342, -22749.203175211333, -9559.237606434537, -9285.518143834846, 14454.135531680053, 1640.6403947639938, 0.156, 0.992, 0.522, 192.0, 4.0, 224.0, 31.0, 0.0, 16.0, 80.0, 0.0, 0.0, 0.0, 1.65460882270973E9, 0.0, 2022-06-07 15:33:42.709
2.0, 39101.426494291605, 13994.226037767654, -19584.956119651335, -22786.35177449605, -9617.754473418532, -9327.293554221817, 14468.261834175806, 1691.6470756110043, 0.156, 0.992, 0.522, 192.0, 0.0, 0.0, 0.0, 0.0, 0.0, 0.0, 0.0, 0.0, 0.0, 1.654608822709747E9, 0.0, 2022-06-07 15:33:42.709
3.0, 39167.16297473467, 13999.031662825546, -19546.019380810187, -22786.1282570515, -9622.180118820683, -9358.429534248058, 14545.35300080216, 1703.3817414500406, 0.156, 0.992, 0.522, 192.0, 0.0, 0.0, 0.0, 0.0, 0.0, 0.0, 0.0, 0.0, 0.0, 1.654608822709751E9, 0.0, 2022-06-07 15:33:42.709
4.0, 39303.55331940095, 14012.53211647655, -19522.52769738766, -22769.856187088037, -9576.426097920668, -9287.641559558102, 14582.12162043114, 1691.6023721220938, 0.156, 0.992, 0.522, 192.0, 0.0, 0.0, 0.0, 0.0, 0.0, 0.0, 0.0, 0.0, 0.0, 1.654608822709755E9, 0.0, 2022-06-07 15:33:42.709
5.0, 39316.316165484925, 13993.711947645183, -19544.655924398416, -22767.486902175773, -9579.778859588965, -9207.778776619289, 14505.857468349634, 1669.5412003447057, 0.156, 0.992, 0.522, 192.0, 0.0, 0.0, 0.0, 0.0, 0.0, 0.0, 0.0, 0.0, 0.0, 1.654608822709758E9, 0.0, 2022-06-07 15:33:42.709
6.0, 39193.985068081034, 13974.176522991243, -19576.440105013862, -22768.47037893181, -9639.413313795723, -9135.537938539737, 14522.844794135666, 1662.3215868856416, 0.156, 0.992, 0.522, 192.0, 0.0, 0.0, 0.0, 0.0, 0.0, 0.0, 0.0, 0.0, 0.0, 1.654608822709761E9, 0.0, 2022-06-07 15:33:42.709
7.0, 39093.06694186532, 13995.0530523125, -19575.188407324364, -22761.83191082858, -9688.944779508683, -9083.905408847977, 14579.998204707887, 1709.819043853169, 0.156, 0.992, 0.522, 192.0, 0.0, 0.0, 0.0, 0.0, 0.0, 0.0, 0.0, 0.0, 0.0, 1.654608822709764E9, 0.0, 2022-06-07 15:33:42.709
8.0, 39151.24853268248, 14011.369825764874, -19529.76966259118, -22746.342151921053, -9645.157712120737, -9088.643978672502, 14572.800942993277, 1787.1560796685314, 0.17, 0.858, 0.518, 192.0, 5.0, 80.0, 26.0, 208.0, 16.0, 48.0, 0.0, 0.0, 0.0, 1.654608822709767E9, 0.0, 2022-06-07 15:33:42.709
9.0, 39264.6165805598, 14021.003427625112, -19505.585075090537, -22739.189593695355, -9600.677740654677, -9080.440888457404, 14556.886500941098, 1761.2951113337413, 0.17, 0.858, 0.518, 192.0, 0.0, 0.0, 0.0, 0.0, 0.0, 0.0, 0.0, 0.0, 0.0, 1.65460882270977E9, 0.0, 2022-06-07 15:33:42.709
10.0, 39274.69721730915, 14001.445651226719, -19525.2099067223, -22726.15852667791, -9603.5164122005, -8994.25256183774, 14548.124617114618, 1759.886951433057, 0.17, 0.858, 0.518, 192.0, 0.0, 0.0, 0.0, 0.0, 0.0, 0.0, 0.0, 0.0, 0.0, 1.654608822709773E9, 0.0, 2022-06-07 15:33:42.709
11.0, 39170.8957160587, 13991.208552266187, -19548.567479678095, -22705.661977012394, -9655.595976781366, -8888.573514053049, 14555.478341040414, 1756.690651975948, 0.17, 0.858, 0.518, 192.0, 0.0, 0.0, 0.0, 0.0, 0.0, 0.0, 0.0, 0.0, 0.0, 1.654608822709776E9, 0.0, 2022-06-07 15:33:42.709
12.0, 39070.044645076356, 13979.228017238143, -19544.72297963178, -22707.226599124268, -9665.430744341702, -8869.418069054851, 14543.96719264593, 1759.8422479441463, 0.17, 0.858, 0.518, 192.0, 0.0, 0.0, 0.0, 0.0, 0.0, 0.0, 0.0, 0.0, 0.0, 1.654608822709779E9, 0.0, 2022-06-07 15:33:42.709
13.0, 39136.29521564188, 14023.328009048464, -19494.051574951598, -22681.09740985601, -9600.655388910222, -8866.892321931402, 14589.967082734953, 1795.9403152394673, 0.17, 0.858, 0.518, 192.0, 0.0, 0.0, 0.0, 0.0, 0.0, 0.0, 0.0, 0.0, 0.0, 1.654608822709782E9, 0.0, 2022-06-07 15:33:42.709
14.0, 39266.73999628305, 14049.434846572263, -19480.75228700069, -22673.09548534101, -9563.41738264768, -8884.550200051093, 14544.168358346029, 1776.0025591853332, 0.17, 0.858, 0.518, 192.0, 0.0, 0.0, 0.0, 0.0, 0.0, 0.0, 0.0, 0.0, 0.0, 1.654608822709785E9, 0.0, 2022-06-07 15:33:42.709
15.0, 39298.97121178761, 14055.089837919455, -19508.267284425176, -22670.39092426192, -9561.830408791353, -8915.283848677142, 14472.195741199941, 1755.9530444089228, 0.17, 0.858, 0.518, 192.0, 0.0, 0.0, 0.0, 0.0, 0.0, 0.0, 0.0, 0.0, 0.0, 1.654608822709789E9, 0.0, 2022-06-07 15:33:42.709
16.0, 39182.160995264174, 14026.032570127556, -19545.035904054155, -22677.00704062069, -9544.12782718275, -8929.656020361903, 14538.982753632397, 1782.0598819327215, 0.17, 0.858, 0.518, 192.0, 0.0, 0.0, 0.0, 0.0, 0.0, 0.0, 0.0, 0.0, 0.0, 1.654608822770707E9, 0.0, 2022-06-07 15:33:42.770
17.0, 39101.35943905824, 14040.15887262331, -19516.559781618093, -22660.802025890593, -9479.44187872909, -9010.748149245757, 14612.408234168082, 1818.202652716953, 0.17, 0.858, 0.518, 192.0, 0.0, 0.0, 0.0, 0.0, 0.0, 0.0, 0.0, 0.0, 0.0, 1.654608822770714E9, 0.0, 2022-06-07 15:33:42.770
18.0, 39170.33692244732, 14073.150047439343, -19473.733839241726, -22633.711711610762, -9403.91533421461, -9063.610024882559, 14673.003813386418, 1857.139391558098, 0.10400000000000001, 0.972, 0.5700000000000001, 192.0, 3.0, 64.0, 30.0, 96.0, 17.0, 208.0, 0.0, 0.0, 0.0, 1.654608822770718E9, 0.0, 2022-06-07 15:33:42.770
19.0, 39302.9274705562, 14085.085878978478, -19457.461769278263, -22624.36868242844, -9318.486966906425, -9116.091920863619, 14608.563734121768, 1804.7692542993134, 0.10400000000000001, 0.972, 0.5700000000000001, 192.0, 0.0, 0.0, 0.0, 0.0, 0.0, 0.0, 0.0, 0.0, 0.0, 1.654608822770721E9, 0.0, 2022-06-07 15:33:42.770
20.0, 39322.21702602113, 14078.045079475056, -19490.743516772214, -22633.0411592771, -9287.194524668996, -9152.122932925575, 14557.512349785848, 1841.2249495059193, 0.10400000000000001, 0.972, 0.5700000000000001, 192.0, 0.0, 0.0, 0.0, 0.0, 0.0, 0.0, 0.0, 0.0, 0.0, 1.654608822770725E9, 0.0, 2022-06-07 15:33:42.770
21.0, 39197.87427161625, 14038.795416211537, -19531.71426435879, -22648.24034550671, -9301.723158564944, -9203.062558539219, 14526.465776737426, 1799.136614696576, 0.10400000000000001, 0.972, 0.5700000000000001, 192.0, 0.0, 0.0, 0.0, 0.0, 0.0, 0.0, 0.0, 0.0, 0.0, 1.654608822770728E9, 0.0, 2022-06-07 15:33:42.770
22.0, 39112.22238686352, 14047.803169227025, -19519.42080490837, -22639.76903435815, -9291.374300882138, -9210.72920688739, 14539.653305966058, 1834.1617982580422, 0.10400000000000001, 0.972, 0.5700000000000001, 192.0, 0.0, 0.0, 0.0, 0.0, 0.0, 0.0, 0.0, 0.0, 0.0, 1.654608822770742E9, 0.0, 2022-06-07 15:33:42.770
23.0, 39156.165916462654, 14056.967384453701, -19480.506417811685, -22636.70684536777, -9267.54734129278, -9260.595948767179, 14527.203384304452, 1857.362909002651, 0.10400000000000001, 0.972, 0.5700000000000001, 192.0, 0.0, 0.0, 0.0, 0.0, 0.0, 0.0, 0.0, 0.0, 0.0, 1.654608822770746E9, 0.0, 2022-06-07 15:33:42.770
24.0, 39259.073347934886, 14040.717666234694, -19478.606519532983, -22650.564926930063, -9269.491943060391, -9319.984533784931, 14522.621276691114, 1807.004428744844, 0.10400000000000001, 0.972, 0.5700000000000001, 192.0, 0.0, 0.0, 0.0, 0.0, 0.0, 0.0, 0.0, 0.0, 0.0, 1.654608822770749E9, 0.0, 2022-06-07 15:33:42.770
25.0, 39296.69133385317, 14032.961610908702, -19483.546255057605, -22639.970200058247, -9262.205274367961, -9312.98843777042, 14508.092642795164, 1832.55247265726, 0.10400000000000001, 0.972, 0.5700000000000001, 192.0, 0.0, 0.0, 0.0, 0.0, 0.0, 0.0, 0.0, 0.0, 0.0, 1.654608822770752E9, 0.0, 2022-06-07 15:33:42.770
26.0, 39180.26109698547, 13989.263950498576, -19510.413051892883, -22657.33750550002, -9321.303286707795, -9279.438469343004, 14503.018796803808, 1843.750696629369, 0.10400000000000001, 0.972, 0.5700000000000001, 192.0, 0.0, 0.0, 0.0, 0.0, 0.0, 0.0, 0.0, 0.0, 0.0, 1.654608822770756E9, 0.0, 2022-06-07 15:33:42.770
27.0, 39079.14180506967, 13967.113371743366, -19513.788165305636, -22677.722296443262, -9359.591824959734, -9290.301417148283, 14502.325892725694, 1838.0510017932656, 0.10400000000000001, 0.972, 0.5700000000000001, 192.0, 0.0, 0.0, 0.0, 0.0, 0.0, 0.0, 0.0, 0.0, 0.0, 1.654608822770759E9, 0.0, 2022-06-07 15:33:42.770
28.0, 39119.55375904486, 13965.459342653674, -19498.454868609297, -22693.189703606335, -9362.788124416844, -9340.36932472817, 14520.900192368055, 1848.8915978540897, 0.066, 0.892, 0.554, 192.0, 2.0, 16.0, 27.0, 224.0, 17.0, 80.0, 0.0, 0.0, 0.0, 1.654608822770763E9, 0.0, 2022-06-07 15:33:42.770
29.0, 39255.072385677384, 13966.934557787725, -19474.270281108653, -22687.177084347855, -9357.84838889222, -9362.296386038826, 14557.154721874562, 1859.2181037924415, 0.066, 0.892, 0.554, 192.0, 0.0, 0.0, 0.0, 0.0, 0.0, 0.0, 0.0, 0.0, 0.0, 1.654608822770766E9, 0.0, 2022-06-07 15:33:42.770
30.0, 39277.11120571032, 13928.601316046872, -19503.37225238946, -22706.936026446347, -9393.05238640933, -9354.428571990558, 14516.318084754717, 1837.1792837595087, 0.066, 0.892, 0.554, 192.0, 0.0, 0.0, 0.0, 0.0, 0.0, 0.0, 0.0, 0.0, 0.0, 1.654608822770769E9, 0.0, 2022-06-07 15:33:42.770
31.0, 39167.766471834955, 13891.206847573143, -19539.090340029044, -22728.39370112344, -9446.987145779985, -9350.673478922066, 14483.326909938683, 1836.2852139812965, 0.066, 0.892, 0.554, 192.0, 0.0, 0.0, 0.0, 0.0, 0.0, 0.0, 0.0, 0.0, 0.0, 1.654608822830163E9, 0.0, 2022-06-07 15:33:42.830
32.0, 39065.842517118755, 13872.721954908606, -19543.06895054209, -22739.100186717533, -9464.35445122176, -9379.909560669608, 14506.863296850122, 1822.0248010188104, 0.066, 0.892, 0.554, 192.0, 0.0, 0.0, 0.0, 0.0, 0.0, 0.0, 0.0, 0.0, 0.0, 1.654608822830183E9, 0.0, 2022-06-07 15:33:42.830
33.0, 39087.68017145159, 13869.100972306846, -19540.118520273987, -22752.82415781309, -9479.710099662554, -9436.615936352722, 14503.309369481727, 1818.783798072791, 0.066, 0.892, 0.554, 192.0, 0.0, 0.0, 0.0, 0.0, 0.0, 0.0, 0.0, 0.0, 0.0, 1.654608822830186E9, 0.0, 2022-06-07 15:33:42.830
34.0, 39226.484504519045, 13903.969693657124, -19512.156487960397, -22729.578343579575, -9443.209700967038, -9460.06291628634, 14467.904206264522, 1804.523385110305, 0.066, 0.892, 0.554, 192.0, 0.0, 0.0, 0.0, 0.0, 0.0, 0.0, 0.0, 0.0, 0.0, 1.654608822830189E9, 0.0, 2022-06-07 15:33:42.830
35.0, 39261.308522380416, 13908.194173359178, -19519.219639208277, -22720.2129626528, -9410.91143022912, -9439.923994532108, 14491.507648409326, 1827.9703650439221, 0.066, 0.892, 0.554, 192.0, 0.0, 0.0, 0.0, 0.0, 0.0, 0.0, 0.0, 0.0, 0.0, 1.654608822830193E9, 0.0, 2022-06-07 15:33:42.830
36.0, 39154.198962950584, 13889.955149883646, -19546.131139532466, -22731.1653174359, -9445.042544012374, -9425.752988547443, 14462.226863172873, 1854.233664778908, 0.066, 0.892, 0.554, 192.0, 0.0, 0.0, 0.0, 0.0, 0.0, 0.0, 0.0, 0.0, 0.0, 1.654608822830196E9, 0.0, 2022-06-07 15:33:42.830
37.0, 39057.63942690366, 13887.071774848911, -19554.177767536374, -22733.154622692422, -9453.044468527374, -9408.653904039134, 14491.328834453683, 1820.9966207738664, 0.064, 0.9420000000000001, 0.548, 192.0, 2.0, 0.0, 29.0, 112.0, 17.0, 32.0, 0.0, 0.0, 0.0, 1.654608822830199E9, 0.0, 2022-06-07 15:33:42.830
38.0, 39103.661668737135, 13919.191231631188, -19527.28861895664, -22733.98163723727, -9417.035808209874, -9441.86859629972, 14506.975055572399, 1853.7642781453465, 0.064, 0.9420000000000001, 0.548, 192.0, 0.0, 0.0, 0.0, 0.0, 0.0, 0.0, 0.0, 0.0, 0.0, 1.654608822830203E9, 0.0, 2022-06-07 15:33:42.830
39.0, 39237.50391453552, 13945.655697066271, -19493.04574645111, -22714.64737828343, -9377.495572268435, -9470.25531175796, 14555.277175340318, 1887.5377640173156, 0.064, 0.9420000000000001, 0.548, 192.0, 0.0, 0.0, 0.0, 0.0, 0.0, 0.0, 0.0, 0.0, 0.0, 1.654608822830206E9, 0.0, 2022-06-07 15:33:42.830
40.0, 39269.131632939774, 13943.152301687278, -19511.262418182185, -22697.190665863833, -9399.37793009018, -9406.306970871326, 14593.051623469786, 1851.260882766352, 0.064, 0.9420000000000001, 0.548, 192.0, 0.0, 0.0, 0.0, 0.0, 0.0, 0.0, 0.0, 0.0, 0.0, 1.654608822830209E9, 0.0, 2022-06-07 15:33:42.830
41.0, 39161.8432595543, 13924.153318900266, -19548.321610489085, -22698.867046697982, -9428.614011837723, -9389.945493930041, 14536.59111697568, 1853.1160775561427, 0.064, 0.9420000000000001, 0.548, 192.0, 0.0, 0.0, 0.0, 0.0, 0.0, 0.0, 0.0, 0.0, 0.0, 1.654608822830212E9, 0.0, 2022-06-07 15:33:42.830
42.0, 39050.26335123341, 13921.113481654345, -19561.73265716227, -22723.1633929209, -9434.24665144046, -9468.02013731243, 14504.58341891568, 1926.6309650696476, 0.064, 0.9420000000000001, 0.548, 192.0, 0.0, 0.0, 0.0, 0.0, 0.0, 0.0, 0.0, 0.0, 0.0, 1.654608822830215E9, 0.0, 2022-06-07 15:33:42.830
43.0, 39091.725837198, 13967.582758376928, -19528.517964901683, -22717.68721552935, -9422.064950712318, -9440.7286573325, 14519.44732897846, 1922.5629475787816, 0.064, 0.9420000000000001, 0.548, 192.0, 0.0, 0.0, 0.0, 0.0, 0.0, 0.0, 0.0, 0.0, 0.0, 1.654608822830227E9, 0.0, 2022-06-07 15:33:42.830
44.0, 39229.926673165166, 13970.264967711564, -19487.7483830152, -22695.11195362949, -9398.439156823059, -9417.728712287988, 14574.678489527523, 1891.0246361523434, 0.064, 0.9420000000000001, 0.548, 192.0, 0.0, 0.0, 0.0, 0.0, 0.0, 0.0, 0.0, 0.0, 0.0, 1.65460882283023E9, 0.0, 2022-06-07 15:33:42.830
45.0, 39282.67679007969, 13961.592490862906, -19486.787258003624, -22676.090619098024, -9354.920310368576, -9396.80747947782, 14597.678434572033, 1902.9157642025668, 0.064, 0.9420000000000001, 0.548, 192.0, 0.0, 0.0, 0.0, 0.0, 0.0, 0.0, 0.0, 0.0, 0.0, 1.654608822830233E9, 0.0, 2022-06-07 15:33:42.830
46.0, 39165.97833227853, 13937.94434522919, -19528.67442711287, -22685.344241302522, -9401.970732446996, -9316.520013394358, 14541.664962967036, 1864.269598039341, 0.064, 0.9420000000000001, 0.548, 192.0, 0.0, 0.0, 0.0, 0.0, 0.0, 0.0, 0.0, 0.0, 0.0, 1.654608822893083E9, 0.0, 2022-06-07 15:33:42.893
47.0, 39041.18854298455, 13918.073644408423, -19554.289526258653, -22713.753308505216, -9461.672241887121, -9362.072868594274, 14536.814634420232, 1859.1957520479862, 0.066, 0.914, 0.548, 192.0, 2.0, 16.0, 28.0, 144.0, 17.0, 32.0, 0.0, 0.0, 0.0, 1.654608822893103E9, 0.0, 2022-06-07 15:33:42.893
48.0, 39080.237040547974, 13927.550784057474, -19515.129269972953, -22715.1614684059, -9436.682991586089, -9430.782131049888, 14511.937142841476, 1879.9828743914218, 0.066, 0.914, 0.548, 192.0, 0.0, 0.0, 0.0, 0.0, 0.0, 0.0, 0.0, 0.0, 0.0, 1.654608822893107E9, 0.0, 2022-06-07 15:33:42.893
49.0, 39201.51760596247, 13937.005571962069, -19493.112801684478, -22707.472468313274, -9413.615991308212, -9445.377820179203, 14530.64555295057, 1900.8370519682232, 0.066, 0.914, 0.548, 192.0, 0.0, 0.0, 0.0, 0.0, 0.0, 0.0, 0.0, 0.0, 0.0, 1.65460882289311E9, 0.0, 2022-06-07 15:33:42.893
50.0, 39253.32894960987, 13947.957926745168, -19493.38102261794, -22689.479314026754, -9392.448889309037, -9404.854107481731, 14554.740733473389, 1918.6960957880135, 0.066, 0.914, 0.548, 192.0, 0.0, 0.0, 0.0, 0.0, 0.0, 0.0, 0.0, 0.0, 0.0, 1.654608822893114E9, 0.0, 2022-06-07 15:33:42.893
51.0, 39166.20184972308, 13948.404961634275, -19513.654054838902, -22690.82041869407, -9420.835604767277, -9407.513965071914, 14525.236430792384, 1905.843842726212, 0.066, 0.914, 0.548, 192.0, 0.0, 0.0, 0.0, 0.0, 0.0, 0.0, 0.0, 0.0, 0.0, 1.654608822893117E9, 0.0, 2022-06-07 15:33:42.893
52.0, 39060.70161589404, 13934.368066116342, -19538.7103603733, -22720.101203930524, -9460.956986064552, -9382.658825237611, 14491.172372242496, 1837.6263186486149, 0.066, 0.914, 0.548, 192.0, 0.0, 0.0, 0.0, 0.0, 0.0, 0.0, 0.0, 0.0, 0.0, 1.654608822893121E9, 0.0, 2022-06-07 15:33:42.893
53.0, 39106.0309536494, 13954.462284381663, -19521.410110164896, -22738.966076250803, -9441.242747454971, -9480.090079318295, 14480.711755837412, 1878.5076592573714, 0.066, 0.914, 0.548, 192.0, 0.0, 0.0, 0.0, 0.0, 0.0, 0.0, 0.0, 0.0, 0.0, 1.654608822893124E9, 0.0, 2022-06-07 15:33:42.893
54.0, 39224.875178918264, 13978.199836993199, -19490.318833627563, -22723.789241765648, -9407.759834260922, -9574.548551386422, 14533.864204152133, 1960.225636985974, 0.066, 0.914, 0.548, 192.0, 0.0, 0.0, 0.0, 0.0, 0.0, 0.0, 0.0, 0.0, 0.0, 1.654608822893151E9, 0.0, 2022-06-07 15:33:42.893
55.0, 39263.36488287031, 13988.81691560947, -19491.14584817241, -22680.404505777897, -9407.089281927263, -9415.046502953352, 14670.746287196433, 1901.1946798795082, 0.066, 0.914, 0.548, 192.0, 0.0, 0.0, 0.0, 0.0, 0.0, 0.0, 0.0, 0.0, 0.0, 1.654608822893155E9, 0.0, 2022-06-07 15:33:42.893
56.0, 39144.02891922342, 13963.917072286258, -19534.61999113798, -22698.44236355333, -9436.593584608268, -9357.535464469847, 14519.268515022817, 1894.5115082873713, 0.066, 0.914, 0.548, 192.0, 0.0, 0.0, 0.0, 0.0, 0.0, 0.0, 0.0, 0.0, 0.0, 1.654608822893158E9, 0.0, 2022-06-07 15:33:42.893
57.0, 39051.090365778255, 13970.466133411663, -19519.599618864017, -22691.915654172382, -9419.136872188672, -9351.90282486711, 14460.975165483376, 1875.3113598002626, 0.062, 0.91, 0.544, 192.0, 1.0, 240.0, 28.0, 112.0, 17.0, 0.0, 0.0, 0.0, 0.0, 1.654608822893162E9, 0.0, 2022-06-07 15:33:42.893
58.0, 39086.56258422883, 13984.39127020732, -19482.60748179048, -22688.2052645928, -9386.033938650364, -9419.829776266788, 14587.26252165586, 1934.163502951086, 0.062, 0.91, 0.544, 192.0, 0.0, 0.0, 0.0, 0.0, 0.0, 0.0, 0.0, 0.0, 0.0, 1.654608822893166E9, 0.0, 2022-06-07 15:33:42.893
59.0, 39217.49910324802, 14010.811032153491, -19446.934097639813, -22671.19558706231, -9342.51509219588, -9454.027945283407, 14624.969914551964, 1957.0293375288652, 0.062, 0.91, 0.544, 192.0, 0.0, 0.0, 0.0, 0.0, 0.0, 0.0, 0.0, 0.0, 0.0, 1.654608822893169E9, 0.0, 2022-06-07 15:33:42.893
60.0, 39260.77208051349, 14029.474738773673, -19454.26546982115, -22648.44151120681, -9352.551025456312, -9378.121421113185, 14628.568545409269, 1959.4656776744937, 0.062, 0.91, 0.544, 192.0, 0.0, 0.0, 0.0, 0.0, 0.0, 0.0, 0.0, 0.0, 0.0, 1.654608822893173E9, 0.0, 2022-06-07 15:33:42.893
61.0, 39173.68968411561, 14018.187107823744, -19489.17889466034, -22650.47551995224, -9394.86287771021, -9345.644336419624, 14630.244926243417, 1966.7970498558343, 0.062, 0.91, 0.544, 192.0, 0.0, 0.0, 0.0, 0.0, 0.0, 0.0, 0.0, 0.0, 0.0, 1.654608822951619E9, 0.0, 2022-06-07 15:33:42.951
62.0, 39088.909517396634, 14018.321218290475, -19490.519999327662, -22650.140243785412, -9420.67914255609, -9366.8114384188, 14583.753297776379, 1970.2168667574963, 0.062, 0.91, 0.544, 192.0, 0.0, 0.0, 0.0, 0.0, 0.0, 0.0, 0.0, 0.0, 0.0, 1.654608822951626E9, 0.0, 2022-06-07 15:33:42.951
63.0, 39130.8860934837, 14048.92075644979, -19453.90784190987, -22642.585354159517, -9386.503325283924, -9439.789884065376, 14631.340161721726, 2061.702556813068, 0.062, 0.91, 0.544, 192.0, 0.0, 0.0, 0.0, 0.0, 0.0, 0.0, 0.0, 0.0, 0.0, 1.654608822951629E9, 0.0, 2022-06-07 15:33:42.951
64.0, 39247.249275118025, 14071.630128816383, -19424.09061480649, -22629.10725225297, -9338.380019471648, -9438.269965442416, 14671.841522674744, 2029.06900990832, 0.062, 0.91, 0.544, 192.0, 0.0, 0.0, 0.0, 0.0, 0.0, 0.0, 0.0, 0.0, 0.0, 1.654608822951645E9, 0.0, 2022-06-07 15:33:42.951
65.0, 39318.12665678581, 14103.011978031634, -19410.567809411026, -22585.253129631656, -9321.70561810799, -9323.069074519763, 14633.41887395607, 2003.677428207091, 0.062, 0.91, 0.544, 192.0, 0.0, 0.0, 0.0, 0.0, 0.0, 0.0, 0.0, 0.0, 0.0, 1.654608822951648E9, 0.0, 2022-06-07 15:33:42.951
66.0, 39235.62636800127, 14089.176248213798, -19431.26552477664, -22576.357135338443, -9347.633641676146, -9251.074105629219, 14634.379998967648, 2010.1147306102193, 0.062, 0.91, 0.544, 192.0, 0.0, 0.0, 0.0, 0.0, 0.0, 0.0, 0.0, 0.0, 0.0, 1.654608822951652E9, 0.0, 2022-06-07 15:33:42.951
67.0, 39126.728669015014, 14076.681623063281, -19446.554117984073, -22606.46493511974, -9366.789086674344, -9295.55407709528, 14642.22546127146, 2025.0680476508198, 0.058, 0.89, 0.55, 192.0, 1.0, 208.0, 27.0, 208.0, 17.0, 48.0, 0.0, 0.0, 0.0, 1.654608822951656E9, 0.0, 2022-06-07 15:33:42.951
68.0, 39145.37002389074, 14067.249186903142, -19438.70865568026, -22628.213182474756, -9368.644281464134, -9374.43338327806, 14662.610252214701, 2025.2692133509177, 0.058, 0.89, 0.55, 192.0, 0.0, 0.0, 0.0, 0.0, 0.0, 0.0, 0.0, 0.0, 0.0, 1.65460882295166E9, 0.0, 2022-06-07 15:33:42.951
69.0, 39276.30654290993, 14102.184963486787, -19390.227721956697, -22601.279330406112, -9335.206071758994, -9385.586903761257, 14700.474107321992, 2041.161303658641, 0.058, 0.89, 0.55, 192.0, 0.0, 0.0, 0.0, 0.0, 0.0, 0.0, 0.0, 0.0, 0.0, 1.654608822951663E9, 0.0, 2022-06-07 15:33:42.951
70.0, 39314.01393580603, 14104.978931543701, -19398.006129027144, -22584.627280786906, -9344.079714307753, -9343.699734652011, 14670.656880218612, 2029.8289692198002, 0.058, 0.89, 0.55, 192.0, 0.0, 0.0, 0.0, 0.0, 0.0, 0.0, 0.0, 0.0, 0.0, 1.654608822951667E9, 0.0, 2022-06-07 15:33:42.951
71.0, 39217.18617882564, 14078.581521341983, -19425.94580959628, -22586.884806976894, -9377.830848435266, -9327.919403066564, 14673.137923853152, 2041.898911225666, 0.058, 0.89, 0.55, 192.0, 0.0, 0.0, 0.0, 0.0, 0.0, 0.0, 0.0, 0.0, 0.0, 1.654608822951688E9, 0.0, 2022-06-07 15:33:42.951
72.0, 39126.63926203719, 14074.64761431785, -19429.633847431403, -22590.818714001027, -9387.889133440154, -9359.033031348352, 14664.845426660231, 2050.571388074325, 0.058, 0.89, 0.55, 192.0, 0.0, 0.0, 0.0, 0.0, 0.0, 0.0, 0.0, 0.0, 0.0, 1.654608822951692E9, 0.0, 2022-06-07 15:33:42.951
73.0, 39163.81021306637, 14088.460992391229, -19406.477440175706, -22590.259920389646, -9381.071851381284, -9398.014473678408, 14640.258507759394, 2048.939710729088, 0.058, 0.89, 0.55, 192.0, 0.0, 0.0, 0.0, 0.0, 0.0, 0.0, 0.0, 0.0, 0.0, 1.654608822951709E9, 0.0, 2022-06-07 15:33:42.951
74.0, 39290.20932796113, 14098.541629140573, -19375.49792236065, -22579.03934467308, -9338.268260749372, -9411.783148262877, 14639.006810069897, 1999.7882246718675, 0.058, 0.89, 0.55, 192.0, 0.0, 0.0, 0.0, 0.0, 0.0, 0.0, 0.0, 0.0, 0.0, 1.654608822951712E9, 0.0, 2022-06-07 15:33:42.951
75.0, 39332.051793581464, 14091.545533126062, -19379.901216018345, -22573.540815537075, -9343.073885807264, -9388.358520073714, 14664.085467348752, 2026.5432627848702, 0.058, 0.89, 0.55, 192.0, 0.0, 0.0, 0.0, 0.0, 0.0, 0.0, 0.0, 0.0, 0.0, 1.654608822951717E9, 0.0, 2022-06-07 15:33:42.951
76.0, 39218.01319337049, 14052.608794284915, -19421.117832793934, -22592.3833361129, -9386.793897961843, -9387.822078206787, 14680.022261145385, 2036.7803617454008, 0.058, 0.89, 0.55, 192.0, 0.0, 0.0, 0.0, 0.0, 0.0, 0.0, 0.0, 0.0, 0.0, 1.654608823011951E9, 0.0, 2022-06-07 15:33:43.011
77.0, 39104.19811060406, 14017.20363106771, -19445.36947552794, -22615.986778257702, -9416.991104720963, -9415.895869242653, 14674.724897709477, 2027.5043877964483, 0.052000000000000005, 0.78, 0.528, 192.0, 1.0, 160.0, 24.0, 96.0, 16.0, 128.0, 0.0, 0.0, 0.0, 1.654608823011956E9, 0.0, 2022-06-07 15:33:43.011
78.0, 39144.38654713471, 14043.82455871398, -19409.740794866182, -22606.241417675188, -9379.484877524957, -9440.840416054776, 14624.27701047385, 2014.8533004347446, 0.052000000000000005, 0.78, 0.528, 192.0, 0.0, 0.0, 0.0, 0.0, 0.0, 0.0, 0.0, 0.0, 0.0, 1.654608823011959E9, 0.0, 2022-06-07 15:33:43.011
79.0, 39261.12970842478, 14071.205445671732, -19385.22093119871, -22606.15201069737, -9374.120458855685, -9487.309692777359, 14607.51320213237, 2005.800843930345, 0.052000000000000005, 0.78, 0.528, 192.0, 0.0, 0.0, 0.0, 0.0, 0.0, 0.0, 0.0, 0.0, 0.0, 1.654608823011961E9, 0.0, 2022-06-07 15:33:43.011
80.0, 39317.29964224096, 14079.766163798115, -19381.55524510804, -22588.60589129995, -9369.225426819972, -9447.568291135824, 14637.956278080497, 1989.484070477971, 0.052000000000000005, 0.78, 0.528, 192.0, 0.0, 0.0, 0.0, 0.0, 0.0, 0.0, 0.0, 0.0, 0.0, 1.654608823011963E9, 0.0, 2022-06-07 15:33:43.011
81.0, 39221.50006550551, 14046.216195370698, -19415.328730980007, -22594.75262102516, -9392.113613142206, -9431.430331639092, 14681.139848368151, 2001.554012483837, 0.052000000000000005, 0.78, 0.528, 192.0, 0.0, 0.0, 0.0, 0.0, 0.0, 0.0, 0.0, 0.0, 0.0, 1.654608823011966E9, 0.0, 2022-06-07 15:33:43.011
82.0, 39111.82005546332, 14009.380520508352, -19429.075053820023, -22607.202542686766, -9409.167994161606, -9472.825762370321, 14668.689926706546, 2017.8931376806663, 0.052000000000000005, 0.78, 0.528, 192.0, 0.0, 0.0, 0.0, 0.0, 0.0, 0.0, 0.0, 0.0, 0.0, 1.654608823011981E9, 0.0, 2022-06-07 15:33:43.011
83.0, 39136.36227087525, 14009.268761786076, -19404.286969219087, -22608.3871851429, -9408.810366250322, -9510.399044799691, 14643.208938027496, 2002.515137495415, 0.052000000000000005, 0.78, 0.528, 192.0, 0.0, 0.0, 0.0, 0.0, 0.0, 0.0, 0.0, 0.0, 0.0, 1.654608823011983E9, 0.0, 2022-06-07 15:33:43.011
84.0, 39260.36974911329, 14051.290041362054, -19360.991640209155, -22583.688507519782, -9380.870685681188, -9505.436957530614, 14587.88837050061, 2010.2711928214067, 0.052000000000000005, 0.78, 0.528, 192.0, 0.0, 0.0, 0.0, 0.0, 0.0, 0.0, 0.0, 0.0, 0.0, 1.654608823011985E9, 0.0, 2022-06-07 15:33:43.011
85.0, 39304.223871734604, 14053.145236151844, -19350.911003459812, -22562.49905377615, -9325.281897220839, -9470.30001524687, 14644.527690950357, 2033.5393587993813, 0.052000000000000005, 0.78, 0.528, 192.0, 0.0, 0.0, 0.0, 0.0, 0.0, 0.0, 0.0, 0.0, 0.0, 1.654608823011987E9, 0.0, 2022-06-07 15:33:43.011
86.0, 39218.9072631487, 14028.021875384078, -19375.229701427186, -22559.302754319044, -9327.025333288353, -9446.16013123514, 14709.548915570846, 2075.8065075643667, 0.052000000000000005, 0.78, 0.528, 192.0, 0.0, 0.0, 0.0, 0.0, 0.0, 0.0, 0.0, 0.0, 0.0, 1.654608823011997E9, 0.0, 2022-06-07 15:33:43.011
87.0, 39127.04159343739, 14019.72937819116, -19382.78459105308, -22555.637068228374, -9339.139978783129, -9425.417712380615, 14674.479028520469, 2042.54711181487, 0.026000000000000002, 0.75, 0.47000000000000003, 192.0, 0.0, 208.0, 23.0, 112.0, 14.0, 176.0, 0.0, 0.0, 0.0, 1.654608823011999E9, 0.0, 2022-06-07 15:33:43.011
88.0, 39155.51771587345, 14045.366829081397, -19369.909986246825, -22565.293021833066, -9339.698772394511, -9484.560428209357, 14659.838635902242, 2052.538341586392, 0.026000000000000002, 0.75, 0.47000000000000003, 192.0, 0.0, 0.0, 0.0, 0.0, 0.0, 0.0, 0.0, 0.0, 0.0, 1.654608823012001E9, 0.0, 2022-06-07 15:33:43.012
89.0, 39279.74871155604, 14082.82835278849, -19341.098587643934, -22552.910155404825, -9315.894164549609, -9515.495242535502, 14715.807404018333, 2088.614057137258, 0.026000000000000002, 0.75, 0.47000000000000003, 192.0, 0.0, 0.0, 0.0, 0.0, 0.0, 0.0, 0.0, 0.0, 0.0, 1.654608823012004E9, 0.0, 2022-06-07 15:33:43.012
90.0, 39321.8817498543, 14093.534838382584, -19341.120939388387, -22540.92962037678, -9291.754280537878, -9488.40492825567, 14740.371971174714, 2058.282739911406, 0.026000000000000002, 0.75, 0.47000000000000003, 192.0, 0.0, 0.0, 0.0, 0.0, 0.0, 0.0, 0.0, 0.0, 0.0, 1.654608823012006E9, 0.0, 2022-06-07 15:33:43.012
91.0, 39228.585568497845, 14058.911986221312, -19390.048908001056, -22563.169606109812, -9316.788234327822, -9434.470168885013, 14758.745105116977, 2037.093286167775, 0.026000000000000002, 0.75, 0.47000000000000003, 192.0, 0.0, 0.0, 0.0, 0.0, 0.0, 0.0, 0.0, 0.0, 0.0, 1.654608823070753E9, 0.0, 2022-06-07 15:33:43.070
92.0, 39126.92983471511, 14041.790549968548, -19412.31124547854, -22593.724440780217, -9313.681341848534, -9462.365145965237, 14671.081563363263, 2035.483960566993, 0.026000000000000002, 0.75, 0.47000000000000003, 192.0, 0.0, 0.0, 0.0, 0.0, 0.0, 0.0, 0.0, 0.0, 0.0, 1.654608823070758E9, 0.0, 2022-06-07 15:33:43.070
93.0, 39139.04448020989, 14051.759427995614, -19393.133448735887, -22603.313339151544, -9307.55696386778, -9551.213330175082, 14550.471550282426, 2004.9291258965882, 0.026000000000000002, 0.75, 0.47000000000000003, 192.0, 0.0, 0.0, 0.0, 0.0, 0.0, 0.0, 0.0, 0.0, 0.0, 1.65460882307076E9, 0.0, 2022-06-07 15:33:43.070
94.0, 39265.95768522712, 14081.26373067662, -19357.147140162844, -22583.26382437513, -9286.412213613059, -9581.902275312219, 14556.484169540903, 2008.1030736092418, 0.026000000000000002, 0.75, 0.47000000000000003, 192.0, 0.0, 0.0, 0.0, 0.0, 0.0, 0.0, 0.0, 0.0, 0.0, 1.654608823070762E9, 0.0, 2022-06-07 15:33:43.070
95.0, 39316.87495909631, 14092.730175582192, -19357.147140162844, -22558.40868454083, -9274.208161140461, -9524.905326951186, 14676.893016921642, 2036.7803617454008, 0.026000000000000002, 0.75, 0.47000000000000003, 192.0, 0.0, 0.0, 0.0, 0.0, 0.0, 0.0, 0.0, 0.0, 0.0, 1.654608823070765E9, 0.0, 2022-06-07 15:33:43.070
96.0, 39239.00148141402, 14075.206407929232, -19384.34921316495, -22558.2745740741, -9313.837804059722, -9444.506102145446, 14658.743400423933, 2049.9455392295768, 0.026000000000000002, 0.75, 0.47000000000000003, 192.0, 0.0, 0.0, 0.0, 0.0, 0.0, 0.0, 0.0, 0.0, 0.0, 1.654608823070767E9, 0.0, 2022-06-07 15:33:43.070
97.0, 39133.97063421853, 14058.643765287849, -19407.751489609658, -22575.686583004783, -9337.351839226703, -9435.721866574511, 14605.41213815357, 2042.2341873924956, 0.034, 0.762, 0.43, 192.0, 1.0, 16.0, 23.0, 208.0, 13.0, 112.0, 0.0, 0.0, 0.0, 1.654608823070769E9, 0.0, 2022-06-07 15:33:43.070
98.0, 39138.55274183187, 14051.535910551062, -19407.639730887382, -22601.502847850665, -9345.08554280824, -9493.411719013659, 14629.999057054409, 2071.805545306867, 0.034, 0.762, 0.43, 192.0, 0.0, 0.0, 0.0, 0.0, 0.0, 0.0, 0.0, 0.0, 0.0, 1.654608823070771E9, 0.0, 2022-06-07 15:33:43.070
99.0, 39254.446536832635, 14088.975082513702, -19375.54262584956, -22595.534932081096, -9300.426757386536, -9521.306696093881, 14706.91140972512, 2068.0504522383753, 0.034, 0.762, 0.43, 192.0, 0.0, 0.0, 0.0, 0.0, 0.0, 0.0, 0.0, 0.0, 0.0, 1.654608823070774E9, 0.0, 2022-06-07 15:33:43.070
100.0, 39319.467761453125, 14105.202448988253, -19353.50380581663, -22552.396065282355, -9254.672736486524, -9459.63823314169, 14683.95616816952, 2018.5413382698703, 0.034, 0.762, 0.43, 192.0, 0.0, 0.0, 0.0, 0.0, 0.0, 0.0, 0.0, 0.0, 0.0, 1.654608823070776E9, 0.0, 2022-06-07 15:33:43.070
101.0, 39228.71967896458, 14071.138390438366, -19392.485248146684, -22560.28623107508, -9277.829143742221, -9411.894906985153, 14652.887243376643, 2033.5393587993813, 0.034, 0.762, 0.43, 192.0, 0.0, 0.0, 0.0, 0.0, 0.0, 0.0, 0.0, 0.0, 0.0, 1.654608823070778E9, 0.0, 2022-06-07 15:33:43.070
102.0, 39126.37104110373, 14034.97326790968, -19410.098422777464, -22576.647708016364, -9319.381036684637, -9394.661712010111, 14591.799925780288, 2026.900890696155, 0.034, 0.762, 0.43, 192.0, 0.0, 0.0, 0.0, 0.0, 0.0, 0.0, 0.0, 0.0, 0.0, 1.654608823070781E9, 0.0, 2022-06-07 15:33:43.070
103.0, 39137.636320309204, 14024.467948015685, -19387.70197483325, -22582.32505110801, -9283.17121066704, -9442.807369566843, 14624.701693618501, 2017.4461027915602, 0.034, 0.762, 0.43, 192.0, 0.0, 0.0, 0.0, 0.0, 0.0, 0.0, 0.0, 0.0, 0.0, 1.654608823070783E9, 0.0, 2022-06-07 15:33:43.070
104.0, 39220.47188526057, 14024.043264871034, -19379.65534682934, -22602.843952517982, -9241.708724702445, -9491.891800390697, 14643.253641516405, 1978.5317156948706, 0.034, 0.762, 0.43, 192.0, 0.0, 0.0, 0.0, 0.0, 0.0, 0.0, 0.0, 0.0, 0.0, 1.654608823070785E9, 0.0, 2022-06-07 15:33:43.070
105.0, 39273.400816130736, 14037.990753411146, -19382.851646286446, -22582.257995874643, -9220.139291303074, -9444.39434342317, 14595.577370593235, 2019.2342423479847, 0.034, 0.762, 0.43, 192.0, 0.0, 0.0, 0.0, 0.0, 0.0, 0.0, 0.0, 0.0, 0.0, 1.654608823070787E9, 0.0, 2022-06-07 15:33:43.070
106.0, 39208.35723976579, 14046.596175026438, -19396.665024359827, -22561.89555667586, -9194.077157268186, -9371.550008243325, 14596.65025432709, 2031.9747366875097, 0.034, 0.762, 0.43, 192.0, 0.0, 0.0, 0.0, 0.0, 0.0, 0.0, 0.0, 0.0, 0.0, 1.654608823129663E9, 0.0, 2022-06-07 15:33:43.129
107.0, 39107.46146529454, 14028.938296906746, -19412.60181815646, -22582.66032727484, -9195.91000031352, -9386.23510435046, 14572.532722059814, 2010.7852829438787, 0.024, 0.858, 0.462, 192.0, 0.0, 192.0, 26.0, 208.0, 14.0, 112.0, 0.0, 0.0, 0.0, 1.654608823129687E9, 0.0, 2022-06-07 15:33:43.129
108.0, 39108.35553507275, 14028.647724228827, -19413.451184445763, -22612.09757472248, -9199.620389893102, -9444.260232956438, 14616.520955147858, 2062.574274846825, 0.024, 0.858, 0.462, 192.0, 0.0, 0.0, 0.0, 0.0, 0.0, 0.0, 0.0, 0.0, 0.0, 1.65460882312969E9, 0.0, 2022-06-07 15:33:43.129
109.0, 39219.913091649185, 14057.526178065084, -19391.479419646195, -22603.24628391818, -9172.775944802279, -9506.554544753379, 14606.328559676238, 2034.6569460221467, 0.024, 0.858, 0.462, 192.0, 0.0, 0.0, 0.0, 0.0, 0.0, 0.0, 0.0, 0.0, 0.0, 1.654608823129692E9, 0.0, 2022-06-07 15:33:43.129
110.0, 39265.577705571384, 14078.425059130795, -19394.541608636573, -22579.955766195748, -9171.792468046246, -9454.318517961327, 14618.242039470917, 2037.0038791899538, 0.024, 0.858, 0.462, 192.0, 0.0, 0.0, 0.0, 0.0, 0.0, 0.0, 0.0, 0.0, 0.0, 1.654608823129694E9, 0.0, 2022-06-07 15:33:43.129
111.0, 39172.28152421493, 14016.555430478506, -19441.592030714994, -22599.670004805328, -9216.451253467949, -9460.554654664356, 14621.997132539409, 2079.248676210484, 0.024, 0.858, 0.462, 192.0, 0.0, 0.0, 0.0, 0.0, 0.0, 0.0, 0.0, 0.0, 0.0, 1.654608823129696E9, 0.0, 2022-06-07 15:33:43.129
112.0, 39092.41874127612, 14012.554468221006, -19447.783463929114, -22593.27740589111, -9243.49686425887, -9414.688875042066, 14585.273216399339, 2033.8522832217554, 0.024, 0.858, 0.462, 192.0, 0.0, 0.0, 0.0, 0.0, 0.0, 0.0, 0.0, 0.0, 0.0, 1.654608823129698E9, 0.0, 2022-06-07 15:33:43.129
113.0, 39124.359384102754, 14046.819692470992, -19416.89335309188, -22576.69241150527, -9245.664983471035, -9376.199171090027, 14586.659024555567, 2023.4363703055824, 0.024, 0.858, 0.462, 192.0, 0.0, 0.0, 0.0, 0.0, 0.0, 0.0, 0.0, 0.0, 0.0, 1.6546088231297E9, 0.0, 2022-06-07 15:33:43.129
114.0, 39240.58845527035, 14054.374582096885, -19394.251035958652, -22579.55343479555, -9210.30452374274, -9433.307878173337, 14619.56079239378, 2062.350757402272, 0.024, 0.858, 0.462, 192.0, 0.0, 0.0, 0.0, 0.0, 0.0, 0.0, 0.0, 0.0, 0.0, 1.654608823129702E9, 0.0, 2022-06-07 15:33:43.129
115.0, 39295.01495301902, 14025.362017793897, -19402.543533151573, -22565.56124276653, -9216.719474401412, -9399.556744045824, 14791.333948532814, 2069.257446438962, 0.024, 0.858, 0.462, 192.0, 0.0, 0.0, 0.0, 0.0, 0.0, 0.0, 0.0, 0.0, 0.0, 1.654608823129705E9, 0.0, 2022-06-07 15:33:43.129
116.0, 39201.02586758445, 13979.42918293824, -19443.55898422706, -22588.158856410846, -9240.166454335029, -9309.143937724106, 14698.976540443486, 1995.8543176477335, 0.058, 0.8320000000000001, 0.496, 192.0, 1.0, 208.0, 26.0, 0.0, 15.0, 128.0, 0.0, 0.0, 0.0, 1.654608823129707E9, 0.0, 2022-06-07 15:33:43.129
117.0, 39100.82299719131, 13974.221226480155, -19454.46663552125, -22611.136449710903, -9231.605736208647, -9317.011751772376, 14472.396906900038, 1955.7105846060022, 0.058, 0.8320000000000001, 0.496, 192.0, 0.0, 0.0, 0.0, 0.0, 0.0, 0.0, 0.0, 0.0, 0.0, 1.654608823129709E9, 0.0, 2022-06-07 15:33:43.129
118.0, 39115.35163108726, 13962.106580985377, -19446.978801128724, -22625.776842329127, -9257.399649310071, -9394.080566654273, 14488.132534996574, 1945.071154245276, 0.058, 0.8320000000000001, 0.496, 192.0, 0.0, 0.0, 0.0, 0.0, 0.0, 0.0, 0.0, 0.0, 0.0, 1.654608823129711E9, 0.0, 2022-06-07 15:33:43.129
119.0, 39233.03356564445, 13995.47773545715, -19422.503640950163, -22623.161688227858, -9246.335535804694, -9458.520645918923, 14531.204346561952, 1960.8514858307226, 0.058, 0.8320000000000001, 0.496, 192.0, 0.0, 0.0, 0.0, 0.0, 0.0, 0.0, 0.0, 0.0, 0.0, 1.654608823129713E9, 0.0, 2022-06-07 15:33:43.129
120.0, 39282.76619705751, 13975.517627658563, -19428.85153637547, -22608.09661246498, -9234.712628687934, -9402.95420920303, 14568.330594102215, 1976.8553348607225, 0.058, 0.8320000000000001, 0.496, 192.0, 0.0, 0.0, 0.0, 0.0, 0.0, 0.0, 0.0, 0.0, 0.0, 1.654608823129716E9, 0.0, 2022-06-07 15:33:43.129
121.0, 39199.505948961494, 13940.581851074918, -19463.69790598129, -22611.516429366642, -9242.06635261373, -9363.972766872976, 14568.665870269046, 1976.0730238047868, 0.058, 0.8320000000000001, 0.496, 192.0, 0.0, 0.0, 0.0, 0.0, 0.0, 0.0, 0.0, 0.0, 0.0, 1.654608823189945E9, 0.0, 2022-06-07 15:33:43.189
122.0, 39098.05138087885, 13926.768473001537, -19485.937891714322, -22633.264676721654, -9251.275271329318, -9384.536371771857, 14562.07210565473, 1980.4316139735718, 0.058, 0.8320000000000001, 0.496, 192.0, 0.0, 0.0, 0.0, 0.0, 0.0, 0.0, 0.0, 0.0, 0.0, 1.654608823189951E9, 0.0, 2022-06-07 15:33:43.189
123.0, 39118.59263403328, 13946.23684242211, -19459.89810942389, -22646.00517106118, -9238.892404901077, -9439.812235809832, 14560.954518431965, 1986.8242128877896, 0.058, 0.8320000000000001, 0.496, 192.0, 0.0, 0.0, 0.0, 0.0, 0.0, 0.0, 0.0, 0.0, 0.0, 1.654608823189953E9, 0.0, 2022-06-07 15:33:43.189
124.0, 39216.38151602525, 13974.668261369261, -19446.487062750704, -22664.825339892548, -9210.662151654024, -9506.934524409118, 14625.014618040876, 2017.3343440692836, 0.058, 0.8320000000000001, 0.496, 192.0, 0.0, 0.0, 0.0, 0.0, 0.0, 0.0, 0.0, 0.0, 0.0, 1.654608823189955E9, 0.0, 2022-06-07 15:33:43.189
125.0, 39289.427016905196, 14002.652645427304, -19438.529841724616, -22647.05570305058, -9189.182125232473, -9482.92875086412, 14647.723990407467, 2092.123281016741, 0.058, 0.8320000000000001, 0.496, 192.0, 0.0, 0.0, 0.0, 0.0, 0.0, 0.0, 0.0, 0.0, 0.0, 1.654608823189957E9, 0.0, 2022-06-07 15:33:43.189
126.0, 39225.724545207566, 14003.569066949973, -19480.081734667034, -22645.692246638806, -9218.30644825774, -9428.256383926439, 14675.216636087494, 1993.261515290918, 0.052000000000000005, 0.8300000000000001, 0.506, 192.0, 1.0, 160.0, 25.0, 240.0, 15.0, 208.0, 0.0, 0.0, 0.0, 1.65460882318996E9, 0.0, 2022-06-07 15:33:43.189
127.0, 39094.63156397719, 13956.786865805016, -19494.275092396154, -22656.555194444085, -9226.040151839275, -9414.264191897415, 14573.627957538123, 1934.0740959732648, 0.052000000000000005, 0.8300000000000001, 0.506, 192.0, 0.0, 0.0, 0.0, 0.0, 0.0, 0.0, 0.0, 0.0, 0.0, 1.654608823189962E9, 0.0, 2022-06-07 15:33:43.189
128.0, 39112.15533163015, 13965.90637754278, -19458.154673356377, -22650.11789204096, -9196.558200902726, -9447.59064288028, 14589.162419934562, 1963.3995846986277, 0.052000000000000005, 0.8300000000000001, 0.506, 192.0, 0.0, 0.0, 0.0, 0.0, 0.0, 0.0, 0.0, 0.0, 0.0, 1.654608823189973E9, 0.0, 2022-06-07 15:33:43.189
129.0, 39231.78186795495, 13994.382499978841, -19423.531821195105, -22636.885659323416, -9162.67295630848, -9515.607001257778, 14579.439411096504, 1993.0603495908201, 0.052000000000000005, 0.8300000000000001, 0.506, 192.0, 0.0, 0.0, 0.0, 0.0, 0.0, 0.0, 0.0, 0.0, 0.0, 1.654608823189976E9, 0.0, 2022-06-07 15:33:43.189
130.0, 39294.32204894091, 13991.633235410838, -19420.93901883829, -22624.547496384086, -9172.8653517801, -9503.112376107261, 14595.107983959673, 1996.2119455590184, 0.052000000000000005, 0.8300000000000001, 0.506, 192.0, 0.0, 0.0, 0.0, 0.0, 0.0, 0.0, 0.0, 0.0, 0.0, 1.654608823189978E9, 0.0, 2022-06-07 15:33:43.189
131.0, 39224.1599230957, 13969.795581078004, -19452.253812820174, -22619.160725970356, -9223.8273291382, -9416.834642509775, 14598.818373539254, 1964.29365447684, 0.052000000000000005, 0.8300000000000001, 0.506, 192.0, 0.0, 0.0, 0.0, 0.0, 0.0, 0.0, 0.0, 0.0, 0.0, 1.65460882318998E9, 0.0, 2022-06-07 15:33:43.189
132.0, 39115.21752062053, 13949.902528512781, -19469.95639442878, -22646.854537350482, -9246.491998015881, -9450.183445237095, 14591.352890891183, 1967.5346574228595, 0.052000000000000005, 0.8300000000000001, 0.506, 192.0, 0.0, 0.0, 0.0, 0.0, 0.0, 0.0, 0.0, 0.0, 0.0, 1.654608823189982E9, 0.0, 2022-06-07 15:33:43.189
133.0, 39113.854064208754, 13943.576984831929, -19460.009868146168, -22670.25681379519, -9245.106189859653, -9508.588553498812, 14620.432510427538, 1992.8591838907223, 0.052000000000000005, 0.8300000000000001, 0.506, 192.0, 0.0, 0.0, 0.0, 0.0, 0.0, 0.0, 0.0, 0.0, 0.0, 1.654608823189984E9, 0.0, 2022-06-07 15:33:43.189
134.0, 39225.724545207566, 13980.032680038534, -19428.292742764086, -22670.68149693984, -9231.002239108353, -9547.234719662038, 14631.027237299353, 2014.518024267915, 0.052000000000000005, 0.8300000000000001, 0.506, 192.0, 0.0, 0.0, 0.0, 0.0, 0.0, 0.0, 0.0, 0.0, 0.0, 1.654608823189987E9, 0.0, 2022-06-07 15:33:43.189
135.0, 39295.10435999684, 13971.650775867794, -19420.067300804534, -22653.33654324252, -9248.168378850029, -9496.943294637596, 14583.038041953809, 1981.683311663069, 0.052000000000000005, 0.8300000000000001, 0.506, 192.0, 0.0, 0.0, 0.0, 0.0, 0.0, 0.0, 0.0, 0.0, 0.0, 1.654608823189989E9, 0.0, 2022-06-07 15:33:43.189
136.0, 39226.01511788549, 13943.755798787572, -19441.413216759353, -22646.899240839393, -9285.607550812669, -9403.177726647584, 14634.04472280082, 1979.4481372175383, 0.06, 0.754, 0.466, 192.0, 1.0, 224.0, 23.0, 144.0, 14.0, 144.0, 0.0, 0.0, 0.0, 1.654608823250231E9, 0.0, 2022-06-07 15:33:43.250
137.0, 39130.0367271944, 13912.575115272417, -19464.390810059405, -22667.1499213159, -9300.292646919805, -9407.111633671717, 14607.535553876825, 2008.1254253536972, 0.06, 0.754, 0.466, 192.0, 0.0, 0.0, 0.0, 0.0, 0.0, 0.0, 0.0, 0.0, 0.0, 1.654608823250237E9, 0.0, 2022-06-07 15:33:43.250
138.0, 39147.60519833627, 13904.081452379402, -19468.391772316907, -22693.39086930643, -9337.70946713799, -9477.564332194845, 14576.064297683752, 2060.4955626124815, 0.06, 0.754, 0.466, 192.0, 0.0, 0.0, 0.0, 0.0, 0.0, 0.0, 0.0, 0.0, 0.0, 1.654608823250239E9, 0.0, 2022-06-07 15:33:43.250
139.0, 39245.41643207269, 13941.699438297683, -19423.710635150746, -22665.942927115313, -9328.634658889134, -9495.825707414831, 14613.436414413025, 2014.0262858898982, 0.06, 0.754, 0.466, 192.0, 0.0, 0.0, 0.0, 0.0, 0.0, 0.0, 0.0, 0.0, 0.0, 1.654608823250241E9, 0.0, 2022-06-07 15:33:43.250
140.0, 39298.278307709494, 13967.67216535475, -19410.634864644395, -22636.371569200943, -9337.307135737794, -9425.90945075863, 14649.981516597452, 2008.036018375876, 0.06, 0.754, 0.466, 192.0, 0.0, 0.0, 0.0, 0.0, 0.0, 0.0, 0.0, 0.0, 0.0, 1.654608823250244E9, 0.0, 2022-06-07 15:33:43.250
141.0, 39238.84501920283, 13951.08717096891, -19448.52107149614, -22640.596048902997, -9385.408089805615, -9375.461563523002, 14593.610417081169, 1947.6416048576361, 0.06, 0.754, 0.466, 192.0, 0.0, 0.0, 0.0, 0.0, 0.0, 0.0, 0.0, 0.0, 0.0, 1.654608823250246E9, 0.0, 2022-06-07 15:33:43.250
142.0, 39141.27965465542, 13934.032789949511, -19495.415031363373, -22679.510435999684, -9459.34766046377, -9433.039657239873, 14488.691328607956, 1870.9080661425671, 0.06, 0.754, 0.466, 192.0, 0.0, 0.0, 0.0, 0.0, 0.0, 0.0, 0.0, 0.0, 0.0, 1.654608823250248E9, 0.0, 2022-06-07 15:33:43.250
143.0, 39140.34088138829, 13923.818042733437, -19490.67646153885, -22700.2081513653, -9450.071686514817, -9508.74501571, 14520.073177823208, 1924.6640115575806, 0.06, 0.754, 0.466, 192.0, 0.0, 0.0, 0.0, 0.0, 0.0, 0.0, 0.0, 0.0, 0.0, 1.654608823250251E9, 0.0, 2022-06-07 15:33:43.250
144.0, 39254.82651648838, 13948.963755245657, -19451.829129675523, -22673.855444652494, -9389.274941596383, -9482.481715975013, 14683.039746646851, 2035.5957192892695, 0.06, 0.754, 0.466, 192.0, 0.0, 0.0, 0.0, 0.0, 0.0, 0.0, 0.0, 0.0, 0.0, 1.654608823250253E9, 0.0, 2022-06-07 15:33:43.250
145.0, 39336.54449421698, 13978.937444560224, -19446.263545306152, -22648.262697251164, -9379.037842635851, -9393.544124787346, 14689.208828116516, 2046.1457426721745, 0.06, 0.754, 0.466, 192.0, 0.0, 0.0, 0.0, 0.0, 0.0, 0.0, 0.0, 0.0, 0.0, 1.654608823250255E9, 0.0, 2022-06-07 15:33:43.250
146.0, 39256.88287697826, 13930.344752114386, -19500.801801777103, -22679.555139488595, -9411.134947673672, -9407.424558094091, 14637.732760635945, 2001.2410880614625, 0.10400000000000001, 0.802, 0.462, 192.0, 3.0, 64.0, 25.0, 16.0, 14.0, 112.0, 0.0, 0.0, 0.0, 1.654608823250258E9, 0.0, 2022-06-07 15:33:43.250
147.0, 39147.69460531409, 13886.55768472644, -19552.30022100213, -22728.796032523638, -9435.163072963129, -9409.05623543933, 14567.861207468655, 1930.0284302268542, 0.10400000000000001, 0.802, 0.462, 192.0, 0.0, 0.0, 0.0, 0.0, 0.0, 0.0, 0.0, 0.0, 0.0, 1.65460882325026E9, 0.0, 2022-06-07 15:33:43.250
148.0, 39146.77818379142, 13872.967824097614, -19562.02322984019, -22764.536471907675, -9431.519738616913, -9445.44487541257, 14505.231619504884, 1868.9411126305001, 0.10400000000000001, 0.802, 0.462, 192.0, 0.0, 0.0, 0.0, 0.0, 0.0, 0.0, 0.0, 0.0, 0.0, 1.654608823250262E9, 0.0, 2022-06-07 15:33:43.250
149.0, 39234.3076150784, 13867.625757172795, -19554.378933236472, -22787.245844274265, -9404.228258636984, -9480.313596762848, 14507.377386972594, 1907.3861130936282, 0.10400000000000001, 0.802, 0.462, 192.0, 0.0, 0.0, 0.0, 0.0, 0.0, 0.0, 0.0, 0.0, 0.0, 1.654608823250264E9, 0.0, 2022-06-07 15:33:43.250
150.0, 39299.73117109909, 13862.395448970254, -19556.18942453735, -22780.74148663777, -9382.94939791553, -9467.483695445502, 14543.922489157021, 1874.1267173441313, 0.10400000000000001, 0.802, 0.462, 192.0, 0.0, 0.0, 0.0, 0.0, 0.0, 0.0, 0.0, 0.0, 0.0, 1.654608823250276E9, 0.0, 2022-06-07 15:33:43.250
151.0, 39232.027737143966, 13855.824036100394, -19587.906549919433, -22781.903777349446, -9394.080566654273, -9432.704381073045, 14514.418186476016, 1850.813847877246, 0.10400000000000001, 0.802, 0.462, 192.0, 0.0, 0.0, 0.0, 0.0, 0.0, 0.0, 0.0, 0.0, 0.0, 1.654608823310477E9, 0.0, 2022-06-07 15:33:43.310
152.0, 39102.342915814275, 13819.25658217151, -19647.384541915006, -22827.434280804908, -9449.088209758784, -9371.460601265502, 14493.675767621491, 1834.36296395814, 0.10400000000000001, 0.802, 0.462, 192.0, 0.0, 0.0, 0.0, 0.0, 0.0, 0.0, 0.0, 0.0, 0.0, 1.654608823310483E9, 0.0, 2022-06-07 15:33:43.310
153.0, 39084.17094757211, 13777.592930506818, -19674.720725383846, -22872.182473204433, -9466.20964601155, -9409.324456372793, 14468.127723709074, 1784.6973877784478, 0.10400000000000001, 0.802, 0.462, 192.0, 0.0, 0.0, 0.0, 0.0, 0.0, 0.0, 0.0, 0.0, 0.0, 1.654608823310486E9, 0.0, 2022-06-07 15:33:43.310
154.0, 39192.35339073579, 13750.256747037978, -19673.446675949894, -22886.599348378106, -9450.96575629303, -9470.277663502415, 14489.227770474885, 1747.8393611716465, 0.10400000000000001, 0.802, 0.462, 192.0, 0.0, 0.0, 0.0, 0.0, 0.0, 0.0, 0.0, 0.0, 0.0, 1.654608823310488E9, 0.0, 2022-06-07 15:33:43.310
155.0, 39263.09666193684, 13736.599831175785, -19688.399992990493, -22881.05611575319, -9475.396212982681, -9444.148474234162, 14405.65459795649, 1697.0338460247335, 0.10400000000000001, 0.802, 0.462, 192.0, 0.0, 0.0, 0.0, 0.0, 0.0, 0.0, 0.0, 0.0, 0.0, 1.65460882331049E9, 0.0, 2022-06-07 15:33:43.310
156.0, 39150.06389022635, 13633.714751448006, -19781.517360391303, -22945.20562233992, -9562.568016358378, -9465.047355299874, 14328.228155163308, 1644.4848948103065, 0.076, 0.8160000000000001, 0.47200000000000003, 192.0, 2.0, 96.0, 25.0, 128.0, 14.0, 192.0, 0.0, 0.0, 0.0, 1.654608823310493E9, 0.0, 2022-06-07 15:33:43.310
157.0, 38985.89032720212, 13526.560488529265, -19865.895195710087, -23029.65051289207, -9638.42983703969, -9568.982967017051, 14271.812352158113, 1604.117644324022, 0.076, 0.8160000000000001, 0.47200000000000003, 192.0, 0.0, 0.0, 0.0, 0.0, 0.0, 0.0, 0.0, 0.0, 0.0, 1.654608823310495E9, 0.0, 2022-06-07 15:33:43.310
158.0, 38937.051765567274, 13495.603322458664, -19892.09144021171, -23070.777722689836, -9659.306366360946, -9605.818641879398, 14287.704442465836, 1535.3189748905868, 0.076, 0.8160000000000001, 0.47200000000000003, 192.0, 0.0, 0.0, 0.0, 0.0, 0.0, 0.0, 0.0, 0.0, 0.0, 1.654608823310497E9, 0.0, 2022-06-07 15:33:43.310
159.0, 39014.79113278283, 13494.753956169363, -19868.420942833538, -23082.467685039963, -9623.901203143741, -9640.463845785123, 14293.11356462402, 1535.3189748905868, 0.076, 0.8160000000000001, 0.47200000000000003, 192.0, 0.0, 0.0, 0.0, 0.0, 0.0, 0.0, 0.0, 0.0, 0.0, 1.6546088233105E9, 0.0, 2022-06-07 15:33:43.310
160.0, 39044.58600814176, 13479.375955984111, -19859.21202411795, -23077.103266370686, -9582.371661945781, -9640.732066718587, 14235.736636607247, 1545.4219633843857, 0.076, 0.8160000000000001, 0.47200000000000003, 192.0, 0.0, 0.0, 0.0, 0.0, 0.0, 0.0, 0.0, 0.0, 0.0, 1.654608823310502E9, 0.0, 2022-06-07 15:33:43.310
161.0, 38915.549387401275, 13423.831871012673, -19901.255655438385, -23091.967176433467, -9608.076168069383, -9610.624266937288, 14126.660123665348, 1540.8175040265924, 0.076, 0.8160000000000001, 0.47200000000000003, 192.0, 0.0, 0.0, 0.0, 0.0, 0.0, 0.0, 0.0, 0.0, 0.0, 1.654608823310504E9, 0.0, 2022-06-07 15:33:43.310
162.0, 38776.275667700254, 13393.075870642171, -19930.357626719193, -23117.381109879152, -9644.755380720542, -9673.656186301254, 14165.66391773986, 1516.2752886146652, 0.076, 0.8160000000000001, 0.47200000000000003, 192.0, 0.0, 0.0, 0.0, 0.0, 0.0, 0.0, 0.0, 0.0, 0.0, 1.654608823310506E9, 0.0, 2022-06-07 15:33:43.310
163.0, 38755.91322850147, 13389.633701996054, -19907.26827469686, -23130.90391527461, -9613.641752438754, -9755.240053563126, 14168.189664863308, 1545.1984459398325, 0.076, 0.8160000000000001, 0.47200000000000003, 192.0, 0.0, 0.0, 0.0, 0.0, 0.0, 0.0, 0.0, 0.0, 0.0, 1.654608823310509E9, 0.0, 2022-06-07 15:33:43.310
164.0, 38839.821677186694, 13418.556859321221, -19864.844663720687, -23135.10604323221, -9582.684586368154, -9859.399182724856, 14162.624080493937, 1576.7144056218156, 0.076, 0.8160000000000001, 0.47200000000000003, 192.0, 0.0, 0.0, 0.0, 0.0, 0.0, 0.0, 0.0, 0.0, 0.0, 1.654608823310511E9, 0.0, 2022-06-07 15:33:43.310
165.0, 38898.204433703955, 13425.932934991471, -19825.237372545886, -23093.24122586742, -9526.179376385138, -9838.701467359242, 14189.222656395754, 1658.4547350948735, 0.076, 0.8160000000000001, 0.47200000000000003, 192.0, 0.0, 0.0, 0.0, 0.0, 0.0, 0.0, 0.0, 0.0, 0.0, 1.654608823310513E9, 0.0, 2022-06-07 15:33:43.310
166.0, 38809.624470427574, 13368.801876163707, -19844.035189632796, -23087.496827542403, -9536.08119917884, -9732.329515496434, 14203.706586802791, 1574.5239346651954, 0.03, 0.758, 0.496, 192.0, 0.0, 240.0, 23.0, 176.0, 15.0, 128.0, 0.0, 0.0, 0.0, 1.654608823369969E9, 0.0, 2022-06-07 15:33:43.369
167.0, 38679.805538631146, 13319.762148828764, -19867.236300377404, -23119.236304668942, -9571.821638562875, -9771.512123526589, 14182.271263870152, 1573.0710712756004, 0.03, 0.758, 0.496, 192.0, 0.0, 0.0, 0.0, 0.0, 0.0, 0.0, 0.0, 0.0, 0.0, 1.65460882336998E9, 0.0, 2022-06-07 15:33:43.369
168.0, 38672.83179436109, 13295.39874737248, -19859.189672373497, -23133.429662398063, -9575.241455464537, -9855.241758256168, 14205.360615892485, 1622.1331503549995, 0.03, 0.758, 0.496, 192.0, 0.0, 0.0, 0.0, 0.0, 0.0, 0.0, 0.0, 0.0, 0.0, 1.654608823369984E9, 0.0, 2022-06-07 15:33:43.369
169.0, 38781.90830730299, 13328.993419288805, -19814.508535207337, -23121.650293070114, -9533.667210777667, -9875.783011410596, 14219.688084088337, 1648.7764297457254, 0.03, 0.758, 0.496, 192.0, 0.0, 0.0, 0.0, 0.0, 0.0, 0.0, 0.0, 0.0, 0.0, 1.654608823369988E9, 0.0, 2022-06-07 15:33:43.369
170.0, 38847.577732512684, 13350.69696315491, -19788.424049427995, -23092.61537702267, -9500.541925494901, -9800.949370974227, 14233.546165650627, 1652.5315228142172, 0.03, 0.758, 0.496, 192.0, 0.0, 0.0, 0.0, 0.0, 0.0, 0.0, 0.0, 0.0, 0.0, 1.654608823369991E9, 0.0, 2022-06-07 15:33:43.369
171.0, 38781.930659047444, 13311.983741758317, -19806.908942092534, -23092.682432256035, -9507.78389069842, -9739.146797555304, 14251.516968192695, 1664.2214851643428, 0.03, 0.758, 0.496, 192.0, 0.0, 0.0, 0.0, 0.0, 0.0, 0.0, 0.0, 0.0, 0.0, 1.654608823370011E9, 0.0, 2022-06-07 15:33:43.370
172.0, 38674.061140306134, 13273.516389550734, -19841.64355297608, -23121.985569236946, -9551.503902853, -9740.197329544704, 14271.231206802275, 1672.6033893350827, 0.03, 0.758, 0.496, 192.0, 0.0, 0.0, 0.0, 0.0, 0.0, 0.0, 0.0, 0.0, 0.0, 1.654608823370016E9, 0.0, 2022-06-07 15:33:43.370
173.0, 38685.192309044876, 13288.067375191138, -19829.573610970212, -23131.86504028619, -9563.12680996976, -9806.067920454494, 14287.25740757673, 1695.469223912862, 0.03, 0.758, 0.496, 192.0, 0.0, 0.0, 0.0, 0.0, 0.0, 0.0, 0.0, 0.0, 0.0, 1.65460882337002E9, 0.0, 2022-06-07 15:33:43.370
174.0, 38821.7614676668, 13325.327733198135, -19773.49308413185, -23101.62313003816, -9515.495242535502, -9824.195185207747, 14284.35168079754, 1749.4039832835178, 0.03, 0.758, 0.496, 192.0, 0.0, 0.0, 0.0, 0.0, 0.0, 0.0, 0.0, 0.0, 0.0, 1.654608823370024E9, 0.0, 2022-06-07 15:33:43.370
175.0, 38912.4871984109, 13348.417085220468, -19739.18315639295, -23040.669922908535, -9479.374823495726, -9736.464588220668, 14269.241901545753, 1753.0026141408223, 0.03, 0.758, 0.496, 192.0, 0.0, 0.0, 0.0, 0.0, 0.0, 0.0, 0.0, 0.0, 0.0, 1.654608823370028E9, 0.0, 2022-06-07 15:33:43.370
176.0, 38854.506773293826, 13321.952619785383, -19756.8633862571, -23014.674844107016, -9486.840306143798, -9646.05178189895, 14266.514988722205, 1784.1832976559756, 0.048, 0.742, 0.518, 192.0, 1.0, 128.0, 23.0, 48.0, 16.0, 48.0, 0.0, 0.0, 0.0, 1.654608823370032E9, 0.0, 2022-06-07 15:33:43.370
177.0, 38716.90943442696, 13278.992566942283, -19796.135401265074, -23033.338550727196, -9530.381504342737, -9652.220863368615, 14296.466326292317, 1726.7393144058365, 0.048, 0.742, 0.518, 192.0, 0.0, 0.0, 0.0, 0.0, 0.0, 0.0, 0.0, 0.0, 0.0, 1.654608823370048E9, 0.0, 2022-06-07 15:33:43.370
178.0, 38721.2903763402, 13277.070316919127, -19785.00423252633, -23024.59901864517, -9542.764370770976, -9686.35197715187, 14350.088161240597, 1736.171750565976, 0.048, 0.742, 0.518, 192.0, 0.0, 0.0, 0.0, 0.0, 0.0, 0.0, 0.0, 0.0, 0.0, 1.654608823370052E9, 0.0, 2022-06-07 15:33:43.370
179.0, 38860.69820650795, 13321.706750596375, -19742.938249461444, -22990.356146139642, -9525.68763800712, -9689.995311498084, 14340.633373336002, 1756.981224653867, 0.048, 0.742, 0.518, 192.0, 0.0, 0.0, 0.0, 0.0, 0.0, 0.0, 0.0, 0.0, 0.0, 1.654608823370074E9, 0.0, 2022-06-07 15:33:43.370
180.0, 38946.55125696078, 13346.986573575328, -19722.598162007114, -22950.34652356464, -9521.418454816157, -9626.941040389662, 14323.377826616506, 1742.0502593577219, 0.048, 0.742, 0.518, 192.0, 0.0, 0.0, 0.0, 0.0, 0.0, 0.0, 0.0, 0.0, 0.0, 1.654608823370078E9, 0.0, 2022-06-07 15:33:43.370
181.0, 38866.196735643956, 13322.958448285872, -19742.178290149965, -22947.597258996637, -9553.113228453783, -9570.480533895558, 14316.44878583536, 1751.169771095487, 0.048, 0.742, 0.518, 192.0, 0.0, 0.0, 0.0, 0.0, 0.0, 0.0, 0.0, 0.0, 0.0, 1.654608823429587E9, 0.0, 2022-06-07 15:33:43.429
182.0, 38757.611961080074, 13309.122718468037, -19755.34346763414, -22957.499081790338, -9587.244342237038, -9577.27546420997, 14323.176660916408, 1775.264951618308, 0.048, 0.742, 0.518, 192.0, 0.0, 0.0, 0.0, 0.0, 0.0, 0.0, 0.0, 0.0, 0.0, 1.654608823429594E9, 0.0, 2022-06-07 15:33:43.429
183.0, 38758.32721690264, 13328.456977421878, -19751.700133287923, -22970.150169152043, -9611.965371604607, -9593.94986557363, 14376.507923186771, 1756.7800589537692, 0.048, 0.742, 0.518, 192.0, 0.0, 0.0, 0.0, 0.0, 0.0, 0.0, 0.0, 0.0, 0.0, 1.654608823429597E9, 0.0, 2022-06-07 15:33:43.429
184.0, 38874.89156423707, 13375.596806478121, -19721.10059512861, -22957.677895745983, -9602.28706625546, -9615.631057695276, 14374.876245841533, 1730.4050004965068, 0.048, 0.742, 0.518, 192.0, 0.0, 0.0, 0.0, 0.0, 0.0, 0.0, 0.0, 0.0, 0.0, 1.654608823429601E9, 0.0, 2022-06-07 15:33:43.429
185.0, 38965.3490740477, 13432.32553390569, -19685.807190633677, -22912.639130668536, -9564.289100681437, -9565.630205348756, 14311.93373345539, 1744.9112826480011, 0.048, 0.742, 0.518, 192.0, 0.0, 0.0, 0.0, 0.0, 0.0, 0.0, 0.0, 0.0, 0.0, 1.654608823429604E9, 0.0, 2022-06-07 15:33:43.429
186.0, 38905.35699192965, 13434.828929284684, -19694.099687826598, -22888.253377467798, -9577.119001998783, -9481.297073518881, 14351.40691416346, 1816.7721410718134, 0.09, 0.8260000000000001, 0.532, 192.0, 2.0, 208.0, 25.0, 208.0, 16.0, 160.0, 0.0, 0.0, 0.0, 1.654608823429607E9, 0.0, 2022-06-07 15:33:43.429
187.0, 38792.659496386, 13418.556859321221, -19716.406728792994, -22899.406897950998, -9600.85655461032, -9496.40685277067, 14362.493379413294, 1878.5076592573714, 0.09, 0.8260000000000001, 0.532, 192.0, 0.0, 0.0, 0.0, 0.0, 0.0, 0.0, 0.0, 0.0, 0.0, 1.654608823429611E9, 0.0, 2022-06-07 15:33:43.429
188.0, 38797.06279004369, 13443.143778222058, -19709.924722900956, -22905.33011023165, -9587.601970148322, -9517.685713492121, 14371.501132428783, 1826.2492807208635, 0.09, 0.8260000000000001, 0.532, 192.0, 0.0, 0.0, 0.0, 0.0, 0.0, 0.0, 0.0, 0.0, 0.0, 1.654608823429614E9, 0.0, 2022-06-07 15:33:43.429
189.0, 38950.66397794056, 13500.520706238833, -19660.08033276562, -22874.171778460954, -9539.545719569413, -9534.293059622414, 14431.157938379996, 1842.4319437065058, 0.09, 0.8260000000000001, 0.532, 192.0, 0.0, 0.0, 0.0, 0.0, 0.0, 0.0, 0.0, 0.0, 0.0, 1.654608823429617E9, 0.0, 2022-06-07 15:33:43.429
190.0, 39028.26923468939, 13522.447767549487, -19645.775216314225, -22849.51780432675, -9490.461288745557, -9515.003504157485, 14471.949872010931, 1859.5086764703606, 0.09, 0.8260000000000001, 0.532, 192.0, 0.0, 0.0, 0.0, 0.0, 0.0, 0.0, 0.0, 0.0, 0.0, 1.65460882342962E9, 0.0, 2022-06-07 15:33:43.429
191.0, 38945.3442627602, 13496.229171303412, -19668.21636774735, -22853.9434497289, -9498.999655127485, -9449.758762092444, 14394.27756002874, 1857.072336324732, 0.09, 0.8260000000000001, 0.532, 192.0, 0.0, 0.0, 0.0, 0.0, 0.0, 0.0, 0.0, 0.0, 0.0, 1.654608823429624E9, 0.0, 2022-06-07 15:33:43.429
192.0, 38817.02289784228, 13468.267138989824, -19714.596237492115, -22891.650842625004, -9529.912117709175, -9457.894797074176, 14353.55268163117, 1818.1355974835872, 0.09, 0.8260000000000001, 0.532, 192.0, 0.0, 0.0, 0.0, 0.0, 0.0, 0.0, 0.0, 0.0, 0.0, 1.654608823429637E9, 0.0, 2022-06-07 15:33:43.429
193.0, 38839.911084164516, 13498.598456215675, -19688.310586012674, -22887.71693560087, -9516.948105925096, -9489.477811989524, 14387.147353547498, 1822.5612428857378, 0.09, 0.8260000000000001, 0.532, 192.0, 0.0, 0.0, 0.0, 0.0, 0.0, 0.0, 0.0, 0.0, 0.0, 1.65460882342964E9, 0.0, 2022-06-07 15:33:43.429
194.0, 38953.145021575096, 13526.471081551443, -19661.46614092185, -22883.2018832209, -9508.230925587526, -9542.98788821553, 14417.165746350975, 1838.4756849379164, 0.09, 0.8260000000000001, 0.532, 192.0, 0.0, 0.0, 0.0, 0.0, 0.0, 0.0, 0.0, 0.0, 0.0, 1.654608823429644E9, 0.0, 2022-06-07 15:33:43.429
195.0, 39028.358641667204, 13530.15911938657, -19650.625544861025, -22859.061999209167, -9482.54877120838, -9526.045265918407, 14464.618499829592, 1850.165647288042, 0.09, 0.8260000000000001, 0.532, 192.0, 0.0, 0.0, 0.0, 0.0, 0.0, 0.0, 0.0, 0.0, 0.0, 1.654608823429647E9, 0.0, 2022-06-07 15:33:43.429
196.0, 38951.111012829664, 13492.362319512644, -19674.139580028008, -22860.291345154208, -9493.724643436033, -9494.238733558504, 14443.429046085961, 1844.7118216409472, 0.092, 0.838, 0.532, 192.0, 2.0, 224.0, 26.0, 48.0, 16.0, 160.0, 0.0, 0.0, 0.0, 1.654608823489905E9, 0.0, 2022-06-07 15:33:43.489
197.0, 38818.58751995415, 13444.976621267393, -19706.773126932756, -22891.919063558467, -9535.36594335627, -9507.40391104268, 14403.218257810862, 1817.3309346831961, 0.092, 0.838, 0.532, 192.0, 0.0, 0.0, 0.0, 0.0, 0.0, 0.0, 0.0, 0.0, 0.0, 1.654608823489912E9, 0.0, 2022-06-07 15:33:43.489
198.0, 38815.32416526367, 13438.047580486249, -19705.901408899, -22910.403956223006, -9541.803245759398, -9558.27648142296, 14399.865496142567, 1804.2551641768414, 0.092, 0.838, 0.532, 192.0, 0.0, 0.0, 0.0, 0.0, 0.0, 0.0, 0.0, 0.0, 0.0, 1.654608823489916E9, 0.0, 2022-06-07 15:33:43.489
199.0, 38951.960379118966, 13467.395420956067, -19674.698373639392, -22897.931682816947, -9507.40391104268, -9599.023711564983, 14373.155161518474, 1817.397989916562, 0.092, 0.838, 0.532, 192.0, 0.0, 0.0, 0.0, 0.0, 0.0, 0.0, 0.0, 0.0, 0.0, 1.654608823489919E9, 0.0, 2022-06-07 15:33:43.489
200.0, 39038.0145952719, 13485.165057798036, -19650.37967567202, -22866.259260923776, -9454.20675923905, -9558.969385501074, 14434.33188609265, 1839.369754716129, 0.092, 0.838, 0.532, 192.0, 0.0, 0.0, 0.0, 0.0, 0.0, 0.0, 0.0, 0.0, 0.0, 1.654608823489923E9, 0.0, 2022-06-07 15:33:43.489
201.0, 38963.85150716919, 13469.317670979222, -19667.45640843587, -22858.27968815323, -9468.333061734804, -9509.46027153257, 14466.428991130471, 1844.55535942976, 0.092, 0.838, 0.532, 192.0, 0.0, 0.0, 0.0, 0.0, 0.0, 0.0, 0.0, 0.0, 0.0, 1.654608823489938E9, 0.0, 2022-06-07 15:33:43.489
202.0, 38824.95776712391, 13435.588888596165, -19695.530199471737, -22873.188301704922, -9502.307713306871, -9497.680902204622, 14491.373537942594, 1844.5330076853047, 0.092, 0.838, 0.532, 192.0, 0.0, 0.0, 0.0, 0.0, 0.0, 0.0, 0.0, 0.0, 0.0, 1.654608823489942E9, 0.0, 2022-06-07 15:33:43.489
203.0, 38813.468970473885, 13430.4703391159, -19693.76441165977, -22883.917139043468, -9504.788756941409, -9548.151141184706, 14447.362953110094, 1829.2891179667854, 0.092, 0.838, 0.532, 192.0, 0.0, 0.0, 0.0, 0.0, 0.0, 0.0, 0.0, 0.0, 0.0, 1.654608823489945E9, 0.0, 2022-06-07 15:33:43.489
204.0, 38936.157695789065, 13455.548996394755, -19671.300908482186, -22879.759714574782, -9489.366053267247, -9592.072319039384, 14399.977254864843, 1801.0141612308219, 0.092, 0.838, 0.532, 192.0, 0.0, 0.0, 0.0, 0.0, 0.0, 0.0, 0.0, 0.0, 0.0, 1.654608823489948E9, 0.0, 2022-06-07 15:33:43.489
205.0, 39017.78626653985, 13453.693801604963, -19668.931623569923, -22867.265089424265, -9491.087137590306, -9572.358080429804, 14399.440812997917, 1798.1531379405426, 0.08600000000000001, 0.836, 0.516, 192.0, 2.0, 176.0, 26.0, 32.0, 16.0, 32.0, 0.0, 0.0, 0.0, 1.654608823489952E9, 0.0, 2022-06-07 15:33:43.489
206.0, 38958.24121931091, 13431.789092038762, -19683.057926065674, -22853.98815321781, -9487.868486388741, -9491.601227712777, 14450.983935711854, 1828.752676099858, 0.08600000000000001, 0.836, 0.516, 192.0, 0.0, 0.0, 0.0, 0.0, 0.0, 0.0, 0.0, 0.0, 0.0, 1.654608823489955E9, 0.0, 2022-06-07 15:33:43.489
207.0, 38841.7662789543, 13406.822193482185, -19707.46603101087, -22876.58576686213, -9524.994733929007, -9499.290227805404, 14396.222161796351, 1816.8391963051793, 0.08600000000000001, 0.836, 0.516, 192.0, 0.0, 0.0, 0.0, 0.0, 0.0, 0.0, 0.0, 0.0, 0.0, 1.654608823489959E9, 0.0, 2022-06-07 15:33:43.489
208.0, 38816.50880771981, 13385.051594382716, -19718.127813116054, -22912.080337057156, -9540.953879470097, -9571.285196695948, 14392.936455361421, 1811.497129380361, 0.08600000000000001, 0.836, 0.516, 192.0, 0.0, 0.0, 0.0, 0.0, 0.0, 0.0, 0.0, 0.0, 0.0, 1.654608823489962E9, 0.0, 2022-06-07 15:33:43.489
209.0, 38943.93610285951, 13425.664714058008, -19671.45737069337, -22878.463313396373, -9510.220230844048, -9588.361929459803, 14433.661333758992, 1801.103568208643, 0.08600000000000001, 0.836, 0.516, 192.0, 0.0, 0.0, 0.0, 0.0, 0.0, 0.0, 0.0, 0.0, 0.0, 1.654608823489966E9, 0.0, 2022-06-07 15:33:43.489
210.0, 39037.522856893884, 13453.492635904866, -19644.36705641354, -22838.163118143453, -9472.982224581507, -9543.07729519335, 14455.856616003111, 1836.1734552590199, 0.08600000000000001, 0.836, 0.516, 192.0, 0.0, 0.0, 0.0, 0.0, 0.0, 0.0, 0.0, 0.0, 0.0, 1.654608823489969E9, 0.0, 2022-06-07 15:33:43.489
211.0, 38941.119783058144, 13403.625894025075, -19695.664309938467, -22861.073656210145, -9521.329047838337, -9521.329047838337, 14453.979069468865, 1808.2114229454307, 0.08600000000000001, 0.836, 0.516, 192.0, 0.0, 0.0, 0.0, 0.0, 0.0, 0.0, 0.0, 0.0, 0.0, 1.654608823550229E9, 0.0, 2022-06-07 15:33:43.550
212.0, 38808.17160703798, 13369.874759897562, -19733.39405457903, -22884.498284399306, -9548.397010373714, -9519.965591426562, 14395.171629806951, 1773.6109225286154, 0.08600000000000001, 0.836, 0.516, 192.0, 0.0, 0.0, 0.0, 0.0, 0.0, 0.0, 0.0, 0.0, 0.0, 1.654608823550236E9, 0.0, 2022-06-07 15:33:43.550
213.0, 38805.93643259245, 13359.034163836737, -19749.9119937315, -22905.307758487197, -9565.853722793308, -9582.930455557163, 14320.248582392764, 1733.400134253518, 0.08600000000000001, 0.836, 0.516, 192.0, 0.0, 0.0, 0.0, 0.0, 0.0, 0.0, 0.0, 0.0, 0.0, 1.65460882355024E9, 0.0, 2022-06-07 15:33:43.550
214.0, 38920.84675083718, 13353.893262612017, -19739.8090052377, -22918.562342949193, -9519.183280370627, -9657.071191915416, 14334.821919777623, 1710.0872647866327, 0.08600000000000001, 0.836, 0.516, 192.0, 0.0, 0.0, 0.0, 0.0, 0.0, 0.0, 0.0, 0.0, 0.0, 1.654608823550252E9, 0.0, 2022-06-07 15:33:43.550
215.0, 39001.447141343015, 13369.047745352716, -19727.269676598273, -22896.076488027156, -9490.953027123574, -9600.85655461032, 14339.336972157595, 1736.8646546440907, 0.064, 0.884, 0.492, 192.0, 2.0, 0.0, 27.0, 160.0, 15.0, 96.0, 0.0, 0.0, 0.0, 1.654608823550255E9, 0.0, 2022-06-07 15:33:43.550
216.0, 38909.89439605408, 13343.320887484657, -19766.072304972688, -22905.039537553734, -9519.40679781518, -9573.073336252373, 14302.724814739802, 1721.7325236478478, 0.064, 0.884, 0.492, 192.0, 0.0, 0.0, 0.0, 0.0, 0.0, 0.0, 0.0, 0.0, 0.0, 1.654608823550258E9, 0.0, 2022-06-07 15:33:43.550
217.0, 38762.90932451598, 13310.352064413079, -19798.258816988327, -22931.526354733272, -9546.944146984119, -9579.935321800152, 14263.184578798364, 1705.5722124066608, 0.064, 0.884, 0.492, 192.0, 0.0, 0.0, 0.0, 0.0, 0.0, 0.0, 0.0, 0.0, 0.0, 1.654608823550262E9, 0.0, 2022-06-07 15:33:43.550
218.0, 38736.37780384753, 13307.558096356166, -19800.181067011486, -22956.269735845297, -9554.99077498803, -9633.601860237344, 14247.404247212917, 1679.308912671675, 0.064, 0.884, 0.492, 192.0, 0.0, 0.0, 0.0, 0.0, 0.0, 0.0, 0.0, 0.0, 0.0, 1.654608823550265E9, 0.0, 2022-06-07 15:33:43.550
219.0, 38862.77691874229, 13359.905881870494, -19763.77007529379, -22942.612819983104, -9518.199803614594, -9672.96328222314, 14293.359433813028, 1678.3030841711861, 0.064, 0.884, 0.492, 192.0, 0.0, 0.0, 0.0, 0.0, 0.0, 0.0, 0.0, 0.0, 0.0, 1.654608823550268E9, 0.0, 2022-06-07 15:33:43.550
220.0, 38956.363672776664, 13407.85037372713, -19736.23272612485, -22911.119212045578, -9482.168791552638, -9649.67276450071, 14339.784007046701, 1691.401206421996, 0.064, 0.884, 0.492, 192.0, 0.0, 0.0, 0.0, 0.0, 0.0, 0.0, 0.0, 0.0, 0.0, 1.654608823550272E9, 0.0, 2022-06-07 15:33:43.550
221.0, 38875.18213691499, 13394.640492754042, -19758.62917406907, -22907.520581188273, -9483.26402703095, -9605.595124434843, 14300.73550948328, 1713.3506194771076, 0.064, 0.884, 0.492, 192.0, 0.0, 0.0, 0.0, 0.0, 0.0, 0.0, 0.0, 0.0, 0.0, 1.654608823550275E9, 0.0, 2022-06-07 15:33:43.550
222.0, 38748.157173175474, 13378.703698957408, -19785.183046481972, -22916.617741181584, -9513.796509956897, -9591.714691128098, 14234.507290662204, 1694.3739884345518, 0.064, 0.884, 0.492, 192.0, 0.0, 0.0, 0.0, 0.0, 0.0, 0.0, 0.0, 0.0, 0.0, 1.654608823550278E9, 0.0, 2022-06-07 15:33:43.550
223.0, 38748.29128364221, 13386.750326961319, -19773.135456220563, -22914.87430511407, -9504.006445885474, -9649.046915655961, 14197.179877421842, 1651.9280257139237, 0.064, 0.884, 0.492, 192.0, 0.0, 0.0, 0.0, 0.0, 0.0, 0.0, 0.0, 0.0, 0.0, 1.654608823550282E9, 0.0, 2022-06-07 15:33:43.550
224.0, 38877.88669799408, 13431.140891449559, -19737.015037180787, -22899.742174117826, -9471.73052689201, -9697.617256357344, 14221.208002711297, 1696.5197559022613, 0.064, 0.884, 0.492, 192.0, 0.0, 0.0, 0.0, 0.0, 0.0, 0.0, 0.0, 0.0, 0.0, 1.654608823550285E9, 0.0, 2022-06-07 15:33:43.550
225.0, 38973.507460773886, 13472.71513613643, -19719.871249183565, -22871.936604015424, -9446.003669023952, -9659.641642527777, 14273.958119625822, 1734.6741836874705, 0.07200000000000001, 0.994, 0.488, 192.0, 2.0, 64.0, 31.0, 16.0, 15.0, 64.0, 0.0, 0.0, 0.0, 1.654608823550289E9, 0.0, 2022-06-07 15:33:43.550
226.0, 38910.87787281011, 13456.33130745069, -19729.638961510536, -22866.77335104625, -9435.878328785699, -9613.954676861129, 14293.962930913322, 1797.1473094400537, 0.07200000000000001, 0.994, 0.488, 192.0, 0.0, 0.0, 0.0, 0.0, 0.0, 0.0, 0.0, 0.0, 0.0, 1.654608823610569E9, 0.0, 2022-06-07 15:33:43.610
227.0, 38779.44961541291, 13409.593809794642, -19744.94990646242, -22870.9978307483, -9443.34381143377, -9582.952807301619, 14294.342910569063, 1803.1599286985313, 0.07200000000000001, 0.994, 0.488, 192.0, 0.0, 0.0, 0.0, 0.0, 0.0, 0.0, 0.0, 0.0, 0.0, 1.654608823610574E9, 0.0, 2022-06-07 15:33:43.610
228.0, 38762.73051056034, 13401.07779515717, -19737.350313347615, -22867.421551635452, -9449.043506269874, -9570.592292617834, 14320.472099837316, 1745.2018553259202, 0.07200000000000001, 0.994, 0.488, 192.0, 0.0, 0.0, 0.0, 0.0, 0.0, 0.0, 0.0, 0.0, 0.0, 1.654608823610576E9, 0.0, 2022-06-07 15:33:43.610
229.0, 38883.34052364118, 13425.552955335732, -19711.6011037351, -22873.970612760855, -9431.899718272653, -9631.076113113895, 14189.647339540405, 1726.8063696392023, 0.07200000000000001, 0.994, 0.488, 192.0, 0.0, 0.0, 0.0, 0.0, 0.0, 0.0, 0.0, 0.0, 0.0, 1.654608823610579E9, 0.0, 2022-06-07 15:33:43.610
230.0, 38985.599754524206, 13462.61214764263, -19691.998623847798, -22857.698542797392, -9411.134947673672, -9607.830298880375, 14201.270246657163, 1760.3116345777078, 0.07200000000000001, 0.994, 0.488, 192.0, 0.0, 0.0, 0.0, 0.0, 0.0, 0.0, 0.0, 0.0, 0.0, 1.654608823610581E9, 0.0, 2022-06-07 15:33:43.610
231.0, 38926.88172184012, 13446.831816057183, -19717.591371249124, -22861.118359699056, -9426.155319947638, -9565.98783326004, 14234.551994151116, 1784.5856290561712, 0.07200000000000001, 0.994, 0.488, 192.0, 0.0, 0.0, 0.0, 0.0, 0.0, 0.0, 0.0, 0.0, 0.0, 1.654608823610583E9, 0.0, 2022-06-07 15:33:43.610
232.0, 38797.331010977156, 13409.437347583456, -19743.65350528401, -22878.82094130766, -9435.543052618868, -9570.659347851199, 14242.911546577401, 1797.6613995625257, 0.07200000000000001, 0.994, 0.488, 192.0, 0.0, 0.0, 0.0, 0.0, 0.0, 0.0, 0.0, 0.0, 0.0, 1.654608823610585E9, 0.0, 2022-06-07 15:33:43.610
233.0, 38770.01717925277, 13386.303292072213, -19761.311383403707, -22912.34855799062, -9464.421506455124, -9638.00515389504, 14215.396549152918, 1765.273721846786, 0.07200000000000001, 0.994, 0.488, 192.0, 0.0, 0.0, 0.0, 0.0, 0.0, 0.0, 0.0, 0.0, 0.0, 1.654608823610587E9, 0.0, 2022-06-07 15:33:43.610
234.0, 38889.06257022174, 13412.3654261071, -19735.67393251347, -22910.33690098964, -9438.784055564887, -9679.355881137357, 14240.67637213187, 1787.916038980012, 0.07200000000000001, 0.994, 0.488, 192.0, 0.0, 0.0, 0.0, 0.0, 0.0, 0.0, 0.0, 0.0, 0.0, 1.654608823610589E9, 0.0, 2022-06-07 15:33:43.610
235.0, 38976.770815464355, 13428.011647225816, -19713.366891547073, -22885.14648498851, -9389.051424151829, -9653.76313373603, 14283.63642497497, 1827.5456818992714, 0.084, 1.012, 0.482, 192.0, 2.0, 160.0, 31.0, 160.0, 15.0, 16.0, 0.0, 0.0, 0.0, 1.654608823610599E9, 0.0, 2022-06-07 15:33:43.610
236.0, 38922.16550376004, 13412.723054018386, -19730.33186558865, -22874.52940637224, -9398.081528911773, -9590.6641591387, 14262.49167472025, 1834.877054080612, 0.084, 1.012, 0.482, 192.0, 0.0, 0.0, 0.0, 0.0, 0.0, 0.0, 0.0, 0.0, 0.0, 1.654608823610602E9, 0.0, 2022-06-07 15:33:43.610
237.0, 38791.07252252967, 13383.464620526389, -19757.936269990954, -22887.649880367506, -9406.463433082514, -9576.917836298686, 14293.73941346877, 1826.9421847989781, 0.084, 1.012, 0.482, 192.0, 0.0, 0.0, 0.0, 0.0, 0.0, 0.0, 0.0, 0.0, 0.0, 1.654608823610604E9, 0.0, 2022-06-07 15:33:43.610
238.0, 38765.47977512834, 13366.92432962946, -19769.179197451973, -22912.929703346457, -9421.930840245586, -9643.526034775501, 14342.17564370342, 1813.9334695259893, 0.084, 1.012, 0.482, 192.0, 0.0, 0.0, 0.0, 0.0, 0.0, 0.0, 0.0, 0.0, 0.0, 1.654608823610606E9, 0.0, 2022-06-07 15:33:43.610
239.0, 38897.846805792666, 13416.880478487074, -19718.463089282883, -22888.72276410136, -9376.04270887884, -9667.91178797624, 14273.891064392456, 1843.7283448849137, 0.084, 1.012, 0.482, 192.0, 0.0, 0.0, 0.0, 0.0, 0.0, 0.0, 0.0, 0.0, 0.0, 1.654608823610608E9, 0.0, 2022-06-07 15:33:43.610
240.0, 38993.266402872374, 13449.290507947268, -19694.211446548874, -22861.63244982153, -9336.971859570964, -9636.395828294257, 14269.554825968127, 1874.4172900220503, 0.084, 1.012, 0.482, 192.0, 0.0, 0.0, 0.0, 0.0, 0.0, 0.0, 0.0, 0.0, 0.0, 1.65460882361061E9, 0.0, 2022-06-07 15:33:43.610
241.0, 38953.56970471975, 13453.202063226947, -19699.575865218147, -22843.03579843471, -9327.092388521718, -9577.007243276506, 14288.911436666422, 1940.6678605875804, 0.084, 1.012, 0.482, 192.0, 0.0, 0.0, 0.0, 0.0, 0.0, 0.0, 0.0, 0.0, 0.0, 1.654608823669859E9, 0.0, 2022-06-07 15:33:43.669
242.0, 38817.7605054093, 13421.641400056053, -19740.81483373819, -22871.735438315325, -9366.90084539662, -9574.637958364245, 14269.934805623867, 1871.3774527761286, 0.084, 1.012, 0.482, 192.0, 0.0, 0.0, 0.0, 0.0, 0.0, 0.0, 0.0, 0.0, 0.0, 1.654608823669865E9, 0.0, 2022-06-07 15:33:43.669
243.0, 38809.91504310549, 13428.212812925913, -19746.29101112974, -22890.57795889115, -9378.166124602094, -9629.399732279746, 14264.458628232316, 1815.5651468712267, 0.084, 1.012, 0.482, 192.0, 0.0, 0.0, 0.0, 0.0, 0.0, 0.0, 0.0, 0.0, 0.0, 1.654608823669868E9, 0.0, 2022-06-07 15:33:43.669
244.0, 38947.31121627226, 13484.673319420019, -19685.203693533385, -22855.48572009632, -9310.485042391425, -9641.939060919174, 14308.983303187288, 1902.6698950135583, 0.084, 1.012, 0.482, 192.0, 0.0, 0.0, 0.0, 0.0, 0.0, 0.0, 0.0, 0.0, 0.0, 1.654608823669871E9, 0.0, 2022-06-07 15:33:43.669
245.0, 39060.187525771566, 13535.545889800298, -19635.918097009435, -22801.483905492296, -9282.612417055658, -9600.85655461032, 14408.180345079942, 2009.9582683990322, 0.082, 0.984, 0.484, 192.0, 2.0, 144.0, 30.0, 192.0, 15.0, 32.0, 0.0, 0.0, 0.0, 1.654608823669873E9, 0.0, 2022-06-07 15:33:43.669
246.0, 39009.225548413466, 13526.001694917883, -19664.55068165668, -22794.778382155702, -9305.165327211062, -9536.282364878936, 14359.051210767177, 2022.8775766942, 0.082, 0.984, 0.484, 192.0, 0.0, 0.0, 0.0, 0.0, 0.0, 0.0, 0.0, 0.0, 0.0, 1.654608823669875E9, 0.0, 2022-06-07 15:33:43.669
247.0, 38876.70205553795, 13489.300130522268, -19692.89269362601, -22805.50721949425, -9313.658990104079, -9485.655663687667, 14327.915230740933, 1914.2704503858627, 0.082, 0.984, 0.484, 192.0, 0.0, 0.0, 0.0, 0.0, 0.0, 0.0, 0.0, 0.0, 0.0, 1.654608823669878E9, 0.0, 2022-06-07 15:33:43.669
248.0, 38867.448433333455, 13493.815182902239, -19691.640995936516, -22826.987245915803, -9339.363496227681, -9558.477647123056, 14332.497338354271, 1934.1411512066306, 0.082, 0.984, 0.484, 192.0, 0.0, 0.0, 0.0, 0.0, 0.0, 0.0, 0.0, 0.0, 0.0, 1.65460882366988E9, 0.0, 2022-06-07 15:33:43.669
249.0, 39000.91069947609, 13539.099817168692, -19648.435073904406, -22811.318673052632, -9318.464615161969, -9595.46978419659, 14395.059871084675, 1989.6405326891581, 0.082, 0.984, 0.484, 192.0, 0.0, 0.0, 0.0, 0.0, 0.0, 0.0, 0.0, 0.0, 0.0, 1.654608823669882E9, 0.0, 2022-06-07 15:33:43.669
250.0, 39103.236985592484, 13572.538026873832, -19617.0308729447, -22771.644326644462, -9274.11875416264, -9553.470856365067, 14412.024845126254, 2010.964096899521, 0.082, 0.984, 0.484, 192.0, 0.0, 0.0, 0.0, 0.0, 0.0, 0.0, 0.0, 0.0, 0.0, 1.654608823669884E9, 0.0, 2022-06-07 15:33:43.669
251.0, 39045.68124362007, 13560.06575346777, -19631.85007951857, -22767.732771364783, -9276.666853030545, -9525.084140906829, 14457.309479392707, 2048.0679926953308, 0.082, 0.984, 0.484, 192.0, 0.0, 0.0, 0.0, 0.0, 0.0, 0.0, 0.0, 0.0, 0.0, 1.654608823669887E9, 0.0, 2022-06-07 15:33:43.669
252.0, 38913.090695511186, 13520.190241359502, -19673.871359094544, -22805.79779217217, -9333.574394413758, -9550.341612141325, 14460.595185827637, 2040.1107716692416, 0.082, 0.984, 0.484, 192.0, 0.0, 0.0, 0.0, 0.0, 0.0, 0.0, 0.0, 0.0, 0.0, 1.654608823669889E9, 0.0, 2022-06-07 15:33:43.669
253.0, 38895.00813424685, 13516.457500035465, -19673.670193394446, -22812.168039341934, -9335.451940948004, -9518.557431525878, 14360.302908456673, 1996.2119455590184, 0.082, 0.984, 0.484, 192.0, 0.0, 0.0, 0.0, 0.0, 0.0, 0.0, 0.0, 0.0, 0.0, 1.654608823669891E9, 0.0, 2022-06-07 15:33:43.669
254.0, 39025.38585965465, 13565.899558770605, -19626.7315300383, -22783.93778609488, -9306.282914433827, -9525.955858940586, 14404.157031077986, 2006.4937480084598, 0.082, 0.984, 0.484, 192.0, 0.0, 0.0, 0.0, 0.0, 0.0, 0.0, 0.0, 0.0, 0.0, 1.654608823669893E9, 0.0, 2022-06-07 15:33:43.669
255.0, 39137.703375542565, 13606.825602868272, -19587.705384219335, -22748.13029147748, -9272.732946006412, -9509.5943819993, 14436.656467516003, 2051.4431061080822, 0.08600000000000001, 0.932, 0.494, 192.0, 2.0, 176.0, 29.0, 32.0, 15.0, 112.0, 0.0, 0.0, 0.0, 1.654608823669896E9, 0.0, 2022-06-07 15:33:43.669
0.0, 39095.63739247768, 13607.496155201932, -19593.740355222268, -22723.722186532283, -9253.108114374652, -9443.522625389412, 14407.37568227955, 2057.388670133194, 0.08600000000000001, 0.932, 0.494, 192.0, 0.0, 0.0, 0.0, 0.0, 0.0, 0.0, 0.0, 0.0, 0.0, 1.654608823729591E9, 0.0, 2022-06-07 15:33:43.729
1.0, 38971.83107993974, 13571.398087906611, -19628.16204168344, -22749.717265333806, -9264.172227880028, -9462.476904687514, 14403.285313044229, 2038.4343908350936, 0.08600000000000001, 0.932, 0.494, 192.0, 0.0, 0.0, 0.0, 0.0, 0.0, 0.0, 0.0, 0.0, 0.0, 1.654608823729598E9, 0.0, 2022-06-07 15:33:43.729
2.0, 38942.75146040338, 13559.194035434013, -19645.931678525412, -22782.820198872116, -9293.989454983408, -9531.230870632038, 14389.60604543758, 2020.9106231821327, 0.08600000000000001, 0.932, 0.494, 192.0, 0.0, 0.0, 0.0, 0.0, 0.0, 0.0, 0.0, 0.0, 0.0, 1.654608823729614E9, 0.0, 2022-06-07 15:33:43.729
3.0, 39053.39259545715, 13596.946131819026, -19621.948256724867, -22781.255576760243, -9285.652254301578, -9609.216107036604, 14371.299966728684, 2022.8775766942, 0.08600000000000001, 0.932, 0.494, 192.0, 0.0, 0.0, 0.0, 0.0, 0.0, 0.0, 0.0, 0.0, 0.0, 1.654608823729617E9, 0.0, 2022-06-07 15:33:43.729
4.0, 39148.25339892547, 13619.431986741065, -19599.060070402633, -22756.80276832614, -9236.545471733269, -9609.730197159077, 14374.026879552232, 2021.6258790047025, 0.08600000000000001, 0.932, 0.494, 192.0, 0.0, 0.0, 0.0, 0.0, 0.0, 0.0, 0.0, 0.0, 0.0, 1.654608823729621E9, 0.0, 2022-06-07 15:33:43.729
5.0, 39102.49937802546, 13611.675931415073, -19602.0775559041, -22731.1653174359, -9182.409546662515, -9499.31257954986, 14509.746671884855, 2073.638388352202, 0.08600000000000001, 0.932, 0.494, 192.0, 0.0, 0.0, 0.0, 0.0, 0.0, 0.0, 0.0, 0.0, 0.0, 1.654608823729624E9, 0.0, 2022-06-07 15:33:43.729
6.0, 38982.96224867848, 13578.081259498747, -19634.30877140865, -22753.31589619111, -9199.262761981818, -9477.430221728113, 14446.982973454355, 2056.114620699241, 0.08600000000000001, 0.932, 0.494, 192.0, 0.0, 0.0, 0.0, 0.0, 0.0, 0.0, 0.0, 0.0, 0.0, 1.654608823729628E9, 0.0, 2022-06-07 15:33:43.729
7.0, 38962.62216122415, 13575.644919353119, -19632.632390574505, -22775.757047624236, -9211.064483054219, -9555.929548255152, 14426.039388899731, 2056.02521372142, 0.08600000000000001, 0.932, 0.494, 192.0, 0.0, 0.0, 0.0, 0.0, 0.0, 0.0, 0.0, 0.0, 0.0, 1.654608823729631E9, 0.0, 2022-06-07 15:33:43.729
8.0, 39079.87941263669, 13625.712826933006, -19588.286529575173, -22760.043771272158, -9163.05293596422, -9595.760356874509, 14441.506796062804, 2126.5673192223694, 0.08600000000000001, 0.932, 0.494, 192.0, 0.0, 0.0, 0.0, 0.0, 0.0, 0.0, 0.0, 0.0, 0.0, 1.654608823729634E9, 0.0, 2022-06-07 15:33:43.729
9.0, 39186.787806366425, 13667.868216975716, -19544.09713078703, -22714.423860838877, -9115.980162141343, -9563.79736230342, 14497.54261941226, 2112.3069062598834, 0.034, 0.9420000000000001, 0.506, 192.0, 1.0, 16.0, 29.0, 112.0, 15.0, 208.0, 0.0, 0.0, 0.0, 1.654608823729638E9, 0.0, 2022-06-07 15:33:43.729
10.0, 39149.8403727818, 13644.018905641904, -19554.35658149202, -22694.77667746266, -9096.46708923186, -9494.104623091773, 14507.265628250318, 2133.4293047701485, 0.034, 0.9420000000000001, 0.506, 192.0, 0.0, 0.0, 0.0, 0.0, 0.0, 0.0, 0.0, 0.0, 0.0, 1.654608823729641E9, 0.0, 2022-06-07 15:33:43.729
11.0, 39022.74835380892, 13608.256114513411, -19586.96777665231, -22723.610427810007, -9131.961659426888, -9493.83640215831, 14444.90426122001, 2104.7520166339896, 0.034, 0.9420000000000001, 0.506, 192.0, 0.0, 0.0, 0.0, 0.0, 0.0, 0.0, 0.0, 0.0, 0.0, 1.654608823729645E9, 0.0, 2022-06-07 15:33:43.729
12.0, 38979.52008003236, 13579.109439743692, -19594.142686622465, -22760.93784105037, -9158.71669753989, -9557.181245944648, 14457.689459048446, 2102.583897421825, 0.034, 0.9420000000000001, 0.506, 192.0, 0.0, 0.0, 0.0, 0.0, 0.0, 0.0, 0.0, 0.0, 0.0, 1.654608823729648E9, 0.0, 2022-06-07 15:33:43.729
13.0, 39073.26329627792, 13594.241570739934, -19566.761799664713, -22770.347925466052, -9149.217206146384, -9620.95077287564, 14510.39487247406, 2122.4993017315032, 0.034, 0.9420000000000001, 0.506, 192.0, 0.0, 0.0, 0.0, 0.0, 0.0, 0.0, 0.0, 0.0, 0.0, 1.654608823729651E9, 0.0, 2022-06-07 15:33:43.729
14.0, 39181.02105629695, 13646.812873698816, -19514.123441472464, -22727.767852278692, -9101.630342201035, -9585.120926513782, 14505.388081716072, 2155.7810492254557, 0.034, 0.9420000000000001, 0.506, 192.0, 0.0, 0.0, 0.0, 0.0, 0.0, 0.0, 0.0, 0.0, 0.0, 1.654608823729655E9, 0.0, 2022-06-07 15:33:43.729
15.0, 39133.76946851843, 13633.044199114347, -19525.522831144674, -22727.611390067505, -9106.838298659122, -9501.413643528658, 14474.207398200919, 2174.8023837569217, 0.034, 0.9420000000000001, 0.506, 192.0, 0.0, 0.0, 0.0, 0.0, 0.0, 0.0, 0.0, 0.0, 0.0, 1.654608823789836E9, 0.0, 2022-06-07 15:33:43.789
16.0, 38995.702743018, 13565.005488992392, -19571.45566600033, -22774.59475691256, -9156.816799261189, -9469.785925124399, 14459.678764304968, 2164.565284796391, 0.034, 0.9420000000000001, 0.506, 192.0, 0.0, 0.0, 0.0, 0.0, 0.0, 0.0, 0.0, 0.0, 0.0, 1.654608823789841E9, 0.0, 2022-06-07 15:33:43.789
17.0, 38975.09443463021, 13545.380657360633, -19565.755971164224, -22808.211780573343, -9173.155924458018, -9518.020989658951, 14473.62625284508, 2171.2261046440726, 0.034, 0.9420000000000001, 0.506, 192.0, 0.0, 0.0, 0.0, 0.0, 0.0, 0.0, 0.0, 0.0, 0.0, 1.654608823789843E9, 0.0, 2022-06-07 15:33:43.789
18.0, 39079.49943298095, 13562.189169191024, -19532.183650992352, -22827.52368778273, -9171.636005835058, -9602.801156377931, 14467.591281842148, 2174.154183167718, 0.034, 0.9420000000000001, 0.506, 192.0, 0.0, 0.0, 0.0, 0.0, 0.0, 0.0, 0.0, 0.0, 0.0, 1.654608823789845E9, 0.0, 2022-06-07 15:33:43.789
19.0, 39177.26596322846, 13587.424288681066, -19503.32754890055, -22806.803620672657, -9159.76722952929, -9569.854685050808, 14493.072270521197, 2197.735273568067, 0.024, 0.912, 0.494, 192.0, 0.0, 192.0, 28.0, 128.0, 15.0, 112.0, 0.0, 0.0, 0.0, 1.654608823789848E9, 0.0, 2022-06-07 15:33:43.789
20.0, 39147.20286693607, 13581.389317678133, -19513.207019949798, -22792.096172821068, -9159.990746973843, -9487.041471843895, 14486.523209395793, 2194.606029344324, 0.024, 0.912, 0.494, 192.0, 0.0, 0.0, 0.0, 0.0, 0.0, 0.0, 0.0, 0.0, 0.0, 1.65460882378985E9, 0.0, 2022-06-07 15:33:43.789
21.0, 39023.66477533159, 13541.491453825409, -19555.45181697033, -22827.434280804908, -9202.816689350211, -9493.143498080195, 14456.236595658851, 2163.4700493180812, 0.024, 0.912, 0.494, 192.0, 0.0, 0.0, 0.0, 0.0, 0.0, 0.0, 0.0, 0.0, 0.0, 1.654608823789852E9, 0.0, 2022-06-07 15:33:43.789
22.0, 38992.97583019445, 13532.260183365368, -19570.271023544195, -22855.37396137404, -9240.412323524037, -9566.61368210479, 14457.018906714788, 2173.1036511783186, 0.024, 0.912, 0.494, 192.0, 0.0, 0.0, 0.0, 0.0, 0.0, 0.0, 0.0, 0.0, 0.0, 1.654608823789863E9, 0.0, 2022-06-07 15:33:43.789
23.0, 39105.38275306019, 13582.775125834361, -19522.706511343302, -22831.23407736231, -9238.914756645532, -9595.067452796395, 14462.115104450597, 2231.978146073597, 0.024, 0.912, 0.494, 192.0, 0.0, 0.0, 0.0, 0.0, 0.0, 0.0, 0.0, 0.0, 0.0, 1.654608823789865E9, 0.0, 2022-06-07 15:33:43.789
24.0, 39209.653640944205, 13628.350332778733, -19481.691060267814, -22784.295414006167, -9203.576648661692, -9537.757580012987, 14469.20060744293, 2204.1949277156505, 0.024, 0.912, 0.494, 192.0, 0.0, 0.0, 0.0, 0.0, 0.0, 0.0, 0.0, 0.0, 0.0, 1.654608823789867E9, 0.0, 2022-06-07 15:33:43.789
25.0, 39182.943306320114, 13618.783786151862, -19490.877627238944, -22764.089437018567, -9205.320084729205, -9472.78105888141, 14503.734052626378, 2217.0024772885417, 0.024, 0.912, 0.494, 192.0, 0.0, 0.0, 0.0, 0.0, 0.0, 0.0, 0.0, 0.0, 0.0, 1.654608823789869E9, 0.0, 2022-06-07 15:33:43.789
26.0, 39066.893049108156, 13585.502038657909, -19527.42272942337, -22783.26723376122, -9236.389009522081, -9453.49150341648, 14463.120932951086, 2200.1269102247848, 0.024, 0.912, 0.494, 192.0, 0.0, 0.0, 0.0, 0.0, 0.0, 0.0, 0.0, 0.0, 0.0, 1.654608823789872E9, 0.0, 2022-06-07 15:33:43.789
27.0, 39036.338214437754, 13586.373756691666, -19545.505290687717, -22811.877466664013, -9265.938015691998, -9518.535079781423, 14434.488348303837, 2191.208564187117, 0.024, 0.912, 0.494, 192.0, 0.0, 0.0, 0.0, 0.0, 0.0, 0.0, 0.0, 0.0, 0.0, 1.654608823789874E9, 0.0, 2022-06-07 15:33:43.789
28.0, 39157.26115194096, 13644.264774830912, -19495.19151391882, -22781.099114549055, -9236.903099644554, -9576.13552524275, 14477.448401146938, 2225.987878559575, 0.054, 0.874, 0.47800000000000004, 192.0, 1.0, 176.0, 27.0, 80.0, 14.0, 240.0, 0.0, 0.0, 0.0, 1.654608823789876E9, 0.0, 2022-06-07 15:33:43.789
29.0, 39268.43872886166, 13706.179106972111, -19448.811644174057, -22728.505459845717, -9196.021759035797, -9540.59625155881, 14516.295733010262, 2256.430954507703, 0.054, 0.874, 0.47800000000000004, 192.0, 0.0, 0.0, 0.0, 0.0, 0.0, 0.0, 0.0, 0.0, 0.0, 1.654608823789878E9, 0.0, 2022-06-07 15:33:43.789
30.0, 39226.283338818954, 13687.113068951736, -19461.41802804685, -22706.041956668134, -9190.34441594415, -9446.33894519078, 14498.995482801854, 2253.1899515616838, 0.054, 0.874, 0.47800000000000004, 192.0, 0.0, 0.0, 0.0, 0.0, 0.0, 0.0, 0.0, 0.0, 0.0, 1.654608823850239E9, 0.0, 2022-06-07 15:33:43.850
31.0, 39111.909462441145, 13655.84297845876, -19499.72891804325, -22724.593904566038, -9213.098491799652, -9444.953137034552, 14514.30642775374, 2237.186102531684, 0.054, 0.874, 0.47800000000000004, 192.0, 0.0, 0.0, 0.0, 0.0, 0.0, 0.0, 0.0, 0.0, 0.0, 1.654608823850245E9, 0.0, 2022-06-07 15:33:43.850
32.0, 39095.36917154422, 13659.75453373844, -19496.62202556396, -22739.74838730674, -9206.30356148524, -9492.092966090795, 14534.333590785694, 2247.602015447857, 0.054, 0.874, 0.47800000000000004, 192.0, 0.0, 0.0, 0.0, 0.0, 0.0, 0.0, 0.0, 0.0, 0.0, 1.654608823850247E9, 0.0, 2022-06-07 15:33:43.850
33.0, 39193.493329703015, 13705.66501684964, -19445.03419936111, -22723.051634198622, -9167.389174388549, -9546.072428950361, 14515.133442298586, 2279.7438239745884, 0.054, 0.874, 0.47800000000000004, 192.0, 0.0, 0.0, 0.0, 0.0, 0.0, 0.0, 0.0, 0.0, 0.0, 1.654608823850249E9, 0.0, 2022-06-07 15:33:43.850
34.0, 39290.477548894596, 13773.3013955714, -19384.572730609507, -22657.359857244475, -9101.496231734303, -9497.412681271158, 14551.365620060638, 2311.013914467563, 0.054, 0.874, 0.47800000000000004, 192.0, 0.0, 0.0, 0.0, 0.0, 0.0, 0.0, 0.0, 0.0, 0.0, 1.654608823850251E9, 0.0, 2022-06-07 15:33:43.850
35.0, 39268.796356772946, 13791.2051428801, -19370.289965902564, -22610.130621210414, -9066.135772006008, -9392.38183407567, 14595.644425826602, 2363.272293004071, 0.054, 0.874, 0.47800000000000004, 192.0, 0.0, 0.0, 0.0, 0.0, 0.0, 0.0, 0.0, 0.0, 0.0, 1.654608823850254E9, 0.0, 2022-06-07 15:33:43.850
36.0, 39162.804384565876, 13782.219741609068, -19378.157779950834, -22611.538781111096, -9083.771298381245, -9359.591824959734, 14581.920454731042, 2365.2615982605935, 0.054, 0.874, 0.47800000000000004, 192.0, 0.0, 0.0, 0.0, 0.0, 0.0, 0.0, 0.0, 0.0, 0.0, 1.654608823850256E9, 0.0, 2022-06-07 15:33:43.850
37.0, 39138.8880179987, 13802.716291274583, -19363.58444256597, -22612.768127056137, -9076.998719811287, -9405.725825515488, 14551.611489249646, 2378.918514122786, 0.054, 0.874, 0.47800000000000004, 192.0, 0.0, 0.0, 0.0, 0.0, 0.0, 0.0, 0.0, 0.0, 0.0, 1.654608823850258E9, 0.0, 2022-06-07 15:33:43.850
38.0, 39252.25606587602, 13856.807512856427, -19321.339645545442, -22597.345423381976, -9018.750073760757, -9460.286433730893, 14617.638542370623, 2426.371267601403, 0.054, 0.936, 0.464, 192.0, 1.0, 176.0, 29.0, 64.0, 14.0, 128.0, 0.0, 0.0, 0.0, 1.65460882385026E9, 0.0, 2022-06-07 15:33:43.850
39.0, 39368.46278529916, 13915.570249029428, -19264.677973351238, -22531.541887705553, -8939.401380944417, -9404.09414817025, 14769.049259310874, 2435.535482828079, 0.054, 0.936, 0.464, 192.0, 0.0, 0.0, 0.0, 0.0, 0.0, 0.0, 0.0, 0.0, 0.0, 1.654608823850262E9, 0.0, 2022-06-07 15:33:43.850
40.0, 39341.439526252696, 13914.095033895379, -19269.774171087047, -22496.02496576607, -8924.224546459263, -9296.537553851313, 14810.578800508834, 2455.2497214376594, 0.054, 0.936, 0.464, 192.0, 0.0, 0.0, 0.0, 0.0, 0.0, 0.0, 0.0, 0.0, 0.0, 1.654608823850265E9, 0.0, 2022-06-07 15:33:43.850
41.0, 39228.69732722012, 13889.530466738996, -19289.1531335298, -22502.30580595801, -8912.020493986665, -9277.605626297669, 14733.241764693472, 2459.273035439615, 0.054, 0.936, 0.464, 192.0, 0.0, 0.0, 0.0, 0.0, 0.0, 0.0, 0.0, 0.0, 0.0, 1.654608823850267E9, 0.0, 2022-06-07 15:33:43.850
42.0, 39203.484559474535, 13905.713129724638, -19272.14345599931, -22507.44670718273, -8907.103110206499, -9312.139071481119, 14683.442078047048, 2466.2467797096706, 0.054, 0.936, 0.464, 192.0, 0.0, 0.0, 0.0, 0.0, 0.0, 0.0, 0.0, 0.0, 0.0, 1.654608823850269E9, 0.0, 2022-06-07 15:33:43.850
43.0, 39322.44054346568, 13959.133798972822, -19214.94534193818, -22481.98807024814, -8877.129420891932, -9356.75315341391, 14718.757834286433, 2498.522698703134, 0.054, 0.936, 0.464, 192.0, 0.0, 0.0, 0.0, 0.0, 0.0, 0.0, 0.0, 0.0, 0.0, 1.654608823850279E9, 0.0, 2022-06-07 15:33:43.850
44.0, 39437.5073239216, 13999.545752948017, -19166.978498337092, -22436.97165691515, -8825.675705155814, -9331.138054268129, 14761.829645851809, 2537.079457888539, 0.054, 0.936, 0.464, 192.0, 0.0, 0.0, 0.0, 0.0, 0.0, 0.0, 0.0, 0.0, 0.0, 1.654608823850281E9, 0.0, 2022-06-07 15:33:43.850
45.0, 39421.16819872477, 14011.548639720517, -19166.64322217026, -22410.2389705466, -8818.701960885759, -9243.765085192334, 14823.274591359448, 2585.7615573121975, 0.054, 0.936, 0.464, 192.0, 0.0, 0.0, 0.0, 0.0, 0.0, 0.0, 0.0, 0.0, 0.0, 1.654608823909644E9, 0.0, 2022-06-07 15:33:43.909
46.0, 39312.337554971884, 14000.797450637514, -19209.871495946827, -22430.40024404529, -8860.767943950646, -9210.840965609666, 14780.023965838429, 2533.100847375494, 0.054, 0.936, 0.464, 192.0, 0.0, 0.0, 0.0, 0.0, 0.0, 0.0, 0.0, 0.0, 0.0, 1.654608823909663E9, 0.0, 2022-06-07 15:33:43.909
47.0, 39291.237508206075, 13973.058935768478, -19209.066833146433, -22442.023151162048, -8863.718374218748, -9241.798131680267, 14759.616823150734, 2519.8909664024077, 0.054, 0.936, 0.464, 192.0, 0.0, 0.0, 0.0, 0.0, 0.0, 0.0, 0.0, 0.0, 0.0, 1.654608823909665E9, 0.0, 2022-06-07 15:33:43.909
48.0, 39402.7503612936, 13981.217322494665, -19163.290460501965, -22422.91240965276, -8836.739818661192, -9271.88357971711, 14778.816971637843, 2553.619748785466, 0.058, 0.908, 0.422, 192.0, 1.0, 208.0, 28.0, 96.0, 13.0, 48.0, 0.0, 0.0, 0.0, 1.654608823909667E9, 0.0, 2022-06-07 15:33:43.909
49.0, 39495.10776938293, 13986.559389419484, -19144.626753881785, -22403.220522787637, -8811.661161382337, -9256.505579531859, 14827.856698972786, 2566.069670447072, 0.058, 0.908, 0.422, 192.0, 0.0, 0.0, 0.0, 0.0, 0.0, 0.0, 0.0, 0.0, 0.0, 1.65460882390967E9, 0.0, 2022-06-07 15:33:43.909
50.0, 39429.10306800641, 13919.884135709302, -19191.028975371002, -22424.320569553445, -8840.204339051765, -9245.039134626286, 14840.016047956473, 2529.5022165181895, 0.058, 0.908, 0.422, 192.0, 0.0, 0.0, 0.0, 0.0, 0.0, 0.0, 0.0, 0.0, 0.0, 1.654608823909672E9, 0.0, 2022-06-07 15:33:43.909
51.0, 39271.14328994075, 13838.657896358716, -19257.726580825638, -22473.986145733135, -8906.074929961555, -9240.054695612753, 14759.974451062018, 2503.820062139042, 0.058, 0.908, 0.422, 192.0, 0.0, 0.0, 0.0, 0.0, 0.0, 0.0, 0.0, 0.0, 0.0, 1.654608823909674E9, 0.0, 2022-06-07 15:33:43.909
52.0, 39200.17650129515, 13792.121564402767, -19298.183238289745, -22529.776099893585, -8939.267270477685, -9304.785347555322, 14706.978464958485, 2472.617026879433, 0.058, 0.908, 0.422, 192.0, 0.0, 0.0, 0.0, 0.0, 0.0, 0.0, 0.0, 0.0, 0.0, 1.654608823909676E9, 0.0, 2022-06-07 15:33:43.909
53.0, 39277.58059234388, 13790.78045973545, -19283.34167997142, -22544.59530646745, -8946.039849047644, -9373.38285128866, 14698.328339854283, 2470.4489076672685, 0.058, 0.908, 0.422, 192.0, 0.0, 0.0, 0.0, 0.0, 0.0, 0.0, 0.0, 0.0, 0.0, 1.654608823909678E9, 0.0, 2022-06-07 15:33:43.909
54.0, 39341.61834020833, 13795.250808626512, -19269.327136197942, -22529.619637682397, -8942.687087379347, -9371.281787309861, 14670.969804640987, 2469.1748582333157, 0.058, 0.908, 0.422, 192.0, 0.0, 0.0, 0.0, 0.0, 0.0, 0.0, 0.0, 0.0, 0.0, 1.654608823909681E9, 0.0, 2022-06-07 15:33:43.909
55.0, 39271.47856610758, 13732.934145085115, -19312.62246520787, -22546.629315212886, -8950.666660149893, -9351.724010911466, 14598.12546946114, 2407.081712136473, 0.058, 0.908, 0.422, 192.0, 0.0, 0.0, 0.0, 0.0, 0.0, 0.0, 0.0, 0.0, 0.0, 1.654608823909683E9, 0.0, 2022-06-07 15:33:43.909
56.0, 39134.66353829665, 13666.504760563943, -19370.40172462484, -22588.24826338867, -8975.812372662112, -9346.292537008827, 14618.8008330823, 2418.0340669195734, 0.058, 0.908, 0.422, 192.0, 0.0, 0.0, 0.0, 0.0, 0.0, 0.0, 0.0, 0.0, 0.0, 1.654608823909685E9, 0.0, 2022-06-07 15:33:43.909
57.0, 39066.468365963505, 13621.98008560897, -19395.70389934825, -22630.470708664743, -8998.141765372964, -9410.129119173183, 14669.360479040204, 2378.2479617891267, 0.058, 0.908, 0.422, 192.0, 0.0, 0.0, 0.0, 0.0, 0.0, 0.0, 0.0, 0.0, 0.0, 1.654608823909687E9, 0.0, 2022-06-07 15:33:43.909
58.0, 39151.56145710486, 13658.41342907112, -19351.089817415457, -22615.80796430206, -8990.072785624598, -9461.381669209202, 14649.310964263794, 2399.1021393659285, 0.062, 0.906, 0.406, 192.0, 1.0, 240.0, 28.0, 80.0, 12.0, 176.0, 0.0, 0.0, 0.0, 1.65460882390969E9, 0.0, 2022-06-07 15:33:43.909
59.0, 39243.02479541598, 13722.965267058047, -19301.78186914705, -22573.786684726085, -8955.53934044115, -9451.032811526396, 14647.478121218459, 2402.6784184787775, 0.062, 0.906, 0.406, 192.0, 0.0, 0.0, 0.0, 0.0, 0.0, 0.0, 0.0, 0.0, 0.0, 1.654608823909692E9, 0.0, 2022-06-07 15:33:43.909
60.0, 39212.08998108983, 13757.476360497041, -19286.269758495066, -22533.665303428807, -8925.498595893216, -9370.052441364818, 14727.363255901726, 2453.752154559154, 0.062, 0.906, 0.406, 192.0, 0.0, 0.0, 0.0, 0.0, 0.0, 0.0, 0.0, 0.0, 0.0, 1.654608823969319E9, 0.0, 2022-06-07 15:33:43.969
61.0, 39101.51590126943, 13725.178089759123, -19309.247351795122, -22521.818878867492, -8942.396514701428, -9307.13228072313, 14740.193157219072, 2473.5110966576453, 0.062, 0.906, 0.406, 192.0, 0.0, 0.0, 0.0, 0.0, 0.0, 0.0, 0.0, 0.0, 0.0, 1.654608823969328E9, 0.0, 2022-06-07 15:33:43.969
62.0, 39084.66268595013, 13713.756348342462, -19332.87314568438, -22548.529213491587, -8978.20400931883, -9352.75219115641, 14697.613084031713, 2449.9970614906624, 0.062, 0.906, 0.406, 192.0, 0.0, 0.0, 0.0, 0.0, 0.0, 0.0, 0.0, 0.0, 0.0, 1.654608823969333E9, 0.0, 2022-06-07 15:33:43.969
63.0, 39184.820852854355, 13753.497749983997, -19301.647758680316, -22551.591402481965, -8966.603453946525, -9437.733523575489, 14644.505339205902, 2448.0971632119613, 0.062, 0.906, 0.406, 192.0, 0.0, 0.0, 0.0, 0.0, 0.0, 0.0, 0.0, 0.0, 0.0, 1.654608823969336E9, 0.0, 2022-06-07 15:33:43.969
64.0, 39297.92067979821, 13775.916549672671, -19263.09099949491, -22512.274683985077, -8924.76098832619, -9425.551822847347, 14678.770563455888, 2475.2545327251596, 0.062, 0.906, 0.406, 192.0, 0.0, 0.0, 0.0, 0.0, 0.0, 0.0, 0.0, 0.0, 0.0, 1.654608823969358E9, 0.0, 2022-06-07 15:33:43.969
65.0, 39276.39594988775, 13771.423849037154, -19275.742086856615, -22489.58766336294, -8914.367427154473, -9339.721124138967, 14720.121290698205, 2471.7900123345867, 0.062, 0.906, 0.406, 192.0, 0.0, 0.0, 0.0, 0.0, 0.0, 0.0, 0.0, 0.0, 0.0, 1.654608823969362E9, 0.0, 2022-06-07 15:33:43.969
66.0, 39140.36323313275, 13735.392836975197, -19332.850793939924, -22527.18329753677, -8954.19823577383, -9350.628775433157, 14690.52758103938, 2391.3237322954815, 0.062, 0.906, 0.406, 192.0, 0.0, 0.0, 0.0, 0.0, 0.0, 0.0, 0.0, 0.0, 0.0, 1.654608823969365E9, 0.0, 2022-06-07 15:33:43.969
67.0, 39091.65878196464, 13717.310275710855, -19351.000410437635, -22575.016030671126, -8974.359509272517, -9430.089226971773, 14608.921362033054, 2334.3267839344485, 0.062, 0.906, 0.406, 192.0, 0.0, 0.0, 0.0, 0.0, 0.0, 0.0, 0.0, 0.0, 0.0, 1.654608823969368E9, 0.0, 2022-06-07 15:33:43.969
68.0, 39175.746044605505, 13744.579403946329, -19315.639950709337, -22583.353231352954, -8964.994128345745, -9487.399099755181, 14648.796874141322, 2410.9932674161514, 0.054, 0.926, 0.4, 192.0, 1.0, 176.0, 28.0, 240.0, 12.0, 128.0, 0.0, 0.0, 0.0, 1.654608823969371E9, 0.0, 2022-06-07 15:33:43.969
69.0, 39273.53492659747, 13793.283855114443, -19271.51760715456, -22545.51172799012, -8938.373200699472, -9446.517759146423, 14680.402240801126, 2498.612105680955, 0.054, 0.926, 0.4, 192.0, 0.0, 0.0, 0.0, 0.0, 0.0, 0.0, 0.0, 0.0, 0.0, 1.654608823969375E9, 0.0, 2022-06-07 15:33:43.969
70.0, 39252.74780425403, 13798.11183191679, -19278.692517124717, -22523.83053586847, -8895.949589723301, -9387.084470639762, 14681.139848368151, 2488.9561520762627, 0.054, 0.926, 0.4, 192.0, 0.0, 0.0, 0.0, 0.0, 0.0, 0.0, 0.0, 0.0, 0.0, 1.654608823969378E9, 0.0, 2022-06-07 15:33:43.969
71.0, 39141.95020698908, 13768.62988098024, -19314.745880931125, -22538.403873253334, -8910.589982341526, -9347.700696909511, 14707.29138938086, 2528.07170487305, 0.054, 0.926, 0.4, 192.0, 0.0, 0.0, 0.0, 0.0, 0.0, 0.0, 0.0, 0.0, 0.0, 1.654608823969382E9, 0.0, 2022-06-07 15:33:43.969
72.0, 39092.37403778721, 13724.507537425463, -19339.332799831966, -22569.94218467977, -8963.854189378522, -9394.393491076647, 14679.530522767369, 2477.6014658929666, 0.054, 0.926, 0.4, 192.0, 0.0, 0.0, 0.0, 0.0, 0.0, 0.0, 0.0, 0.0, 0.0, 1.654608823969385E9, 0.0, 2022-06-07 15:33:43.969
73.0, 39182.83154759783, 13751.955479616581, -19306.766308160582, -22564.13073112139, -8954.064125307099, -9462.029869798407, 14666.722973194477, 2469.621893122422, 0.054, 0.926, 0.4, 192.0, 0.0, 0.0, 0.0, 0.0, 0.0, 0.0, 0.0, 0.0, 0.0, 1.654608823969388E9, 0.0, 2022-06-07 15:33:43.969
74.0, 39302.50278741155, 13820.77650079447, -19253.345638912397, -22510.59830315093, -8889.42288034235, -9445.10959924574, 14651.859063131698, 2519.5780419800335, 0.054, 0.926, 0.4, 192.0, 0.0, 0.0, 0.0, 0.0, 0.0, 0.0, 0.0, 0.0, 0.0, 1.654608823969392E9, 0.0, 2022-06-07 15:33:43.969
75.0, 39291.997467517554, 13821.447053128131, -19264.47680765114, -22484.379706904856, -8864.880664930424, -9356.484932480447, 14663.213749314995, 2526.954117650285, 0.054, 0.926, 0.4, 192.0, 0.0, 0.0, 0.0, 0.0, 0.0, 0.0, 0.0, 0.0, 0.0, 1.654608824029615E9, 0.0, 2022-06-07 15:33:44.029
76.0, 39160.32334093134, 13745.42877023563, -19317.91982864378, -22510.419489195287, -8895.346092623007, -9323.337295453226, 14673.495551764436, 2442.7327445426877, 0.054, 0.926, 0.4, 192.0, 0.0, 0.0, 0.0, 0.0, 0.0, 0.0, 0.0, 0.0, 0.0, 1.654608824029621E9, 0.0, 2022-06-07 15:33:44.029
77.0, 39087.76957842941, 13708.168412228635, -19361.77395126509, -22568.89165269037, -8948.096209537533, -9419.382741377682, 14621.259524972384, 2409.3168865820035, 0.054, 0.926, 0.4, 192.0, 0.0, 0.0, 0.0, 0.0, 0.0, 0.0, 0.0, 0.0, 0.0, 1.654608824029623E9, 0.0, 2022-06-07 15:33:44.029
78.0, 39178.85293708479, 13742.411284734164, -19322.703101957217, -22565.2259665997, -8931.131235495954, -9494.864582403254, 14597.276103171838, 2415.24009886266, 0.044, 0.97, 0.394, 192.0, 1.0, 96.0, 30.0, 80.0, 12.0, 80.0, 0.0, 0.0, 0.0, 1.654608824029625E9, 0.0, 2022-06-07 15:33:44.029
79.0, 39269.95864748462, 13775.357756061287, -19281.508836926085, -22525.998655080635, -8890.76398500967, -9465.896721589175, 14627.383902953137, 2431.109837425928, 0.044, 0.97, 0.394, 192.0, 0.0, 0.0, 0.0, 0.0, 0.0, 0.0, 0.0, 0.0, 0.0, 1.654608824029628E9, 0.0, 2022-06-07 15:33:44.029
80.0, 39256.45819383361, 13773.81548569387, -19291.43301146424, -22496.98609077765, -8881.286845360619, -9374.09810711123, 14666.119476094185, 2467.945512288274, 0.044, 0.97, 0.394, 192.0, 0.0, 0.0, 0.0, 0.0, 0.0, 0.0, 0.0, 0.0, 0.0, 1.65460882402963E9, 0.0, 2022-06-07 15:33:44.029
81.0, 39151.628512338226, 13735.683409653117, -19339.17633762078, -22516.49916368713, -8917.76489231168, -9340.61519391718, 14648.32748750776, 2437.7706572736097, 0.044, 0.97, 0.394, 192.0, 0.0, 0.0, 0.0, 0.0, 0.0, 0.0, 0.0, 0.0, 0.0, 1.654608824029632E9, 0.0, 2022-06-07 15:33:44.029
82.0, 39097.581994245294, 13708.235467462, -19364.053829199533, -22560.08506537498, -8961.976642844278, -9422.400226879148, 14605.926228276043, 2389.1332613388613, 0.044, 0.97, 0.394, 192.0, 0.0, 0.0, 0.0, 0.0, 0.0, 0.0, 0.0, 0.0, 0.0, 1.654608824029634E9, 0.0, 2022-06-07 15:33:44.029
83.0, 39161.03859675391, 13727.413264204653, -19345.568936534994, -22576.08891440498, -8971.073802837587, -9503.425300529636, 14610.865963800665, 2415.553023285034, 0.044, 0.97, 0.394, 192.0, 0.0, 0.0, 0.0, 0.0, 0.0, 0.0, 0.0, 0.0, 0.0, 1.654608824029636E9, 0.0, 2022-06-07 15:33:44.029
84.0, 39261.59909505834, 13767.311128057378, -19316.73518618765, -22546.0705216015, -8941.323630967574, -9476.49144846099, 14671.32743255227, 2432.9873839601737, 0.044, 0.97, 0.394, 192.0, 0.0, 0.0, 0.0, 0.0, 0.0, 0.0, 0.0, 0.0, 0.0, 1.654608824029639E9, 0.0, 2022-06-07 15:33:44.029
85.0, 39251.3619960978, 13755.576462218341, -19328.24633458213, -22525.439861469255, -8937.322668710074, -9415.270020397904, 14615.895106303109, 2433.657936293833, 0.044, 0.97, 0.394, 192.0, 0.0, 0.0, 0.0, 0.0, 0.0, 0.0, 0.0, 0.0, 0.0, 1.654608824029641E9, 0.0, 2022-06-07 15:33:44.029
86.0, 39131.623701050725, 13702.066385992335, -19373.50861710413, -22547.411626268822, -8958.288605009151, -9376.109764112207, 14605.65800734258, 2416.3129825965148, 0.044, 0.97, 0.394, 192.0, 0.0, 0.0, 0.0, 0.0, 0.0, 0.0, 0.0, 0.0, 0.0, 1.654608824029653E9, 0.0, 2022-06-07 15:33:44.029
87.0, 39067.63065667518, 13672.763249011428, -19399.816620328023, -22586.013088943135, -8974.471267994793, -9411.760796518422, 14581.40636460857, 2399.727988210677, 0.044, 0.97, 0.394, 192.0, 0.0, 0.0, 0.0, 0.0, 0.0, 0.0, 0.0, 0.0, 0.0, 1.654608824029655E9, 0.0, 2022-06-07 15:33:44.029
88.0, 39158.28933218591, 13722.831156591315, -19354.35317210593, -22584.224949386713, -8946.53158742566, -9492.025910857428, 14575.997242450387, 2394.3859212858583, 0.06, 0.962, 0.39, 192.0, 1.0, 224.0, 30.0, 16.0, 12.0, 48.0, 0.0, 0.0, 0.0, 1.654608824029657E9, 0.0, 2022-06-07 15:33:44.029
89.0, 39260.14623166874, 13771.669718226161, -19316.310503042998, -22561.001486897647, -8927.778473827657, -9502.441823773603, 14653.647202688124, 2422.9067472108304, 0.06, 0.962, 0.39, 192.0, 0.0, 0.0, 0.0, 0.0, 0.0, 0.0, 0.0, 0.0, 0.0, 1.654608824029659E9, 0.0, 2022-06-07 15:33:44.029
90.0, 39233.03356564445, 13738.924412599137, -19342.618506266896, -22552.977210638193, -8940.943651311833, -9432.860843284232, 14664.912481893598, 2476.9756170482183, 0.06, 0.962, 0.39, 192.0, 0.0, 0.0, 0.0, 0.0, 0.0, 0.0, 0.0, 0.0, 0.0, 1.654608824089843E9, 0.0, 2022-06-07 15:33:44.089
91.0, 39122.191264890585, 13694.489144621986, -19383.41043989783, -22572.445580058764, -8974.605378461525, -9372.265264065894, 14612.140013234617, 2486.7433293751874, 0.06, 0.962, 0.39, 192.0, 0.0, 0.0, 0.0, 0.0, 0.0, 0.0, 0.0, 0.0, 0.0, 1.654608824089848E9, 0.0, 2022-06-07 15:33:44.089
92.0, 39056.58889491426, 13673.94789146756, -19402.297663962563, -22612.835182289506, -9000.622809007504, -9426.222375181005, 14571.593948792692, 2418.3693430864028, 0.06, 0.962, 0.39, 192.0, 0.0, 0.0, 0.0, 0.0, 0.0, 0.0, 0.0, 0.0, 0.0, 1.654608824089851E9, 0.0, 2022-06-07 15:33:44.089
93.0, 39148.16399194765, 13729.022589805436, -19365.64080305586, -22606.979025242214, -8991.168021102909, -9483.085213075306, 14599.779498550834, 2412.5355377835676, 0.06, 0.962, 0.39, 192.0, 0.0, 0.0, 0.0, 0.0, 0.0, 0.0, 0.0, 0.0, 0.0, 1.654608824089853E9, 0.0, 2022-06-07 15:33:44.089
94.0, 39265.018911959996, 13773.569616504863, -19309.20264830621, -22556.12880660639, -8951.62778516147, -9457.984204051996, 14620.968952294465, 2475.9250850588187, 0.06, 0.962, 0.39, 192.0, 0.0, 0.0, 0.0, 0.0, 0.0, 0.0, 0.0, 0.0, 0.0, 1.654608824089855E9, 0.0, 2022-06-07 15:33:44.089
95.0, 39236.632196501756, 13742.277174267432, -19307.414508749785, -22523.607018423918, -8944.743447869236, -9371.32649079877, 14638.112740291685, 2478.562590904545, 0.06, 0.962, 0.39, 192.0, 0.0, 0.0, 0.0, 0.0, 0.0, 0.0, 0.0, 0.0, 0.0, 1.654608824089857E9, 0.0, 2022-06-07 15:33:44.089
96.0, 39111.59653801877, 13691.628121331707, -19357.616526796406, -22548.149233835848, -8983.188448332363, -9345.912557353087, 14623.829975584744, 2455.719108071221, 0.06, 0.962, 0.39, 192.0, 0.0, 0.0, 0.0, 0.0, 0.0, 0.0, 0.0, 0.0, 0.0, 1.654608824089859E9, 0.0, 2022-06-07 15:33:44.089
97.0, 39072.615095688714, 13680.787525270884, -19381.465838130218, -22582.682679019294, -9017.945410960367, -9403.960037703519, 14591.531704846824, 2432.428590348791, 0.06, 0.962, 0.39, 192.0, 0.0, 0.0, 0.0, 0.0, 0.0, 0.0, 0.0, 0.0, 0.0, 1.654608824089862E9, 0.0, 2022-06-07 15:33:44.089
98.0, 39146.91229425815, 13704.61448486024, -19350.30750635952, -22590.729307023204, -8992.375015303494, -9485.5886084543, 14630.669609388067, 2447.8065905340422, 0.09, 0.93, 0.376, 192.0, 2.0, 208.0, 29.0, 16.0, 11.0, 192.0, 0.0, 0.0, 0.0, 1.654608824089864E9, 0.0, 2022-06-07 15:33:44.089
99.0, 39238.10741163581, 13728.083816538314, -19321.943142645734, -22571.104475391447, -8965.664680679403, -9473.965701337542, 14691.555761284324, 2439.2011689187493, 0.09, 0.93, 0.376, 192.0, 0.0, 0.0, 0.0, 0.0, 0.0, 0.0, 0.0, 0.0, 0.0, 1.654608824089866E9, 0.0, 2022-06-07 15:33:44.089
100.0, 39235.62636800127, 13738.030342820924, -19324.73711070265, -22540.46023374322, -8937.34502045453, -9380.066022880796, 14636.793987368821, 2480.3507304609693, 0.09, 0.93, 0.376, 192.0, 0.0, 0.0, 0.0, 0.0, 0.0, 0.0, 0.0, 0.0, 0.0, 1.654608824089868E9, 0.0, 2022-06-07 15:33:44.089
101.0, 39134.97646271902, 13723.747578113984, -19361.59513730945, -22554.206556583234, -8983.099041354542, -9348.885339365643, 14613.838745813222, 2484.8434310964863, 0.09, 0.93, 0.376, 192.0, 0.0, 0.0, 0.0, 0.0, 0.0, 0.0, 0.0, 0.0, 0.0, 1.654608824089871E9, 0.0, 2022-06-07 15:33:44.089
102.0, 39081.712255682025, 13711.767043085938, -19381.577596852494, -22582.682679019294, -9013.005675435743, -9388.00089216243, 14601.277065429338, 2417.0282384190846, 0.09, 0.93, 0.376, 192.0, 0.0, 0.0, 0.0, 0.0, 0.0, 0.0, 0.0, 0.0, 0.0, 1.654608824089873E9, 0.0, 2022-06-07 15:33:44.089
103.0, 39166.13479448972, 13718.070235022335, -19348.988753436657, -22588.315318622033, -8990.564524002615, -9462.320442476326, 14612.676455101546, 2418.302287853037, 0.09, 0.93, 0.376, 192.0, 0.0, 0.0, 0.0, 0.0, 0.0, 0.0, 0.0, 0.0, 0.0, 1.654608824089875E9, 0.0, 2022-06-07 15:33:44.089
104.0, 39264.19189741515, 13740.600793433285, -19312.957741374703, -22561.828501442495, -8961.954291099823, -9439.34284917627, 14671.729763952466, 2455.003852248651, 0.09, 0.93, 0.376, 192.0, 0.0, 0.0, 0.0, 0.0, 0.0, 0.0, 0.0, 0.0, 0.0, 1.654608824089877E9, 0.0, 2022-06-07 15:33:44.089
105.0, 39236.22986510156, 13727.837947349304, -19329.274514827077, -22546.89753614635, -8962.446029477838, -9369.828923920266, 14645.734685150945, 2450.6676138243215, 0.09, 0.93, 0.376, 192.0, 0.0, 0.0, 0.0, 0.0, 0.0, 0.0, 0.0, 0.0, 0.0, 1.654608824151503E9, 0.0, 2022-06-07 15:33:44.151
106.0, 39114.16698863113, 13676.384231613189, -19377.21900668371, -22568.64578350136, -8994.140803115464, -9351.746362655922, 14558.942861430987, 2414.52484304009, 0.09, 0.93, 0.376, 192.0, 0.0, 0.0, 0.0, 0.0, 0.0, 0.0, 0.0, 0.0, 0.0, 1.654608824151509E9, 0.0, 2022-06-07 15:33:44.151
107.0, 39072.36922649971, 13668.359955353733, -19386.137352721376, -22587.24243488818, -9014.100910914054, -9399.57909579028, 14545.084779868697, 2391.6366567178557, 0.09, 0.93, 0.376, 192.0, 0.0, 0.0, 0.0, 0.0, 0.0, 0.0, 0.0, 0.0, 0.0, 1.65460882415152E9, 0.0, 2022-06-07 15:33:44.151
108.0, 39152.388471649705, 13705.24033370499, -19343.065541156, -22579.598138284462, -8983.59077973256, -9459.615881397234, 14593.342196147705, 2418.6375640198667, 0.096, 0.964, 0.368, 192.0, 3.0, 0.0, 30.0, 32.0, 11.0, 128.0, 0.0, 0.0, 0.0, 1.654608824151523E9, 0.0, 2022-06-07 15:33:44.151
109.0, 39247.249275118025, 13732.934145085115, -19306.92277037177, -22546.02581811259, -8940.049581533622, -9427.764645548421, 14653.244871287927, 2515.6664867003547, 0.096, 0.964, 0.368, 192.0, 0.0, 0.0, 0.0, 0.0, 0.0, 0.0, 0.0, 0.0, 0.0, 1.654608824151526E9, 0.0, 2022-06-07 15:33:44.151
110.0, 39239.359109325305, 13727.681485138117, -19322.09960485692, -22527.18329753677, -8937.322668710074, -9354.875606879665, 14682.637415246656, 2493.784128878609, 0.096, 0.964, 0.368, 192.0, 0.0, 0.0, 0.0, 0.0, 0.0, 0.0, 0.0, 0.0, 0.0, 1.65460882415153E9, 0.0, 2022-06-07 15:33:44.151
111.0, 39128.36034636025, 13688.90120850816, -19369.507654846628, -22539.968495365203, -8955.092305552043, -9313.547231381803, 14622.198298239506, 2432.2944798820595, 0.096, 0.964, 0.368, 192.0, 0.0, 0.0, 0.0, 0.0, 0.0, 0.0, 0.0, 0.0, 0.0, 1.654608824151533E9, 0.0, 2022-06-07 15:33:44.151
112.0, 39075.58787770127, 13668.672879776106, -19381.152913707843, -22572.445580058764, -8950.666660149893, -9345.08554280824, 14622.17594649505, 2447.940701000774, 0.096, 0.964, 0.368, 192.0, 0.0, 0.0, 0.0, 0.0, 0.0, 0.0, 0.0, 0.0, 0.0, 1.654608824151536E9, 0.0, 2022-06-07 15:33:44.151
113.0, 39132.65188129567, 13682.955644483049, -19361.058695442523, -22591.84689424597, -8952.410096217405, -9437.711171831033, 14608.809603310778, 2474.3381112024917, 0.096, 0.964, 0.368, 192.0, 0.0, 0.0, 0.0, 0.0, 0.0, 0.0, 0.0, 0.0, 0.0, 1.654608824151538E9, 0.0, 2022-06-07 15:33:44.151
114.0, 39240.1637721257, 13742.38893298971, -19321.585514734452, -22555.525309506098, -8913.585116098538, -9427.384665892681, 14605.166268964562, 2473.0640617685394, 0.096, 0.964, 0.368, 192.0, 0.0, 0.0, 0.0, 0.0, 0.0, 0.0, 0.0, 0.0, 0.0, 1.654608824151541E9, 0.0, 2022-06-07 15:33:44.151
115.0, 39231.91597842169, 13731.928316584626, -19338.483433542664, -22534.022931340092, -8921.855261547002, -9341.665725906578, 14576.153704661574, 2434.797875261054, 0.096, 0.964, 0.368, 192.0, 0.0, 0.0, 0.0, 0.0, 0.0, 0.0, 0.0, 0.0, 0.0, 1.654608824151544E9, 0.0, 2022-06-07 15:33:44.151
116.0, 39112.959994430545, 13661.855597717238, -19397.447335415764, -22560.599155497453, -8958.556825942615, -9309.814490057766, 14542.02259087832, 2399.7056364662217, 0.096, 0.964, 0.368, 192.0, 0.0, 0.0, 0.0, 0.0, 0.0, 0.0, 0.0, 0.0, 0.0, 1.654608824151547E9, 0.0, 2022-06-07 15:33:44.151
117.0, 39046.44120293155, 13616.16863205059, -19411.95361756726, -22588.315318622033, -8947.984450815255, -9328.36643795567, 14612.855269057187, 2419.6433925203555, 0.112, 0.994, 0.366, 192.0, 3.0, 128.0, 31.0, 16.0, 11.0, 112.0, 0.0, 0.0, 0.0, 1.65460882415155E9, 0.0, 2022-06-07 15:33:44.151
118.0, 39107.75203797246, 13638.207452083523, -19388.908969033833, -22605.32499615252, -8932.114712251987, -9400.450813824036, 14655.882377133654, 2423.018505933107, 0.112, 0.994, 0.366, 192.0, 0.0, 0.0, 0.0, 0.0, 0.0, 0.0, 0.0, 0.0, 0.0, 1.654608824151553E9, 0.0, 2022-06-07 15:33:44.151
119.0, 39217.61086197029, 13671.019812943914, -19351.514500560108, -22572.46793180322, -8885.958359951777, -9395.242857365949, 14723.272886666404, 2492.2642102556483, 0.112, 0.994, 0.366, 192.0, 0.0, 0.0, 0.0, 0.0, 0.0, 0.0, 0.0, 0.0, 0.0, 1.654608824151556E9, 0.0, 2022-06-07 15:33:44.151
120.0, 39202.434027485135, 13653.294879590856, -19373.285099659577, -22565.024800899602, -8903.795052027113, -9376.690909468045, 14667.728801694966, 2491.504250944168, 0.112, 0.994, 0.366, 192.0, 0.0, 0.0, 0.0, 0.0, 0.0, 0.0, 0.0, 0.0, 0.0, 1.654608824210089E9, 0.0, 2022-06-07 15:33:44.210
121.0, 39091.97170638701, 13615.386320994654, -19412.847687345467, -22578.100571405957, -8947.67152639288, -9285.629902557124, 14582.769821020345, 2407.1264156253833, 0.112, 0.994, 0.366, 192.0, 0.0, 0.0, 0.0, 0.0, 0.0, 0.0, 0.0, 0.0, 0.0, 1.654608824210096E9, 0.0, 2022-06-07 15:33:44.210
122.0, 39009.13614143564, 13559.797532534307, -19452.36557154245, -22618.981912014715, -9008.200050377853, -9307.199335956495, 14545.867090924632, 2373.017653586585, 0.112, 0.994, 0.366, 192.0, 0.0, 0.0, 0.0, 0.0, 0.0, 0.0, 0.0, 0.0, 0.0, 1.654608824210098E9, 0.0, 2022-06-07 15:33:44.210
123.0, 39080.818185903816, 13580.204675222001, -19432.964257355245, -22640.14901401389, -9000.30988458513, -9395.309912599316, 14571.079858670219, 2419.822206475998, 0.112, 0.994, 0.366, 192.0, 0.0, 0.0, 0.0, 0.0, 0.0, 0.0, 0.0, 0.0, 0.0, 1.6546088242101E9, 0.0, 2022-06-07 15:33:44.210
124.0, 39201.76347515148, 13622.896507131638, -19390.294777190065, -22603.335690895998, -8955.114657296499, -9374.85806642271, 14612.564696379268, 2394.2518108191266, 0.112, 0.994, 0.366, 192.0, 0.0, 0.0, 0.0, 0.0, 0.0, 0.0, 0.0, 0.0, 0.0, 1.654608824210103E9, 0.0, 2022-06-07 15:33:44.210
125.0, 39195.81791112637, 13620.214297797002, -19399.16841973882, -22575.75363823815, -8957.48394220876, -9319.112815751174, 14633.552984422802, 2429.9922502031627, 0.112, 0.994, 0.366, 192.0, 0.0, 0.0, 0.0, 0.0, 0.0, 0.0, 0.0, 0.0, 0.0, 1.654608824210105E9, 0.0, 2022-06-07 15:33:44.210
126.0, 39071.989246843965, 13574.572035619263, -19454.75720819917, -22604.27446416312, -8999.795794462658, -9318.464615161969, 14595.465611870959, 2436.809532262031, 0.112, 0.994, 0.366, 192.0, 0.0, 0.0, 0.0, 0.0, 0.0, 0.0, 0.0, 0.0, 0.0, 1.654608824210107E9, 0.0, 2022-06-07 15:33:44.210
127.0, 38990.62889702665, 13535.545889800298, -19488.910673726878, -22656.264621766168, -9053.46233289985, -9365.693851196034, 14602.03702474082, 2419.8669099649087, 0.136, 0.986, 0.402, 192.0, 4.0, 64.0, 30.0, 208.0, 12.0, 144.0, 0.0, 0.0, 0.0, 1.654608824210109E9, 0.0, 2022-06-07 15:33:44.210
128.0, 39071.49750846595, 13577.008375764892, -19434.79710040058, -22648.62032516245, -9031.870547756023, -9393.499421298435, 14618.331446448738, 2371.0283483300627, 0.136, 0.986, 0.402, 192.0, 0.0, 0.0, 0.0, 0.0, 0.0, 0.0, 0.0, 0.0, 0.0, 1.654608824210121E9, 0.0, 2022-06-07 15:33:44.210
129.0, 39167.27473345694, 13604.322207489278, -19382.35990790843, -22595.62433905892, -8980.997977375744, -9335.407237459092, 14619.56079239378, 2439.8046660190425, 0.136, 0.986, 0.402, 192.0, 0.0, 0.0, 0.0, 0.0, 0.0, 0.0, 0.0, 0.0, 0.0, 1.654608824210123E9, 0.0, 2022-06-07 15:33:44.210
130.0, 39169.71107360257, 13615.900411117127, -19381.756410808135, -22557.201690340244, -8995.057224638133, -9278.633806542612, 14633.307115233794, 2508.983315108218, 0.136, 0.986, 0.402, 192.0, 0.0, 0.0, 0.0, 0.0, 0.0, 0.0, 0.0, 0.0, 0.0, 1.654608824210125E9, 0.0, 2022-06-07 15:33:44.210
131.0, 39078.62771494719, 13619.186117552057, -19401.872980817912, -22548.529213491587, -9028.584841321093, -9232.835082153688, 14625.551059907802, 2494.812309123553, 0.136, 0.986, 0.402, 192.0, 0.0, 0.0, 0.0, 0.0, 0.0, 0.0, 0.0, 0.0, 0.0, 1.654608824210128E9, 0.0, 2022-06-07 15:33:44.210
132.0, 39021.34019390824, 13630.339638035255, -19405.806887842045, -22579.776952240107, -9024.203899407852, -9322.823205330755, 14662.923176637076, 2556.1454959089156, 0.136, 0.986, 0.402, 192.0, 0.0, 0.0, 0.0, 0.0, 0.0, 0.0, 0.0, 0.0, 0.0, 1.65460882421013E9, 0.0, 2022-06-07 15:33:44.210
133.0, 39108.132017628195, 13648.153978366136, -19363.58444256597, -22581.833312729992, -8985.334215800074, -9339.98934507243, 14747.032791022397, 2526.7753036946424, 0.136, 0.986, 0.402, 192.0, 0.0, 0.0, 0.0, 0.0, 0.0, 0.0, 0.0, 0.0, 0.0, 1.654608824210132E9, 0.0, 2022-06-07 15:33:44.210
134.0, 39218.34846953732, 13662.70496400654, -19326.793471192537, -22512.699367129728, -8948.543244426637, -9167.277415666273, 14782.54971296188, 2497.047483569084, 0.136, 0.986, 0.402, 192.0, 0.0, 0.0, 0.0, 0.0, 0.0, 0.0, 0.0, 0.0, 0.0, 1.654608824210134E9, 0.0, 2022-06-07 15:33:44.210
135.0, 39216.11329509179, 13649.897414433648, -19336.382369563864, -22498.058974511503, -8948.319726982085, -9116.583659241636, 14717.752005785944, 2501.8307568825194, 0.136, 0.986, 0.402, 192.0, 0.0, 0.0, 0.0, 0.0, 0.0, 0.0, 0.0, 0.0, 0.0, 1.654608824270729E9, 0.0, 2022-06-07 15:33:44.270
136.0, 39097.47023552302, 13615.073396572281, -19388.193713211265, -22526.69155915875, -9002.321541586107, -9117.18715634193, 14633.597687911713, 2449.594730090467, 0.136, 0.986, 0.402, 192.0, 0.0, 0.0, 0.0, 0.0, 0.0, 0.0, 0.0, 0.0, 0.0, 1.654608824270734E9, 0.0, 2022-06-07 15:33:44.270
137.0, 39050.08453727776, 13614.983989594459, -19394.2286842142, -22551.546698993054, -9051.204806709864, -9156.682688794457, 14635.788158868332, 2456.9931575051737, 0.164, 0.994, 0.466, 192.0, 5.0, 32.0, 31.0, 16.0, 14.0, 144.0, 0.0, 0.0, 0.0, 1.654608824270736E9, 0.0, 2022-06-07 15:33:44.270
138.0, 39121.431305579106, 13630.250231057435, -19374.805018282535, -22578.480551061697, -9059.69846960288, -9255.075067886719, 14691.712223495511, 2505.9881813512065, 0.164, 0.994, 0.466, 192.0, 0.0, 0.0, 0.0, 0.0, 0.0, 0.0, 0.0, 0.0, 0.0, 1.654608824270739E9, 0.0, 2022-06-07 15:33:44.270
139.0, 39238.77796396947, 13667.599996042252, -19348.720532503194, -22565.516539277618, -9012.35747484654, -9269.246073871383, 14734.985200760986, 2515.979411122729, 0.164, 0.994, 0.466, 192.0, 0.0, 0.0, 0.0, 0.0, 0.0, 0.0, 0.0, 0.0, 0.0, 1.654608824270741E9, 0.0, 2022-06-07 15:33:44.270
140.0, 39225.99276614103, 13636.687533460563, -19380.571768352005, -22555.771178695104, -9032.988134978788, -9203.643703895057, 14703.91627596811, 2449.0582882235394, 0.164, 0.994, 0.466, 192.0, 0.0, 0.0, 0.0, 0.0, 0.0, 0.0, 0.0, 0.0, 0.0, 1.654608824270743E9, 0.0, 2022-06-07 15:33:44.270
141.0, 39108.37788681721, 13566.97244250446, -19427.957466597258, -22573.540815537075, -9107.844127159611, -9184.57766587468, 14677.09418262174, 2434.842578749964, 0.164, 0.994, 0.466, 192.0, 0.0, 0.0, 0.0, 0.0, 0.0, 0.0, 0.0, 0.0, 0.0, 1.654608824270745E9, 0.0, 2022-06-07 15:33:44.270
142.0, 39051.76091811191, 13532.10372115418, -19437.903992879867, -22612.745775311683, -9145.775037500267, -9228.811768151732, 14686.392508315148, 2461.843486051975, 0.164, 0.994, 0.466, 192.0, 0.0, 0.0, 0.0, 0.0, 0.0, 0.0, 0.0, 0.0, 0.0, 1.654608824270747E9, 0.0, 2022-06-07 15:33:44.270
143.0, 39121.274843367915, 13542.944317215004, -19421.453108960763, -22626.447394662788, -9148.81487474619, -9313.390769170615, 14650.13797880864, 2462.3575761744473, 0.164, 0.994, 0.466, 192.0, 0.0, 0.0, 0.0, 0.0, 0.0, 0.0, 0.0, 0.0, 0.0, 1.65460882427075E9, 0.0, 2022-06-07 15:33:44.270
144.0, 39241.14724888173, 13546.230023649934, -19406.343329708976, -22615.04800499058, -9142.914014209988, -9348.393600987625, 14661.7608859254, 2439.335279385481, 0.164, 0.994, 0.466, 192.0, 0.0, 0.0, 0.0, 0.0, 0.0, 0.0, 0.0, 0.0, 0.0, 1.654608824270752E9, 0.0, 2022-06-07 15:33:44.270
145.0, 39232.45242028862, 13517.306866324767, -19423.46476596174, -22591.66808029033, -9143.964546199388, -9271.280082616817, 14634.692923390023, 2409.8086249600206, 0.164, 0.994, 0.466, 192.0, 0.0, 0.0, 0.0, 0.0, 0.0, 0.0, 0.0, 0.0, 0.0, 1.654608824270754E9, 0.0, 2022-06-07 15:33:44.270
146.0, 39095.23506107749, 13486.170886298525, -19470.76105722917, -22615.450336390775, -9187.706910098423, -9286.278103146327, 14620.141937749619, 2402.3207905674926, 0.164, 0.994, 0.466, 192.0, 0.0, 0.0, 0.0, 0.0, 0.0, 0.0, 0.0, 0.0, 0.0, 1.654608824270756E9, 0.0, 2022-06-07 15:33:44.270
147.0, 39022.211911941995, 13451.145702737058, -19498.61133082048, -22676.87293015396, -9243.139236347584, -9394.90758119912, 14577.651271540079, 2403.9301161682747, 0.108, 0.9, 0.514, 192.0, 3.0, 96.0, 28.0, 32.0, 16.0, 16.0, 0.0, 0.0, 0.0, 1.654608824270759E9, 0.0, 2022-06-07 15:33:44.270
148.0, 39096.08442736679, 13419.875612244085, -19509.38487164794, -22726.426747611375, -9236.009029866342, -9561.94216751363, 14582.143972175596, 2440.3187561415143, 0.108, 0.9, 0.514, 192.0, 0.0, 0.0, 0.0, 0.0, 0.0, 0.0, 0.0, 0.0, 0.0, 1.654608824270761E9, 0.0, 2022-06-07 15:33:44.270
