%OpenBCI Raw EEG Data
%Number of channels = 8
%Sample Rate = 250 Hz
%Board = OpenBCI_GUI$BoardCytonSerial
Sample Index, EXG Channel 0, EXG Channel 1, EXG Channel 2, EXG Channel 3, EXG Channel 4, EXG Channel 5, EXG Channel 6, EXG Channel 7, Accel Channel 0, Accel Channel 1, Accel Channel 2, Other, Other, Other, Other, Other, Other, Other, Analog Channel 0, Analog Channel 1, Analog Channel 2, Timestamp, Other, Timestamp (Formatted)
168.0, 16770.715030516985, -21.837654332835, -52917.97851538403, -44156.74288949286, -19689.964615102366, -20378.13012339236, -655.934292785441, -6534.95717465367, 0.0, 0.0, 0.0, 192.0, 0.0, 0.0, 0.0, 0.0, 0.0, 0.0, 0.0, 0.0, 0.0, 1.654173315825446E9, 0.0, 2022-06-02 14:35:15.825
169.0, 16785.064850457293, -13.500453651005467, -52920.14663459619, -44157.30168310424, -19690.970443602855, -20386.17675139627, -657.387156175036, -6557.644195275807, 0.0, 0.0, 0.0, 192.0, 0.0, 0.0, 0.0, 0.0, 0.0, 0.0, 0.0, 0.0, 0.0, 1.6541733158254523E9, 0.0, 2022-06-02 14:35:15.825
170.0, 16783.43317311206, -15.959145541089242, -52915.27395430493, -44185.867212518126, -19698.83825765112, -20415.770461055097, -664.0703277671728, -6591.551791614508, 0.0, 0.0, 0.0, 192.0, 0.0, 0.0, 0.0, 0.0, 0.0, 0.0, 0.0, 0.0, 0.0, 1.654173315825458E9, 0.0, 2022-06-02 14:35:15.825
171.0, 16785.958920235506, -10.147691982709407, -52893.86098311675, -44149.14329637805, -19698.011243106277, -20414.89874302134, -650.7039845828992, -6566.20491340219, 0.0, 0.0, 0.0, 192.0, 0.0, 0.0, 0.0, 0.0, 0.0, 0.0, 0.0, 0.0, 0.0, 1.6541733158254635E9, 0.0, 2022-06-02 14:35:15.825
172.0, 16785.198960924026, -2.928078523645225, -52885.38967196819, -44137.56509275021, -19682.40972547647, -20371.245786100124, -643.1267432125501, -6521.09909309138, -0.006, 0.986, 0.314, 192.0, 255.0, 208.0, 30.0, 208.0, 9.0, 208.0, 0.0, 0.0, 0.0, 1.6541733158254688E9, 0.0, 2022-06-02 14:35:15.825
173.0, 16791.166876693595, -5.431473902639616, -52895.80558488436, -44149.3221103337, -19669.110437525564, -20341.965000863675, -635.3483361421032, -6500.759005637051, -0.006, 0.986, 0.314, 192.0, 0.0, 0.0, 0.0, 0.0, 0.0, 0.0, 0.0, 0.0, 0.0, 1.654173315825474E9, 0.0, 2022-06-02 14:35:15.825
174.0, 16792.08329821626, -12.204052472597656, -52912.99407637049, -44118.78962740775, -19675.03364980622, -20357.477111515655, -636.3094611536815, -6511.040808086492, -0.006, 0.986, 0.314, 192.0, 0.0, 0.0, 0.0, 0.0, 0.0, 0.0, 0.0, 0.0, 0.0, 1.6541733158254795E9, 0.0, 2022-06-02 14:35:15.825
175.0, 16803.28152218837, -7.15255822569826, -52927.05332363288, -44140.11319161811, -19692.28919652572, -20387.02611768557, -653.8779322955528, -6545.10486663638, -0.006, 0.986, 0.314, 192.0, 0.0, 0.0, 0.0, 0.0, 0.0, 0.0, 0.0, 0.0, 0.0, 1.6541733158254848E9, 0.0, 2022-06-02 14:35:15.825
176.0, 16805.784917567362, -3.911555279678736, -52880.1817155101, -44111.10062731512, -19693.6973564264, -20395.45272534522, -641.0927344671172, -6549.284642849522, -0.006, 0.986, 0.314, 192.0, 0.0, 0.0, 0.0, 0.0, 0.0, 0.0, 0.0, 0.0, 0.0, 1.65417331582549E9, 0.0, 2022-06-02 14:35:15.825
177.0, 16792.37387089418, -8.851290804301597, -52851.54913086285, -44115.459217483905, -19670.965632315354, -20372.07280064497, -614.0918271651062, -6527.0223053720365, -0.006, 0.986, 0.314, 192.0, 0.0, 0.0, 0.0, 0.0, 0.0, 0.0, 0.0, 0.0, 0.0, 1.6541733158254972E9, 0.0, 2022-06-02 14:35:15.825
178.0, 16786.629472569166, -20.00481128749982, -52891.69286390458, -44141.99073815236, -19674.676021894935, -20352.69383820222, -629.6039378170893, -6507.330418506911, -0.006, 0.986, 0.314, 192.0, 0.0, 0.0, 0.0, 0.0, 0.0, 0.0, 0.0, 0.0, 0.0, 1.6541733158255024E9, 0.0, 2022-06-02 14:35:15.825
179.0, 16806.701339090032, 1.5646221118714945, -52901.97466635402, -44156.295854603755, -19677.93937658541, -20356.73950394863, -649.4075834044914, -6504.447043472176, -0.006, 0.986, 0.314, 192.0, 0.0, 0.0, 0.0, 0.0, 0.0, 0.0, 0.0, 0.0, 0.0, 1.6541733158255076E9, 0.0, 2022-06-02 14:35:15.825
180.0, 16822.23580148647, 19.02133453146631, -52893.07867206081, -44146.014052154314, -19679.772219630744, -20380.4100013268, -651.2851299387372, -6520.808520413461, -0.006, 0.986, 0.314, 192.0, 0.0, 0.0, 0.0, 0.0, 0.0, 0.0, 0.0, 0.0, 0.0, 1.6541733158255131E9, 0.0, 2022-06-02 14:35:15.825
181.0, 16806.61193211221, 14.036895517932836, -52871.039852027876, -44144.7176509759, -19676.933548084922, -20389.574216553476, -628.3522401275922, -6522.9095843922605, -0.006, 0.986, 0.314, 192.0, 0.0, 0.0, 0.0, 0.0, 0.0, 0.0, 0.0, 0.0, 0.0, 1.6541733158255184E9, 0.0, 2022-06-02 14:35:15.825
182.0, 16791.725670304975, -6.861985547779268, -52883.333311478294, -44138.61562473961, -19669.579824159126, -20375.872597202375, -614.7847312432208, -6510.86199413085, -0.002, 1.0, 0.338, 192.0, 255.0, 240.0, 31.0, 64.0, 10.0, 144.0, 0.0, 0.0, 0.0, 1.6541733158255236E9, 0.0, 2022-06-02 14:35:15.825
183.0, 16795.860743029207, -5.364418669273695, -52899.11364306374, -44144.36002306462, -19662.404914188974, -20360.226376083658, -625.5135685817681, -6510.034979586003, -0.002, 1.0, 0.338, 192.0, 0.0, 0.0, 0.0, 0.0, 0.0, 0.0, 0.0, 0.0, 0.0, 1.6541733158255296E9, 0.0, 2022-06-02 14:35:15.825
184.0, 16819.4194816851, 10.997058272011074, -52890.30705574835, -44133.65353747053, -19658.672172864935, -20358.304126060502, -629.8051035171871, -6516.516985478042, -0.002, 1.0, 0.338, 192.0, 0.0, 0.0, 0.0, 0.0, 0.0, 0.0, 0.0, 0.0, 0.0, 1.6541733158255348E9, 0.0, 2022-06-02 14:35:15.825
185.0, 16819.66535087411, 3.509223879483209, -52894.55388719486, -44144.7176509759, -19678.028783563233, -20385.662661273796, -645.0489932357066, -6521.881404147316, -0.002, 1.0, 0.338, 192.0, 0.0, 0.0, 0.0, 0.0, 0.0, 0.0, 0.0, 0.0, 0.0, 1.65417331582554E9, 0.0, 2022-06-02 14:35:15.825
186.0, 16805.18142046707, -2.3245814233519346, -52878.79590735387, -44137.92272066149, -19681.202731275884, -20400.146591680837, -643.4173158904691, -6522.596659969886, -0.002, 1.0, 0.338, 192.0, 0.0, 0.0, 0.0, 0.0, 0.0, 0.0, 0.0, 0.0, 0.0, 1.6541733158255453E9, 0.0, 2022-06-02 14:35:15.825
187.0, 16797.067737229794, -1.9446017676117144, -52864.043756013365, -44129.20554032392, -19652.59249837309, -20370.664640744286, -623.0548766916844, -6509.09620631888, -0.002, 1.0, 0.338, 192.0, 0.0, 0.0, 0.0, 0.0, 0.0, 0.0, 0.0, 0.0, 0.0, 1.6541733158255506E9, 0.0, 2022-06-02 14:35:15.825
188.0, 16795.57017035129, -5.364418669273695, -52885.926113835114, -44198.96533476893, -19640.902536022968, -20359.622878983366, -626.3852866155252, -6508.984447596604, -0.002, 1.0, 0.338, 192.0, 0.0, 0.0, 0.0, 0.0, 0.0, 0.0, 0.0, 0.0, 0.0, 1.654173315825556E9, 0.0, 2022-06-02 14:35:15.825
189.0, 16793.782030794864, -11.287630949930067, -52907.741416423494, -44186.40365438505, -19650.446730905383, -20372.743352978632, -624.3065743811816, -6509.565592952442, -0.002, 1.0, 0.338, 192.0, 0.0, 0.0, 0.0, 0.0, 0.0, 0.0, 0.0, 0.0, 0.0, 1.6541733158255613E9, 0.0, 2022-06-02 14:35:15.825
190.0, 16805.13671697816, 6.303191936396591, -52897.50431746296, -44169.773956510304, -19657.398123430983, -20380.857036215908, -622.5631383136677, -6507.017494084536, -0.002, 1.0, 0.338, 192.0, 0.0, 0.0, 0.0, 0.0, 0.0, 0.0, 0.0, 0.0, 0.0, 1.65417331582557E9, 0.0, 2022-06-02 14:35:15.825
191.0, 16805.5166966339, 14.439226918128362, -52879.17588700961, -44142.14720036354, -19655.87820480802, -20400.481867847666, -626.452341848891, -6501.273095759523, -0.002, 1.0, 0.338, 192.0, 0.0, 0.0, 0.0, 0.0, 0.0, 0.0, 0.0, 0.0, 0.0, 1.6541733158255754E9, 0.0, 2022-06-02 14:35:15.825
192.0, 16798.878228530673, 11.891128050223358, -52878.55003816486, -44111.36884824859, -19634.532288853203, -20368.6082802544, -618.0704376781509, -6478.787240837484, 0.002, 0.972, 0.35000000000000003, 192.0, 0.0, 16.0, 30.0, 96.0, 10.0, 240.0, 0.0, 0.0, 0.0, 1.6541733158255808E9, 0.0, 2022-06-02 14:35:15.825
193.0, 16788.037632469848, 10.460616405083705, -52894.77740463942, -44146.97517716589, -19615.60036129956, -20338.88046012884, -616.774036499743, -6464.079792985892, 0.002, 0.972, 0.35000000000000003, 192.0, 0.0, 0.0, 0.0, 0.0, 0.0, 0.0, 0.0, 0.0, 0.0, 1.654173315825586E9, 0.0, 2022-06-02 14:35:15.825
194.0, 16775.16302766359, -12.002886772499892, -52927.67917247763, -44181.48627060488, -19637.102739465565, -20359.846396427918, -646.8147810476758, -6482.363519950333, 0.002, 0.972, 0.35000000000000003, 192.0, 0.0, 0.0, 0.0, 0.0, 0.0, 0.0, 0.0, 0.0, 0.0, 1.654173315825591E9, 0.0, 2022-06-02 14:35:15.825
195.0, 16782.38264112266, -14.68509610713674, -52926.963916655055, -44185.62134332912, -19649.440902404895, -20387.65196653032, -645.5407316137233, -6501.04957831497, 0.002, 0.972, 0.35000000000000003, 192.0, 0.0, 0.0, 0.0, 0.0, 0.0, 0.0, 0.0, 0.0, 0.0, 1.6541733158255973E9, 0.0, 2022-06-02 14:35:15.825
196.0, 16775.699469530522, -17.412008930684202, -52909.12722457972, -44167.98581695388, -19648.36801867104, -20395.743298023142, -627.3911151160139, -6498.702645147163, 0.002, 0.972, 0.35000000000000003, 192.0, 0.0, 0.0, 0.0, 0.0, 0.0, 0.0, 0.0, 0.0, 0.0, 1.6541733158256028E9, 0.0, 2022-06-02 14:35:15.825
197.0, 16765.5070740589, -16.115607752276393, -52903.78515765491, -44160.69914826145, -19624.608114315048, -20357.544166749023, -609.9344026964192, -6465.1526767197465, 0.002, 0.972, 0.35000000000000003, 192.0, 0.0, 0.0, 0.0, 0.0, 0.0, 0.0, 0.0, 0.0, 0.0, 1.654173315825622E9, 0.0, 2022-06-02 14:35:15.825
198.0, 16755.627603009656, -32.65589864920362, -52932.283631835424, -44187.07420671871, -19627.513841094238, -20350.5033672456, -620.3279638681369, -6462.001080751548, 0.002, 0.972, 0.35000000000000003, 192.0, 0.0, 0.0, 0.0, 0.0, 0.0, 0.0, 0.0, 0.0, 0.0, 1.654173315825627E9, 0.0, 2022-06-02 14:35:15.825
199.0, 16768.278690371357, -25.235119490041672, -52934.38469581422, -44189.53289860879, -19630.240753917784, -20356.873614415363, -630.4756558508464, -6462.1575429627355, 0.002, 0.972, 0.35000000000000003, 192.0, 0.0, 0.0, 0.0, 0.0, 0.0, 0.0, 0.0, 0.0, 0.0, 1.6541733158256333E9, 0.0, 2022-06-02 14:35:15.825
200.0, 16764.27772811386, -23.60344214480426, -52942.65484126268, -44199.501776635865, -19652.23487046181, -20389.84243748694, -650.9722055163629, -6489.873706087316, 0.002, 0.972, 0.35000000000000003, 192.0, 0.0, 0.0, 0.0, 0.0, 0.0, 0.0, 0.0, 0.0, 0.0, 1.6541733158256552E9, 0.0, 2022-06-02 14:35:15.825
201.0, 16762.199015879516, -29.638413147737165, -52935.52463478144, -44186.068378218224, -19669.28925148121, -20412.57416159799, -657.8118393196869, -6505.922258606227, 0.002, 0.972, 0.35000000000000003, 192.0, 0.0, 0.0, 0.0, 0.0, 0.0, 0.0, 0.0, 0.0, 0.0, 1.654173315825667E9, 0.0, 2022-06-02 14:35:15.825
202.0, 16775.900635230617, -18.239023475530562, -52916.57035548334, -44174.75839552384, -19646.311658181152, -20381.907568205308, -639.6845745664328, -6485.1127845183355, 0.008, 0.964, 0.34800000000000003, 192.0, 0.0, 64.0, 30.0, 32.0, 10.0, 224.0, 0.0, 0.0, 0.0, 1.6541733158256729E9, 0.0, 2022-06-02 14:35:15.825
203.0, 16768.23398688245, -30.264261992485764, -52939.81616971686, -44179.496965348364, -19647.31748668164, -20374.33032683496, -650.3463566716143, -6488.577304908908, 0.008, 0.964, 0.34800000000000003, 192.0, 0.0, 0.0, 0.0, 0.0, 0.0, 0.0, 0.0, 0.0, 0.0, 1.6541733158256786E9, 0.0, 2022-06-02 14:35:15.825
204.0, 16766.37879209266, -36.25452950650806, -52968.80638227539, -44211.45995991945, -19669.46806543685, -20399.69955679173, -677.9060575850079, -6499.216735269634, 0.008, 0.964, 0.34800000000000003, 192.0, 0.0, 0.0, 0.0, 0.0, 0.0, 0.0, 0.0, 0.0, 0.0, 1.654173315825684E9, 0.0, 2022-06-02 14:35:15.825
205.0, 16780.974481221972, -39.160256285697976, -52995.404958177205, -44260.85731516568, -19690.79162964721, -20432.109586251925, -694.3792932485692, -6516.919316878238, 0.008, 0.964, 0.34800000000000003, 192.0, 0.0, 0.0, 0.0, 0.0, 0.0, 0.0, 0.0, 0.0, 0.0, 1.6541733158256896E9, 0.0, 2022-06-02 14:35:15.825
206.0, 16783.120248689684, -44.994061588533114, -52957.183475158636, -44207.48134940641, -19700.984025118833, -20455.511862696632, -687.4726042118793, -6536.231224087624, 0.008, 0.964, 0.34800000000000003, 192.0, 0.0, 0.0, 0.0, 0.0, 0.0, 0.0, 0.0, 0.0, 0.0, 1.6541733158256948E9, 0.0, 2022-06-02 14:35:15.825
207.0, 16783.83550451225, -32.32062248237401, -52909.30603853537, -44158.32986334919, -19677.22412076284, -20425.560525126522, -663.1986097334159, -6517.165186067246, 0.008, 0.964, 0.34800000000000003, 192.0, 0.0, 0.0, 0.0, 0.0, 0.0, 0.0, 0.0, 0.0, 0.0, 1.6541733158257E9, 0.0, 2022-06-02 14:35:15.825
208.0, 16795.391356395645, -27.291479979929925, -52929.2437945895, -44150.171476623, -19663.50014966728, -20402.918207993294, -668.7865458472427, -6507.263363273545, 0.008, 0.964, 0.34800000000000003, 192.0, 0.0, 0.0, 0.0, 0.0, 0.0, 0.0, 0.0, 0.0, 0.0, 1.654173315825706E9, 0.0, 2022-06-02 14:35:15.825
209.0, 16818.972446795993, -10.34885768280717, -52942.43132381813, -44178.245267658865, -19672.396143960494, -20419.011464001116, -695.1392525600496, -6535.694782220696, 0.008, 0.964, 0.34800000000000003, 192.0, 0.0, 0.0, 0.0, 0.0, 0.0, 0.0, 0.0, 0.0, 0.0, 1.6541733158257115E9, 0.0, 2022-06-02 14:35:15.825
210.0, 16829.47776668999, -10.013581515977563, -52933.110646380264, -44177.37354962511, -19685.673080166947, -20434.7247403532, -688.031397823262, -6528.519872250542, 0.008, 0.964, 0.34800000000000003, 192.0, 0.0, 0.0, 0.0, 0.0, 0.0, 0.0, 0.0, 0.0, 0.0, 1.6541733158257167E9, 0.0, 2022-06-02 14:35:15.825
211.0, 16825.454452688035, -10.326505938351863, -52890.619980170726, -44143.6671189865, -19673.089048038608, -20429.248562961646, -646.8818362810417, -6474.339243690878, 0.008, 0.964, 0.34800000000000003, 192.0, 0.0, 0.0, 0.0, 0.0, 0.0, 0.0, 0.0, 0.0, 0.0, 1.6541733158257256E9, 0.0, 2022-06-02 14:35:15.825
212.0, 16810.165859480603, -17.34495369731828, -52880.338177721285, -44144.203560853435, -19651.117283239044, -20405.17573418328, -626.4970453378016, -6449.618214323308, 0.012, 0.972, 0.342, 192.0, 0.0, 96.0, 30.0, 96.0, 10.0, 176.0, 0.0, 0.0, 0.0, 1.6541733158257344E9, 0.0, 2022-06-02 14:35:15.825
213.0, 16808.020092012895, -28.811398602890804, -52902.84638438778, -44156.58642728167, -19643.80826280216, -20388.791905497543, -630.520359339757, -6463.073964485403, 0.012, 0.972, 0.342, 192.0, 0.0, 0.0, 0.0, 0.0, 0.0, 0.0, 0.0, 0.0, 0.0, 1.65417331582574E9, 0.0, 2022-06-02 14:35:15.825
214.0, 16811.75283333693, -40.38960223073986, -52936.32929758183, -44188.63882883058, -19668.350478214084, -20415.904571521827, -671.289941226237, -6505.743444650584, 0.012, 0.972, 0.342, 192.0, 0.0, 0.0, 0.0, 0.0, 0.0, 0.0, 0.0, 0.0, 0.0, 1.6541733158257453E9, 0.0, 2022-06-02 14:35:15.825
215.0, 16824.470975932, -38.176779529664465, -52939.39148657221, -44179.83224151519, -19689.271711024252, -20436.982266543182, -692.9487816034296, -6523.602488470375, 0.012, 0.972, 0.342, 192.0, 0.0, 0.0, 0.0, 0.0, 0.0, 0.0, 0.0, 0.0, 0.0, 1.6541733158257508E9, 0.0, 2022-06-02 14:35:15.825
216.0, 16823.04046428686, -37.707392896103016, -52919.85606191827, -44154.060680158225, -19695.843123894112, -20432.400158929846, -684.1198425435832, -6511.733712164607, 0.012, 0.972, 0.342, 192.0, 0.0, 0.0, 0.0, 0.0, 0.0, 0.0, 0.0, 0.0, 0.0, 1.654173315825756E9, 0.0, 2022-06-02 14:35:15.825
217.0, 16819.03950202936, -43.45179122111693, -52911.09417809179, -44158.12869764909, -19680.08514405312, -20420.486679135167, -672.8545633381085, -6493.338226477889, 0.012, 0.972, 0.342, 192.0, 0.0, 0.0, 0.0, 0.0, 0.0, 0.0, 0.0, 0.0, 0.0, 1.6541733158257613E9, 0.0, 2022-06-02 14:35:15.825
218.0, 16811.70812984802, -53.91240762620063, -52933.535329524915, -44186.78363404079, -19675.145408528497, -20402.582931826466, -666.3502057016142, -6484.8222118404165, 0.012, 0.972, 0.342, 192.0, 0.0, 0.0, 0.0, 0.0, 0.0, 0.0, 0.0, 0.0, 0.0, 1.6541733158257663E9, 0.0, 2022-06-02 14:35:15.825
219.0, 16816.111423505714, -54.158276815209014, -52946.2981756089, -44185.442529373475, -19685.203693533385, -20416.79864130004, -675.3132552281922, -6507.464528973643, 0.012, 0.972, 0.342, 192.0, 0.0, 0.0, 0.0, 0.0, 0.0, 0.0, 0.0, 0.0, 0.0, 1.6541733158257716E9, 0.0, 2022-06-02 14:35:15.825
220.0, 16842.553537196345, -32.14180852673156, -52935.368172570255, -44182.715616549925, -19691.216312791865, -20436.51287990962, -681.3258744866699, -6527.089360605402, 0.012, 0.972, 0.342, 192.0, 0.0, 0.0, 0.0, 0.0, 0.0, 0.0, 0.0, 0.0, 0.0, 1.6541733158257773E9, 0.0, 2022-06-02 14:35:15.825
221.0, 16841.77122614041, -35.51692193948292, -52918.04557061739, -44175.875982746606, -19704.269731553763, -20452.896708595363, -670.0158917922845, -6531.045619373992, 0.012, 0.972, 0.342, 192.0, 0.0, 0.0, 0.0, 0.0, 0.0, 0.0, 0.0, 0.0, 0.0, 1.6541733158257823E9, 0.0, 2022-06-02 14:35:15.825
222.0, 16819.57594389629, -39.31671849688512, -52916.346838038786, -44206.65433486156, -19692.93739711492, -20430.164984484316, -668.2724557247706, -6526.57527048293, 0.014, 0.974, 0.332, 192.0, 0.0, 112.0, 30.0, 112.0, 10.0, 96.0, 0.0, 0.0, 0.0, 1.654173315825788E9, 0.0, 2022-06-02 14:35:15.825
223.0, 16820.939400308063, -37.260358006996874, -52924.3934660427, -44168.589314054174, -19672.12792302703, -20410.718966808196, -670.0605952811951, -6516.651095944774, 0.014, 0.974, 0.332, 192.0, 0.0, 0.0, 0.0, 0.0, 0.0, 0.0, 0.0, 0.0, 0.0, 1.6541733158257933E9, 0.0, 2022-06-02 14:35:15.825
224.0, 16831.824699857796, -37.79679987392424, -52938.229195860535, -44166.39884309755, -19678.22994926333, -20422.118356480405, -673.8827435830526, -6518.886270390305, 0.014, 0.974, 0.332, 192.0, 0.0, 0.0, 0.0, 0.0, 0.0, 0.0, 0.0, 0.0, 0.0, 1.6541733158257987E9, 0.0, 2022-06-02 14:35:15.825
225.0, 16848.163825054628, -21.032991532443948, -52928.05915213337, -44167.00234019785, -19684.644899922, -20439.306847966534, -666.998406290818, -6523.893061148294, 0.014, 0.974, 0.332, 192.0, 0.0, 0.0, 0.0, 0.0, 0.0, 0.0, 0.0, 0.0, 0.0, 1.654173315825804E9, 0.0, 2022-06-02 14:35:15.825
226.0, 16833.210508014025, -39.2496632635192, -52931.21074810156, -44176.72534903591, -19700.8499146521, -20461.300964510556, -667.9595313023963, -6545.306032336478, 0.014, 0.974, 0.332, 192.0, 0.0, 0.0, 0.0, 0.0, 0.0, 0.0, 0.0, 0.0, 0.0, 1.6541733158258092E9, 0.0, 2022-06-02 14:35:15.825
227.0, 16834.81983361481, -48.59269244583756, -52933.84825394729, -44160.31916860571, -19683.90729235498, -20429.405025172833, -654.9284642849523, -6525.189462326702, 0.014, 0.974, 0.332, 192.0, 0.0, 0.0, 0.0, 0.0, 0.0, 0.0, 0.0, 0.0, 0.0, 1.6541733158258152E9, 0.0, 2022-06-02 14:35:15.825
228.0, 16835.4233307151, -39.20495977460859, -52931.590727757306, -44160.207409883435, -19674.094876539097, -20411.09894646394, -663.3327202001477, -6509.7667586525395, 0.014, 0.974, 0.332, 192.0, 0.0, 0.0, 0.0, 0.0, 0.0, 0.0, 0.0, 0.0, 0.0, 1.6541733158258204E9, 0.0, 2022-06-02 14:35:15.825
229.0, 16843.358199996735, -31.828884104357257, -52918.023218872935, -44189.93523000899, -19678.878149852535, -20420.821955301995, -680.6553221530106, -6521.344962280388, 0.014, 0.974, 0.332, 192.0, 0.0, 0.0, 0.0, 0.0, 0.0, 0.0, 0.0, 0.0, 0.0, 1.6541733158258257E9, 0.0, 2022-06-02 14:35:15.825
230.0, 16859.540862982376, -31.001869559510897, -52927.3438963108, -44233.00704157437, -19695.507847727284, -20442.592554401464, -693.5075752148123, -6545.8648259478605, 0.014, 0.974, 0.332, 192.0, 0.0, 0.0, 0.0, 0.0, 0.0, 0.0, 0.0, 0.0, 0.0, 1.6541733158258307E9, 0.0, 2022-06-02 14:35:15.825
231.0, 16856.590432714278, -32.45473294910585, -52910.46832924704, -44233.811704374755, -19699.397051262506, -20453.99194407367, -674.2850749832481, -6548.077648648936, 0.014, 0.974, 0.332, 192.0, 0.0, 0.0, 0.0, 0.0, 0.0, 0.0, 0.0, 0.0, 0.0, 1.654173315825836E9, 0.0, 2022-06-02 14:35:15.825
232.0, 16845.168691297615, -30.53248292594945, -52903.963971610545, -44141.610758496616, -19682.02974582073, -20429.76265308412, -659.3764614315584, -6510.817290641939, 0.006, 0.978, 0.328, 192.0, 0.0, 48.0, 30.0, 144.0, 10.0, 64.0, 0.0, 0.0, 0.0, 1.6541733158258438E9, 0.0, 2022-06-02 14:35:15.825
233.0, 16841.681819162586, -30.219558503575147, -52927.70152422208, -44167.471726831405, -19674.497207939294, -20410.47309761919, -673.6145226495889, -6528.274003061534, 0.006, 0.978, 0.328, 192.0, 0.0, 0.0, 0.0, 0.0, 0.0, 0.0, 0.0, 0.0, 0.0, 1.6541733158258493E9, 0.0, 2022-06-02 14:35:15.825
234.0, 16866.961642141538, -15.668572863170251, -52926.22630908803, -44171.2268198999, -19665.60121364608, -20404.929864994272, -685.9750373333737, -6552.927977195737, 0.006, 0.978, 0.328, 192.0, 0.0, 0.0, 0.0, 0.0, 0.0, 0.0, 0.0, 0.0, 0.0, 1.6541733158258543E9, 0.0, 2022-06-02 14:35:15.825
235.0, 16875.634118990198, -11.131168738742916, -52924.34876255379, -44184.12377645061, -19678.07348705214, -20437.09402526546, -685.4162437219911, -6554.447895818698, 0.006, 0.978, 0.328, 192.0, 0.0, 0.0, 0.0, 0.0, 0.0, 0.0, 0.0, 0.0, 0.0, 1.6541733158258595E9, 0.0, 2022-06-02 14:35:15.825
236.0, 16864.234729317992, -27.49264568002769, -52916.27978280542, -44186.94009625198, -19695.7984204052, -20452.650839406353, -679.4259762079688, -6542.802636957484, 0.006, 0.978, 0.328, 192.0, 0.0, 0.0, 0.0, 0.0, 0.0, 0.0, 0.0, 0.0, 0.0, 1.6541733158259585E9, 0.0, 2022-06-02 14:35:15.825
237.0, 16849.01319134393, -27.55970091339361, -52913.48581474851, -44190.11404396463, -19674.43015270593, -20415.569295355, -663.2433132223265, -6508.023322585025, 0.006, 0.978, 0.328, 192.0, 0.0, 0.0, 0.0, 0.0, 0.0, 0.0, 0.0, 0.0, 0.0, 1.654173315825964E9, 0.0, 2022-06-02 14:35:15.825
238.0, 16835.959772582028, -37.86385510729016, -52944.10770465228, -44150.59615976765, -19673.93841432791, -20400.683033547764, -682.0858337981504, -6519.668581446241, 0.006, 0.978, 0.328, 192.0, 0.0, 0.0, 0.0, 0.0, 0.0, 0.0, 0.0, 0.0, 0.0, 1.6541733158259692E9, 0.0, 2022-06-02 14:35:15.825
239.0, 16848.029714587894, -36.23217776205275, -52927.81328294436, -44172.94790422296, -19679.32518474164, -20408.506144107123, -695.2510112823262, -6538.265232833056, 0.006, 0.978, 0.328, 192.0, 0.0, 0.0, 0.0, 0.0, 0.0, 0.0, 0.0, 0.0, 0.0, 1.6541733158259745E9, 0.0, 2022-06-02 14:35:15.825
240.0, 16859.22793856, -26.24094799053049, -52927.07567537733, -44183.967314239424, -19685.986004589322, -20422.699501836243, -711.2548603123261, -6547.228282359634, 0.006, 0.978, 0.328, 192.0, 0.0, 0.0, 0.0, 0.0, 0.0, 0.0, 0.0, 0.0, 0.0, 1.6541733158259797E9, 0.0, 2022-06-02 14:35:15.825
241.0, 16849.99666809996, -31.381849215251115, -52912.25646880346, -44172.38911061158, -19692.579769203636, -20436.110548509427, -695.3180665156921, -6547.697668993195, -0.002, 0.97, 0.318, 192.0, 255.0, 240.0, 30.0, 80.0, 9.0, 240.0, 0.0, 0.0, 0.0, 1.654173315825985E9, 0.0, 2022-06-02 14:35:15.825
242.0, 16847.96265935453, -24.899843323212068, -52897.28080001841, -44157.748717993345, -19661.108513010564, -20406.56154233951, -642.4114873899803, -6525.480035004621, -0.002, 0.97, 0.318, 192.0, 0.0, 0.0, 0.0, 0.0, 0.0, 0.0, 0.0, 0.0, 0.0, 1.6541733158259904E9, 0.0, 2022-06-02 14:35:15.825
243.0, 16845.973354098005, -19.155444998198153, -52917.35266653928, -44153.79245922476, -19646.870451792533, -20391.13883866535, -647.485333381335, -6522.6190117143415, -0.002, 0.97, 0.318, 192.0, 0.0, 0.0, 0.0, 0.0, 0.0, 0.0, 0.0, 0.0, 0.0, 1.6541733158259957E9, 0.0, 2022-06-02 14:35:15.825
244.0, 16842.642944174164, -32.32062248237401, -52950.70146926659, -44188.97410499741, -19660.549719399183, -20418.162097711815, -671.5358104152454, -6539.494578778098, -0.002, 0.97, 0.318, 192.0, 0.0, 0.0, 0.0, 0.0, 0.0, 0.0, 0.0, 0.0, 0.0, 1.6541733158260007E9, 0.0, 2022-06-02 14:35:15.826
245.0, 16844.162862797126, -34.8016661169131, -52938.11743713826, -44190.71754106493, -19681.068620809154, -20442.033760790084, -676.9672843178851, -6554.246730118601, -0.002, 0.97, 0.318, 192.0, 0.0, 0.0, 0.0, 0.0, 0.0, 0.0, 0.0, 0.0, 0.0, 1.654173315826006E9, 0.0, 2022-06-02 14:35:15.826
246.0, 16852.388304756678, -28.587881158337733, -52920.14663459619, -44180.83807001568, -19683.750830143792, -20448.113435281924, -665.8361155791421, -6563.790925001017, -0.002, 0.97, 0.318, 192.0, 0.0, 0.0, 0.0, 0.0, 0.0, 0.0, 0.0, 0.0, 0.0, 1.6541733158260112E9, 0.0, 2022-06-02 14:35:15.826
247.0, 16836.563269682323, -26.419761946172947, -52917.28561130591, -44154.50771504733, -19662.181396744418, -20420.553734368532, -655.8895892965304, -6541.170959612246, -0.002, 0.97, 0.318, 192.0, 0.0, 0.0, 0.0, 0.0, 0.0, 0.0, 0.0, 0.0, 0.0, 1.6541733158260164E9, 0.0, 2022-06-02 14:35:15.826
248.0, 16819.888868318663, -36.410991717695204, -52948.846274476804, -44179.34050313717, -19654.26887920724, -20406.270969661593, -685.9973890778291, -6540.00866890057, -0.002, 0.97, 0.318, 192.0, 0.0, 0.0, 0.0, 0.0, 0.0, 0.0, 0.0, 0.0, 0.0, 1.6541733158260217E9, 0.0, 2022-06-02 14:35:15.826
249.0, 16830.841223101765, -36.410991717695204, -52945.15823664168, -44208.286012206794, -19650.759655327758, -20415.055205232526, -671.9381418154409, -6554.000860929592, -0.002, 0.97, 0.318, 192.0, 0.0, 0.0, 0.0, 0.0, 0.0, 0.0, 0.0, 0.0, 0.0, 1.654173315826027E9, 0.0, 2022-06-02 14:35:15.826
250.0, 16833.009342313926, -37.75209638501363, -52930.20491960108, -44238.5949776882, -19660.952050799377, -20437.697522365754, -658.8623713090863, -6554.269081863056, -0.002, 0.97, 0.318, 192.0, 0.0, 0.0, 0.0, 0.0, 0.0, 0.0, 0.0, 0.0, 0.0, 1.6541733158260388E9, 0.0, 2022-06-02 14:35:15.826
251.0, 16829.969505068006, -42.401259231717496, -52921.06305611886, -44282.73967298742, -19669.065734036652, -20452.315563239525, -661.0304905212511, -6557.532436553531, -0.01, 0.968, 0.332, 192.0, 255.0, 176.0, 30.0, 64.0, 10.0, 96.0, 0.0, 0.0, 0.0, 1.6541733158260453E9, 0.0, 2022-06-02 14:35:15.826
252.0, 16813.85389731573, -55.16410531569783, -52916.14567233869, -44153.904217947034, -19657.666344364447, -20433.115414752414, -655.0625747516841, -6555.096096407902, -0.01, 0.968, 0.332, 192.0, 0.0, 0.0, 0.0, 0.0, 0.0, 0.0, 0.0, 0.0, 0.0, 1.6541733158260505E9, 0.0, 2022-06-02 14:35:15.826
253.0, 16810.076452502784, -59.32152978438494, -52934.04941964739, -44175.07131994621, -19647.87628029302, -20396.45855384571, -662.9527405444074, -6543.964927669159, -0.01, 0.968, 0.332, 192.0, 0.0, 0.0, 0.0, 0.0, 0.0, 0.0, 0.0, 0.0, 0.0, 1.6541733158260558E9, 0.0, 2022-06-02 14:35:15.826
254.0, 16816.469051417, -53.66653843719226, -52941.80547497338, -44199.25590744685, -19644.478815135815, -20395.162152667304, -662.9080370554968, -6532.3420205524, -0.01, 0.968, 0.332, 192.0, 0.0, 0.0, 0.0, 0.0, 0.0, 0.0, 0.0, 0.0, 0.0, 1.654173315826063E9, 0.0, 2022-06-02 14:35:15.826
255.0, 16823.4204439426, -46.13400055575378, -52941.358440084274, -44198.719465579925, -19656.70521935287, -20421.93954252476, -669.2112289918934, -6553.129142895836, -0.01, 0.968, 0.332, 192.0, 0.0, 0.0, 0.0, 0.0, 0.0, 0.0, 0.0, 0.0, 0.0, 1.654173315826068E9, 0.0, 2022-06-02 14:35:15.826
0.0, 16830.595353912755, -33.39350621622875, -52919.1408060957, -44178.088805447675, -19658.292193209196, -20431.774310085097, -655.6660718519773, -6553.397363829299, -0.01, 0.968, 0.332, 192.0, 0.0, 0.0, 0.0, 0.0, 0.0, 0.0, 0.0, 0.0, 0.0, 1.6541733158260732E9, 0.0, 2022-06-02 14:35:15.826
1.0, 16822.012284041917, -44.189398788142064, -52910.02129435793, -44172.12088967811, -19646.959858770355, -20415.703405821732, -643.4173158904691, -6532.207910085668, -0.01, 0.968, 0.332, 192.0, 0.0, 0.0, 0.0, 0.0, 0.0, 0.0, 0.0, 0.0, 0.0, 1.6541733158260787E9, 0.0, 2022-06-02 14:35:15.826
2.0, 16818.7712810959, -50.24672153553028, -52932.12716962423, -44198.22772720191, -19636.65570457646, -20389.641271786844, -660.2481794653153, -6523.513081492553, -0.01, 0.968, 0.332, 192.0, 0.0, 0.0, 0.0, 0.0, 0.0, 0.0, 0.0, 0.0, 0.0, 1.6541733158260844E9, 0.0, 2022-06-02 14:35:15.826
3.0, 16825.633266643676, -55.02999484896599, -52962.88316999473, -44218.54546291178, -19638.332085410606, -20396.190332912247, -673.4804121828571, -6538.8240264444385, -0.01, 0.968, 0.332, 192.0, 0.0, 0.0, 0.0, 0.0, 0.0, 0.0, 0.0, 0.0, 0.0, 1.6541733158260896E9, 0.0, 2022-06-02 14:35:15.826
4.0, 16829.455414945533, -43.74236389903592, -52931.5460242684, -44208.10719825116, -19646.46812039234, -20421.112527979916, -667.6242551355666, -6559.477038321143, -0.01, 0.968, 0.332, 192.0, 0.0, 0.0, 0.0, 0.0, 0.0, 0.0, 0.0, 0.0, 0.0, 1.6541733158260949E9, 0.0, 2022-06-02 14:35:15.826
5.0, 16838.418464472114, -29.07961953635449, -52905.72975942252, -44182.156822938545, -19652.726608839825, -20429.963818784217, -654.5931881181226, -6565.1767331572455, -0.012, 0.968, 0.336, 192.0, 255.0, 160.0, 30.0, 64.0, 10.0, 128.0, 0.0, 0.0, 0.0, 1.6541733158261E9, 0.0, 2022-06-02 14:35:15.826
6.0, 16837.61380167172, -35.22634926156393, -52902.0864250763, -44175.719520535415, -19637.728588310314, -20404.147553938335, -641.4727141228574, -6544.970756169648, -0.012, 0.968, 0.336, 192.0, 0.0, 0.0, 0.0, 0.0, 0.0, 0.0, 0.0, 0.0, 0.0, 1.654173315826105E9, 0.0, 2022-06-02 14:35:15.826
7.0, 16829.500118434444, -32.61119516029301, -52917.55383223937, -44200.37349466962, -19628.206745172352, -20378.577158281467, -647.2618159367819, -6528.8998519062825, -0.012, 0.968, 0.336, 192.0, 0.0, 0.0, 0.0, 0.0, 0.0, 0.0, 0.0, 0.0, 0.0, 1.6541733158261108E9, 0.0, 2022-06-02 14:35:15.826
8.0, 16826.460281188523, -47.296291267429744, -52957.96578621457, -44220.601823401674, -19645.39523665848, -20392.70346077722, -667.3560342021029, -6543.942575924704, -0.012, 0.968, 0.336, 192.0, 0.0, 0.0, 0.0, 0.0, 0.0, 0.0, 0.0, 0.0, 0.0, 1.654173315826116E9, 0.0, 2022-06-02 14:35:15.826
9.0, 16832.785824869374, -43.69766041012531, -52980.49634462552, -44245.9934051029, -19663.27663222273, -20418.743243067653, -682.2199442648822, -6571.234055904634, -0.012, 0.968, 0.336, 192.0, 0.0, 0.0, 0.0, 0.0, 0.0, 0.0, 0.0, 0.0, 0.0, 1.654173315826121E9, 0.0, 2022-06-02 14:35:15.826
10.0, 16827.868441089206, -47.966843601088954, -52915.27395430493, -44165.08009017469, -19663.45544617837, -20432.556621141033, -670.6864441259437, -6580.107698453391, -0.012, 0.968, 0.336, 192.0, 0.0, 0.0, 0.0, 0.0, 0.0, 0.0, 0.0, 0.0, 0.0, 1.6541733158261263E9, 0.0, 2022-06-02 14:35:15.826
11.0, 16826.974371310997, -55.745250671535814, -52897.124337807225, -44137.56509275021, -19642.914193023946, -20406.18156268377, -648.9829002598406, -6551.542169039509, -0.012, 0.968, 0.336, 192.0, 0.0, 0.0, 0.0, 0.0, 0.0, 0.0, 0.0, 0.0, 0.0, 1.6541733158261316E9, 0.0, 2022-06-02 14:35:15.826
12.0, 16826.3708742107, -52.88422738125651, -52925.06401837635, -44178.13350893659, -19637.84034703259, -20388.45662933071, -656.5601416301896, -6531.917337407749, -0.012, 0.968, 0.336, 192.0, 0.0, 0.0, 0.0, 0.0, 0.0, 0.0, 0.0, 0.0, 0.0, 1.6541733158261368E9, 0.0, 2022-06-02 14:35:15.826
13.0, 16835.892717348663, -51.20784654710848, -52940.68788775062, -44232.47059970744, -19645.305829680663, -20387.294338619035, -670.2170574923823, -6537.907604921771, -0.012, 0.968, 0.336, 192.0, 0.0, 0.0, 0.0, 0.0, 0.0, 0.0, 0.0, 0.0, 0.0, 1.654173315826142E9, 0.0, 2022-06-02 14:35:15.826
14.0, 16841.838281373773, -57.578093716870995, -52947.84044597631, -44223.84282634769, -19666.204710746373, -20420.46432739071, -692.2335257808597, -6572.172829171757, -0.012, 0.968, 0.336, 192.0, 0.0, 0.0, 0.0, 0.0, 0.0, 0.0, 0.0, 0.0, 0.0, 1.6541733158261473E9, 0.0, 2022-06-02 14:35:15.826
15.0, 16842.01709532942, -54.94058787114476, -52926.11455036575, -44184.05672121725, -19674.9442428284, -20443.643086390864, -689.7524821463206, -6576.39730887381, -0.002, 0.966, 0.336, 192.0, 255.0, 240.0, 30.0, 48.0, 10.0, 128.0, 0.0, 0.0, 0.0, 1.6541733158261526E9, 0.0, 2022-06-02 14:35:15.826
16.0, 16830.550650423844, -50.581997702359885, -52915.05043686038, -44207.70486685096, -19662.807245589167, -20418.340911667456, -668.451269680413, -6545.44014280321, -0.002, 0.966, 0.336, 192.0, 0.0, 0.0, 0.0, 0.0, 0.0, 0.0, 0.0, 0.0, 0.0, 1.654173315826158E9, 0.0, 2022-06-02 14:35:15.826
17.0, 16821.878173575184, -54.06886983738779, -52932.82007370235, -44187.811814285735, -19653.106588495564, -20398.33610037996, -665.903170812508, -6535.784189198517, -0.002, 0.966, 0.336, 192.0, 0.0, 0.0, 0.0, 0.0, 0.0, 0.0, 0.0, 0.0, 0.0, 1.6541733158261633E9, 0.0, 2022-06-02 14:35:15.826
18.0, 16824.113348020717, -53.30891052590734, -52950.746172755506, -44218.27724197832, -19665.444751434894, -20401.286530648056, -681.9740750758738, -6545.730715481129, -0.002, 0.966, 0.336, 192.0, 0.0, 0.0, 0.0, 0.0, 0.0, 0.0, 0.0, 0.0, 0.0, 1.6541733158261683E9, 0.0, 2022-06-02 14:35:15.826
19.0, 16838.865499361218, -40.38960223073986, -52942.38662032922, -44206.29670695028, -19672.93258582742, -20435.61881013141, -675.1791447614604, -6555.945462697204, -0.002, 0.966, 0.336, 192.0, 0.0, 0.0, 0.0, 0.0, 0.0, 0.0, 0.0, 0.0, 0.0, 1.654173315826176E9, 0.0, 2022-06-02 14:35:15.826
20.0, 16836.317400493313, -42.84829412082364, -52926.22630908803, -44181.598029327164, -19684.22021677735, -20453.835481862483, -672.8992668270191, -6560.639329032819, -0.002, 0.966, 0.336, 192.0, 0.0, 0.0, 0.0, 0.0, 0.0, 0.0, 0.0, 0.0, 0.0, 1.6541733158261812E9, 0.0, 2022-06-02 14:35:15.826
21.0, 16821.498193919444, -48.145657556731415, -52921.443035774595, -44169.9751222104, -19675.525388184236, -20433.204821730236, -665.3890806900359, -6545.976584670137, -0.002, 0.966, 0.336, 192.0, 0.0, 0.0, 0.0, 0.0, 0.0, 0.0, 0.0, 0.0, 0.0, 1.6541733158261864E9, 0.0, 2022-06-02 14:35:15.826
22.0, 16827.75668236693, -42.401259231717496, -52929.57907075633, -44176.99356996937, -19657.688696108904, -20400.705385292218, -663.0197957777734, -6528.810444928461, -0.002, 0.966, 0.336, 192.0, 0.0, 0.0, 0.0, 0.0, 0.0, 0.0, 0.0, 0.0, 0.0, 1.6541733158261917E9, 0.0, 2022-06-02 14:35:15.826
23.0, 16831.176499268593, -57.980425117066524, -52951.68494602263, -44209.53770989629, -19673.200806760884, -20412.03771973106, -685.6621129109994, -6545.149570125291, -0.002, 0.966, 0.336, 192.0, 0.0, 0.0, 0.0, 0.0, 0.0, 0.0, 0.0, 0.0, 0.0, 1.654173315826197E9, 0.0, 2022-06-02 14:35:15.826
24.0, 16842.687647663075, -48.950320357122465, -52948.73451575453, -44203.972125526925, -19682.879112110033, -20429.04739726155, -687.1820315339603, -6565.44495409071, -0.002, 0.966, 0.336, 192.0, 0.0, 0.0, 0.0, 0.0, 0.0, 0.0, 0.0, 0.0, 0.0, 1.6541733158262022E9, 0.0, 2022-06-02 14:35:15.826
25.0, 16832.85288010274, -50.917273869189486, -52935.65874524817, -44227.68732639401, -19688.779972646236, -20442.14551951236, -677.7942988627314, -6572.150477427302, 0.002, 0.978, 0.336, 192.0, 0.0, 16.0, 30.0, 144.0, 10.0, 128.0, 0.0, 0.0, 0.0, 1.6541733158262076E9, 0.0, 2022-06-02 14:35:15.826
26.0, 16825.007417798926, -65.33414904286255, -52947.594576787305, -44179.04993045925, -19688.668213923957, -20420.486679135167, -670.7087958703991, -6556.057221419481, 0.002, 0.978, 0.336, 192.0, 0.0, 0.0, 0.0, 0.0, 0.0, 0.0, 0.0, 0.0, 0.0, 1.654173315826213E9, 0.0, 2022-06-02 14:35:15.826
27.0, 16827.354350966736, -58.65097745072573, -52950.76852449996, -44205.24617496088, -19670.205673003875, -20405.645120816844, -669.7700226032762, -6538.466398533154, 0.002, 0.978, 0.336, 192.0, 0.0, 0.0, 0.0, 0.0, 0.0, 0.0, 0.0, 0.0, 0.0, 1.654173315826218E9, 0.0, 2022-06-02 14:35:15.826
28.0, 16817.5195834064, -53.04068959244366, -52989.39233891873, -44184.950790995455, -19676.598271918094, -20415.61399884391, -685.6621129109994, -6545.417791058754, 0.002, 0.978, 0.336, 192.0, 0.0, 0.0, 0.0, 0.0, 0.0, 0.0, 0.0, 0.0, 0.0, 1.6541733158262231E9, 0.0, 2022-06-02 14:35:15.826
29.0, 16832.115272535717, -48.816209890390624, -52950.90263496669, -44195.25494518935, -19685.6954319114, -20435.060016520027, -694.6028106931223, -6565.243788390611, 0.002, 0.978, 0.336, 192.0, 0.0, 0.0, 0.0, 0.0, 0.0, 0.0, 0.0, 0.0, 0.0, 1.6541733158262289E9, 0.0, 2022-06-02 14:35:15.826
30.0, 16842.486481962977, -45.08346856635435, -52897.750186651974, -44183.11794795012, -19686.410687733973, -20452.293211495067, -690.1324618020609, -6568.305977380989, 0.002, 0.978, 0.336, 192.0, 0.0, 0.0, 0.0, 0.0, 0.0, 0.0, 0.0, 0.0, 0.0, 1.654173315826234E9, 0.0, 2022-06-02 14:35:15.826
31.0, 16834.81983361481, -45.28463426645211, -52905.2380210445, -44170.93624722198, -19674.78778061721, -20429.13680423937, -692.3899879920468, -6554.693765007707, 0.002, 0.978, 0.336, 192.0, 0.0, 0.0, 0.0, 0.0, 0.0, 0.0, 0.0, 0.0, 0.0, 1.654173315826239E9, 0.0, 2022-06-02 14:35:15.826
32.0, 16831.53412717988, -50.336128513351504, -52926.87450967723, -44190.762244553836, -19659.61094613206, -20391.31765262099, -672.5863424046448, -6533.526663008531, 0.002, 0.978, 0.336, 192.0, 0.0, 0.0, 0.0, 0.0, 0.0, 0.0, 0.0, 0.0, 0.0, 1.6541733158262446E9, 0.0, 2022-06-02 14:35:15.826
33.0, 16842.218261029513, -40.031974319454946, -52948.645108776705, -44235.46573346445, -19666.160007257462, -20403.365242882403, -672.5863424046448, -6545.529549781031, 0.002, 0.978, 0.336, 192.0, 0.0, 0.0, 0.0, 0.0, 0.0, 0.0, 0.0, 0.0, 0.0, 1.6541733158262498E9, 0.0, 2022-06-02 14:35:15.826
34.0, 16857.082171092294, -24.788084600935534, -52946.678155264635, -44241.23248353392, -19677.71585914086, -20431.215516473712, -683.3822349765582, -6574.20683791719, 0.002, 0.978, 0.336, 192.0, 0.0, 0.0, 0.0, 0.0, 0.0, 0.0, 0.0, 0.0, 0.0, 1.654173315826255E9, 0.0, 2022-06-02 14:35:15.826
35.0, 16855.29403153587, -36.20982601759744, -52932.23892834651, -44173.99843621236, -19681.292138253706, -20447.71110388173, -675.6038279061113, -6579.548904842009, -0.006, 0.966, 0.34, 192.0, 255.0, 208.0, 30.0, 48.0, 10.0, 160.0, 0.0, 0.0, 0.0, 1.6541733158262603E9, 0.0, 2022-06-02 14:35:15.826
0.0, 0.0, 0.0, 0.0, 0.0, 0.0, 0.0, 0.0, 0.0, -0.006, 0.966, 0.34, 192.0, 0.0, 0.0, 0.0, 0.0, 0.0, 0.0, 0.0, 0.0, 0.0, 1.6541733159073436E9, 0.0, 2022-06-02 14:35:15.907
1.0, 16717.22730603544, -44.16704704368676, -52846.09530521576, -44241.32189051174, -19648.166852970942, -20368.07183838747, -683.7845663767537, -6479.860124571339, -0.036000000000000004, 0.966, 0.37, 192.0, 254.0, 224.0, 30.0, 48.0, 11.0, 144.0, 0.0, 0.0, 0.0, 1.6541733163854423E9, 0.0, 2022-06-02 14:35:16.385
2.0, 16722.815242149263, -40.613119675292936, -52804.565764017796, -44166.60000879765, -19655.65468736347, -20383.60630078391, -692.3899879920468, -6512.71718892064, -0.036000000000000004, 0.966, 0.37, 192.0, 0.0, 0.0, 0.0, 0.0, 0.0, 0.0, 0.0, 0.0, 0.0, 1.6541733163855464E9, 0.0, 2022-06-02 14:35:16.385
3.0, 16718.724872913943, -36.96978532907788, -52810.04194140935, -44199.65823884705, -19644.61292560255, -20389.171885153282, -683.9857320768514, -6521.322610535934, -0.036000000000000004, 0.966, 0.37, 192.0, 0.0, 0.0, 0.0, 0.0, 0.0, 0.0, 0.0, 0.0, 0.0, 1.6541733163855536E9, 0.0, 2022-06-02 14:35:16.385
4.0, 16706.342006485702, -43.94352959913368, -52819.13910140266, -44184.97314273991, -19637.0356842322, -20362.305088318004, -674.9332755724521, -6496.176898023713, -0.036000000000000004, 0.966, 0.37, 192.0, 0.0, 0.0, 0.0, 0.0, 0.0, 0.0, 0.0, 0.0, 0.0, 1.6541733163856113E9, 0.0, 2022-06-02 14:35:16.385
5.0, 16711.30409375478, -47.20688428960852, -52829.15268291863, -44157.21227612642, -19637.773291799225, -20359.55582375, -678.5095546853012, -6470.740612833573, -0.036000000000000004, 0.966, 0.37, 192.0, 0.0, 0.0, 0.0, 0.0, 0.0, 0.0, 0.0, 0.0, 0.0, 1.6541733163856184E9, 0.0, 2022-06-02 14:35:16.385
6.0, 16721.250620037394, -43.049459820921406, -52843.636613325674, -44188.14709045256, -19652.100759995075, -20386.780248496565, -691.4959182138346, -6486.18566825219, -0.036000000000000004, 0.966, 0.37, 192.0, 0.0, 0.0, 0.0, 0.0, 0.0, 0.0, 0.0, 0.0, 0.0, 1.6541733163856251E9, 0.0, 2022-06-02 14:35:16.385
7.0, 16716.959085101975, -29.77252361446901, -52827.81157825131, -44180.547497337764, -19667.9928503028, -20401.264178903602, -690.1995170354268, -6490.320740976423, -0.036000000000000004, 0.966, 0.37, 192.0, 0.0, 0.0, 0.0, 0.0, 0.0, 0.0, 0.0, 0.0, 0.0, 1.6541733163856316E9, 0.0, 2022-06-02 14:35:16.385
8.0, 16712.824012377743, -27.62675614675953, -52812.187708877056, -44189.46584337543, -19654.380637929517, -20378.621861770378, -671.5358104152454, -6477.356729192345, -0.058, 0.966, 0.382, 192.0, 254.0, 48.0, 30.0, 48.0, 11.0, 240.0, 0.0, 0.0, 0.0, 1.6541733163856375E9, 0.0, 2022-06-02 14:35:16.385
9.0, 16721.6976549265, -27.760866613491373, -52834.0700666988, -44159.17922963849, -19633.74997779727, -20341.22739329665, -673.3686534605806, -6464.146848219258, -0.058, 0.966, 0.382, 192.0, 0.0, 0.0, 0.0, 0.0, 0.0, 0.0, 0.0, 0.0, 0.0, 1.6541733163856442E9, 0.0, 2022-06-02 14:35:16.385
10.0, 16726.659742195578, -33.505264938505285, -52828.057447440326, -44165.527125063796, -19644.523518624726, -20351.352733534903, -700.5930782071446, -6483.279941473001, -0.058, 0.966, 0.382, 192.0, 0.0, 0.0, 0.0, 0.0, 0.0, 0.0, 0.0, 0.0, 0.0, 1.654173316385652E9, 0.0, 2022-06-02 14:35:16.385
11.0, 16724.312809027768, -27.98438405804444, -52830.02440095239, -44198.093616735176, -19658.426303675926, -20386.84730372993, -706.7845114212646, -6518.930973879215, -0.058, 0.966, 0.382, 192.0, 0.0, 0.0, 0.0, 0.0, 0.0, 0.0, 0.0, 0.0, 0.0, 1.6541733163856583E9, 0.0, 2022-06-02 14:35:16.385
12.0, 16755.292326842824, 1.9446017676117144, -52821.217813637, -44186.51541310733, -19666.27176597974, -20414.42935638778, -691.7194356583876, -6536.544148509997, -0.058, 0.966, 0.382, 192.0, 0.0, 0.0, 0.0, 0.0, 0.0, 0.0, 0.0, 0.0, 0.0, 1.6541733163856647E9, 0.0, 2022-06-02 14:35:16.385
13.0, 16732.381788776136, -16.473235663561304, -52807.717359985996, -44160.207409883435, -19652.257222206263, -20390.401231098323, -690.5124414578011, -6513.588906954397, -0.058, 0.966, 0.382, 192.0, 0.0, 0.0, 0.0, 0.0, 0.0, 0.0, 0.0, 0.0, 0.0, 1.654173316385671E9, 0.0, 2022-06-02 14:35:16.385
14.0, 16686.337195198204, -72.41965203519489, -52822.514214815405, -44206.050837761264, -19637.438015632393, -20363.377972051858, -681.6387989090442, -6480.8883048162825, -0.058, 0.966, 0.382, 192.0, 0.0, 0.0, 0.0, 0.0, 0.0, 0.0, 0.0, 0.0, 0.0, 1.654173316385677E9, 0.0, 2022-06-02 14:35:16.385
15.0, 16689.82406733323, -76.62177999279261, -52849.20219769504, -44179.80988977074, -19648.435073904406, -20369.636460499343, -680.3871012195469, -6479.793069337973, -0.058, 0.966, 0.382, 192.0, 0.0, 0.0, 0.0, 0.0, 0.0, 0.0, 0.0, 0.0, 0.0, 1.6541733163856833E9, 0.0, 2022-06-02 14:35:16.385
16.0, 16682.31388119625, -90.54691678844891, -52856.04183149837, -44173.59610481216, -19658.78393158721, -20389.015422942095, -687.0926245561391, -6492.891191588783, -0.058, 0.966, 0.382, 192.0, 0.0, 0.0, 0.0, 0.0, 0.0, 0.0, 0.0, 0.0, 0.0, 1.6541733163856895E9, 0.0, 2022-06-02 14:35:16.385
17.0, 16669.39457290108, -103.75679776153538, -52858.41111641063, -44204.37445692712, -19674.98894631731, -20416.061033733014, -695.2733630267815, -6508.962095852148, -0.058, 0.966, 0.382, 192.0, 0.0, 0.0, 0.0, 0.0, 0.0, 0.0, 0.0, 0.0, 0.0, 1.6541733163857028E9, 0.0, 2022-06-02 14:35:16.385
18.0, 16660.453875118958, -105.41082685122811, -52848.397534894655, -44194.740855066884, -19664.08129502312, -20396.972643968184, -685.773871633276, -6491.080700287903, -0.064, 0.9560000000000001, 0.382, 192.0, 254.0, 0.0, 29.0, 224.0, 11.0, 240.0, 0.0, 0.0, 0.0, 1.6541733163857088E9, 0.0, 2022-06-02 14:35:16.385
19.0, 16655.670601805523, -114.64209731126992, -52830.426732352586, -44172.992607711865, -19647.920983781933, -20368.49652153212, -676.4084907065023, -6476.932046047694, -0.064, 0.9560000000000001, 0.382, 192.0, 0.0, 0.0, 0.0, 0.0, 0.0, 0.0, 0.0, 0.0, 0.0, 1.6541733163857157E9, 0.0, 2022-06-02 14:35:16.385
20.0, 16655.380029127602, -128.477827129105, -52857.65115709915, -44213.51632040934, -19656.101722252577, -20374.196216368226, -691.1382903025496, -6490.834831098894, -0.064, 0.9560000000000001, 0.382, 192.0, 0.0, 0.0, 0.0, 0.0, 0.0, 0.0, 0.0, 0.0, 0.0, 1.654173316385723E9, 0.0, 2022-06-02 14:35:16.385
21.0, 16651.87080524812, -125.48269337209385, -52865.13899149168, -44250.731974927425, -19669.22219624784, -20395.922111978784, -702.6270869525775, -6509.230316785613, -0.064, 0.9560000000000001, 0.382, 192.0, 0.0, 0.0, 0.0, 0.0, 0.0, 0.0, 0.0, 0.0, 0.0, 1.6541733163857293E9, 0.0, 2022-06-02 14:35:16.385
22.0, 16642.05838943224, -140.4360104126943, -52858.85815129973, -44246.105163825174, -19679.347536486093, -20421.98424601367, -701.3083340297144, -6530.799750184983, -0.064, 0.9560000000000001, 0.382, 192.0, 0.0, 0.0, 0.0, 0.0, 0.0, 0.0, 0.0, 0.0, 0.0, 1.6541733163857353E9, 0.0, 2022-06-02 14:35:16.385
23.0, 16644.517081322323, -142.20179822466352, -52823.47533982698, -44201.28991619228, -19664.88595782351, -20400.03483295856, -682.711682642899, -6518.57334596793, -0.064, 0.9560000000000001, 0.382, 192.0, 0.0, 0.0, 0.0, 0.0, 0.0, 0.0, 0.0, 0.0, 0.0, 1.654173316385741E9, 0.0, 2022-06-02 14:35:16.385
24.0, 16645.679372034, -136.6585655997474, -52841.73671504697, -44196.14901496757, -19661.84612057759, -20379.18065538176, -695.966267104896, -6527.24582281659, -0.064, 0.9560000000000001, 0.382, 192.0, 0.0, 0.0, 0.0, 0.0, 0.0, 0.0, 0.0, 0.0, 0.0, 1.6541733163857467E9, 0.0, 2022-06-02 14:35:16.385
25.0, 16644.91941272252, -124.0298299824989, -52856.75708732094, -44231.017736317845, -19662.360210700062, -20376.677260002765, -711.1207498455942, -6519.087436090403, -0.064, 0.9560000000000001, 0.382, 192.0, 0.0, 0.0, 0.0, 0.0, 0.0, 0.0, 0.0, 0.0, 0.0, 1.6541733163857524E9, 0.0, 2022-06-02 14:35:16.385
26.0, 16655.40238087206, -135.94330977717755, -52862.52383739041, -44211.90699480856, -19680.152199286487, -20405.17573418328, -718.4744737713902, -6517.0981308338805, -0.064, 0.9560000000000001, 0.382, 192.0, 0.0, 0.0, 0.0, 0.0, 0.0, 0.0, 0.0, 0.0, 0.0, 1.654173316385762E9, 0.0, 2022-06-02 14:35:16.385
27.0, 16655.71530529443, -140.4583621571496, -52852.01851749641, -44200.44054990298, -19692.93739711492, -20420.441975646256, -712.1042266016277, -6528.3410582949, -0.07200000000000001, 0.9480000000000001, 0.384, 192.0, 253.0, 192.0, 29.0, 160.0, 12.0, 0.0, 0.0, 0.0, 0.0, 1.654173316385772E9, 0.0, 2022-06-02 14:35:16.385
28.0, 16660.789151285786, -122.21933868161902, -52838.83098826778, -44209.80593082976, -19674.921891083945, -20407.299149906536, -686.4444239669352, -6511.040808086492, -0.07200000000000001, 0.9480000000000001, 0.384, 192.0, 0.0, 0.0, 0.0, 0.0, 0.0, 0.0, 0.0, 0.0, 0.0, 1.654173316385778E9, 0.0, 2022-06-02 14:35:16.385
29.0, 16659.023363473818, -129.05897248494298, -52840.10503770173, -44218.724276867426, -19675.83831260661, -20380.07472515997, -694.1334240595609, -6498.635589913797, -0.07200000000000001, 0.9480000000000001, 0.384, 192.0, 0.0, 0.0, 0.0, 0.0, 0.0, 0.0, 0.0, 0.0, 0.0, 1.6541733163857837E9, 0.0, 2022-06-02 14:35:16.385
30.0, 16668.90283452306, -120.96764099212183, -52859.3275379333, -44192.32686666571, -19686.164818544963, -20382.980451939162, -724.3976860520465, -6538.309936321966, -0.07200000000000001, 0.9480000000000001, 0.384, 192.0, 0.0, 0.0, 0.0, 0.0, 0.0, 0.0, 0.0, 0.0, 0.0, 1.6541733163857894E9, 0.0, 2022-06-02 14:35:16.385
31.0, 16661.035020474796, -123.24751892656315, -52866.68126185909, -44220.31125072375, -19708.360100789083, -20410.13782145236, -748.8281427416972, -6550.849264961394, -0.07200000000000001, 0.9480000000000001, 0.384, 192.0, 0.0, 0.0, 0.0, 0.0, 0.0, 0.0, 0.0, 0.0, 0.0, 1.654173316385795E9, 0.0, 2022-06-02 14:35:16.385
32.0, 16670.7356775684, -119.44772236916094, -52863.99905252446, -44208.37541918462, -19716.18321134844, -20426.432243160278, -723.5259680182896, -6528.542223994998, -0.07200000000000001, 0.9480000000000001, 0.384, 192.0, 0.0, 0.0, 0.0, 0.0, 0.0, 0.0, 0.0, 0.0, 0.0, 1.6541733163858008E9, 0.0, 2022-06-02 14:35:16.385
33.0, 16667.67348857802, -124.32040266041788, -52851.79500005186, -44206.72139009493, -19699.128830329042, -20412.775327298084, -687.7631768897983, -6521.993162869592, -0.07200000000000001, 0.9480000000000001, 0.384, 192.0, 0.0, 0.0, 0.0, 0.0, 0.0, 0.0, 0.0, 0.0, 0.0, 1.6541733163858075E9, 0.0, 2022-06-02 14:35:16.385
34.0, 16647.48986333488, -131.80823705294574, -52850.74446806246, -44244.026451590835, -19696.111344827576, -20386.690841518743, -703.4093980085132, -6505.788148139495, -0.07200000000000001, 0.9480000000000001, 0.384, 192.0, 0.0, 0.0, 0.0, 0.0, 0.0, 0.0, 0.0, 0.0, 0.0, 1.654173316385813E9, 0.0, 2022-06-02 14:35:16.385
35.0, 16662.5325873533, -109.68001004219175, -52861.808581567835, -44236.00217533138, -19692.691527925912, -20370.731695977654, -706.2033660654266, -6490.700720632162, -0.07200000000000001, 0.9480000000000001, 0.384, 192.0, 0.0, 0.0, 0.0, 0.0, 0.0, 0.0, 0.0, 0.0, 0.0, 1.6541733163858185E9, 0.0, 2022-06-02 14:35:16.385
36.0, 16679.855189306163, -96.82775698039019, -52850.38684015117, -44223.060515291756, -19692.28919652572, -20396.257388145612, -694.7145694153988, -6528.72103795064, -0.07200000000000001, 0.9480000000000001, 0.384, 192.0, 0.0, 0.0, 0.0, 0.0, 0.0, 0.0, 0.0, 0.0, 0.0, 1.6541733163858244E9, 0.0, 2022-06-02 14:35:16.385
37.0, 16671.093305479684, -102.57215530540411, -52850.275081428896, -44205.60380287216, -19713.61276073608, -20429.628542617385, -724.643555241055, -6569.043584948014, -0.068, 0.9480000000000001, 0.37, 192.0, 253.0, 224.0, 29.0, 160.0, 11.0, 144.0, 0.0, 0.0, 0.0, 1.6541733163858309E9, 0.0, 2022-06-02 14:35:16.385
38.0, 16665.05833447675, -102.08041692738736, -52849.51512211742, -44178.15586068104, -19704.336786787127, -20419.369091912402, -723.771837207298, -6569.155343670291, -0.068, 0.9480000000000001, 0.37, 192.0, 0.0, 0.0, 0.0, 0.0, 0.0, 0.0, 0.0, 0.0, 0.0, 1.6541733163858376E9, 0.0, 2022-06-02 14:35:16.385
39.0, 16671.562692113246, -93.38558833427291, -52856.8241425543, -44204.88854704959, -19675.927719584433, -20371.312841333493, -700.1013398291278, -6541.774456712539, -0.068, 0.9480000000000001, 0.37, 192.0, 0.0, 0.0, 0.0, 0.0, 0.0, 0.0, 0.0, 0.0, 0.0, 1.6541733163858435E9, 0.0, 2022-06-02 14:35:16.385
40.0, 16677.709421838455, -96.42542558019467, -52863.44025891308, -44241.41129748956, -19683.32614699914, -20379.918262948784, -712.0148196238065, -6516.069950588936, -0.068, 0.9480000000000001, 0.37, 192.0, 0.0, 0.0, 0.0, 0.0, 0.0, 0.0, 0.0, 0.0, 0.0, 1.6541733163858502E9, 0.0, 2022-06-02 14:35:16.385
41.0, 16680.19046547299, -101.6110302938259, -52854.00782275294, -44201.20050921447, -19694.054984337687, -20414.13878370986, -710.8972324010412, -6532.163206596757, -0.068, 0.9480000000000001, 0.37, 192.0, 0.0, 0.0, 0.0, 0.0, 0.0, 0.0, 0.0, 0.0, 0.0, 1.6541733163858564E9, 0.0, 2022-06-02 14:35:16.385
42.0, 16683.29735795228, -97.54301280296002, -52842.74254354746, -44206.14024473909, -19706.46020251038, -20440.536193911576, -712.2830405572702, -6566.942520969215, -0.068, 0.9480000000000001, 0.37, 192.0, 0.0, 0.0, 0.0, 0.0, 0.0, 0.0, 0.0, 0.0, 0.0, 1.654173316385862E9, 0.0, 2022-06-02 14:35:16.385
43.0, 16682.358584685157, -81.76268121751323, -52823.67650552708, -44209.64946861857, -19694.32320527115, -20422.632446602875, -710.964287634407, -6560.907549966282, -0.068, 0.9480000000000001, 0.37, 192.0, 0.0, 0.0, 0.0, 0.0, 0.0, 0.0, 0.0, 0.0, 0.0, 1.654173316385868E9, 0.0, 2022-06-02 14:35:16.385
44.0, 16686.091326009195, -76.2418003370524, -52824.12354041619, -44196.55134636776, -19670.585652659614, -20379.672393759774, -689.2160402793933, -6532.945517652693, -0.068, 0.9480000000000001, 0.37, 192.0, 0.0, 0.0, 0.0, 0.0, 0.0, 0.0, 0.0, 0.0, 0.0, 1.6541733163858747E9, 0.0, 2022-06-02 14:35:16.385
45.0, 16693.914436568553, -79.61691374980376, -52853.51608437492, -44166.75647100883, -19674.78778061721, -20379.806504226508, -693.4852234703569, -6542.91439567976, -0.068, 0.9480000000000001, 0.37, 192.0, 0.0, 0.0, 0.0, 0.0, 0.0, 0.0, 0.0, 0.0, 0.0, 1.6541733163858824E9, 0.0, 2022-06-02 14:35:16.385
46.0, 16699.234151748915, -78.43227129367249, -52873.699709618064, -44190.62813408711, -19689.18230404643, -20394.312786378003, -706.80686316572, -6538.354639810877, -0.068, 0.9480000000000001, 0.37, 192.0, 0.0, 0.0, 0.0, 0.0, 0.0, 0.0, 0.0, 0.0, 0.0, 1.6541733163858888E9, 0.0, 2022-06-02 14:35:16.385
47.0, 16703.749204128886, -83.84139345185679, -52833.913604487614, -44208.12954999561, -19701.6992809414, -20414.116431965405, -706.6951044434434, -6530.755046696073, -0.068, 0.96, 0.368, 192.0, 253.0, 224.0, 30.0, 0.0, 11.0, 128.0, 0.0, 0.0, 0.0, 1.654173316385898E9, 0.0, 2022-06-02 14:35:16.385
48.0, 16693.221532490435, -92.87149821180084, -52805.526889029374, -44205.24617496088, -19696.357214016585, -20406.472135361688, -676.4978976843236, -6523.334267536911, -0.068, 0.96, 0.368, 192.0, 0.0, 0.0, 0.0, 0.0, 0.0, 0.0, 0.0, 0.0, 0.0, 1.654173316385906E9, 0.0, 2022-06-02 14:35:16.385
49.0, 16684.30318645277, -97.65477152523655, -52836.8193312668, -44165.527125063796, -19679.50399869728, -20372.095152389425, -666.8866475685415, -6523.043694858992, -0.068, 0.96, 0.368, 192.0, 0.0, 0.0, 0.0, 0.0, 0.0, 0.0, 0.0, 0.0, 0.0, 1.6541733163859117E9, 0.0, 2022-06-02 14:35:16.385
50.0, 16688.773535343833, -91.21746912210813, -52846.67645057159, -44180.65925606004, -19672.55260617168, -20365.27787033056, -679.2471622523263, -6509.923220863727, -0.068, 0.96, 0.368, 192.0, 0.0, 0.0, 0.0, 0.0, 0.0, 0.0, 0.0, 0.0, 0.0, 1.6541733163859172E9, 0.0, 2022-06-02 14:35:16.385
51.0, 16699.435317449013, -85.62953300828136, -52830.94082247506, -44181.08393920469, -19679.056963808176, -20392.211722399203, -695.7651014047982, -6513.566555209942, -0.068, 0.96, 0.368, 192.0, 0.0, 0.0, 0.0, 0.0, 0.0, 0.0, 0.0, 0.0, 0.0, 1.6541733163859255E9, 0.0, 2022-06-02 14:35:16.385
52.0, 16689.533494655312, -89.8763644547897, -52829.06327594081, -44184.34729389516, -19692.780934903734, -20418.45267038973, -695.742749660343, -6534.823064186939, -0.068, 0.96, 0.368, 192.0, 0.0, 0.0, 0.0, 0.0, 0.0, 0.0, 0.0, 0.0, 0.0, 1.6541733163859317E9, 0.0, 2022-06-02 14:35:16.385
53.0, 16672.792038058287, -86.63536150877017, -52823.095360171246, -44185.75545379585, -19689.36111800207, -20409.310806907513, -693.2170025368932, -6533.660773475262, -0.068, 0.96, 0.368, 192.0, 0.0, 0.0, 0.0, 0.0, 0.0, 0.0, 0.0, 0.0, 0.0, 1.6541733163859425E9, 0.0, 2022-06-02 14:35:16.385
54.0, 16665.86299727714, -89.45168131013887, -52837.35577313373, -44189.57760209771, -19679.839274864113, -20373.615071012387, -693.0605403257061, -6524.563613481952, -0.068, 0.96, 0.368, 192.0, 0.0, 0.0, 0.0, 0.0, 0.0, 0.0, 0.0, 0.0, 0.0, 1.65417331638595E9, 0.0, 2022-06-02 14:35:16.385
55.0, 16671.741506068887, -96.29131511346283, -52849.20219769504, -44184.63786657308, -19679.168722530452, -20369.74821922162, -690.0654065686949, -6517.008723856059, -0.068, 0.96, 0.368, 192.0, 0.0, 0.0, 0.0, 0.0, 0.0, 0.0, 0.0, 0.0, 0.0, 1.654173316385956E9, 0.0, 2022-06-02 14:35:16.385
56.0, 16689.73466035541, -89.898716199245, -52848.397534894655, -44233.90111135258, -19685.22604527784, -20398.80548701352, -691.5406217027452, -6524.407151270766, -0.068, 0.96, 0.368, 192.0, 0.0, 0.0, 0.0, 0.0, 0.0, 0.0, 0.0, 0.0, 0.0, 1.6541733163859615E9, 0.0, 2022-06-02 14:35:16.385
57.0, 16701.514029683356, -70.63151247877032, -52820.904889214624, -44242.52888471233, -19675.190112017408, -20407.857943517916, -665.9925777903293, -6515.62291569983, -0.064, 0.968, 0.372, 192.0, 254.0, 0.0, 30.0, 64.0, 11.0, 160.0, 0.0, 0.0, 0.0, 1.6541733163859668E9, 0.0, 2022-06-02 14:35:16.385
58.0, 16685.867808564642, -85.69658824164728, -52817.26155486841, -44173.88667749008, -19674.251338750284, -20407.18739118426, -661.1422492435277, -6513.1642238097465, -0.064, 0.968, 0.372, 192.0, 0.0, 0.0, 0.0, 0.0, 0.0, 0.0, 0.0, 0.0, 0.0, 1.6541733163859725E9, 0.0, 2022-06-02 14:35:16.385
59.0, 16686.58306438721, -86.65771325322548, -52817.149796146135, -44131.060735113715, -19655.051190263177, -20370.5081785331, -652.8944555395193, -6495.260476501046, -0.064, 0.968, 0.372, 192.0, 0.0, 0.0, 0.0, 0.0, 0.0, 0.0, 0.0, 0.0, 0.0, 1.6541733163859777E9, 0.0, 2022-06-02 14:35:16.385
60.0, 16698.004805803874, -87.77530047599083, -52846.83291278278, -44182.60385782765, -19656.392294930494, -20351.911527146283, -671.6252173930666, -6467.276092443, -0.064, 0.968, 0.372, 192.0, 0.0, 0.0, 0.0, 0.0, 0.0, 0.0, 0.0, 0.0, 0.0, 1.654173316385984E9, 0.0, 2022-06-02 14:35:16.385
61.0, 16714.634503678622, -82.56734401790429, -52871.19631423907, -44235.063402064254, -19670.675059637437, -20374.240919857137, -695.2063077934156, -6495.327531734411, -0.064, 0.968, 0.372, 192.0, 0.0, 0.0, 0.0, 0.0, 0.0, 0.0, 0.0, 0.0, 0.0, 1.6541733163859897E9, 0.0, 2022-06-02 14:35:16.385
62.0, 16705.135012285114, -67.23404732156365, -52814.333476344764, -44185.10725320665, -19670.965632315354, -20388.4119258418, -690.0877583131503, -6507.62099118483, -0.064, 0.968, 0.372, 192.0, 0.0, 0.0, 0.0, 0.0, 0.0, 0.0, 0.0, 0.0, 0.0, 1.6541733163859951E9, 0.0, 2022-06-02 14:35:16.385
63.0, 16678.894064294585, -82.12030912879816, -52817.59683103524, -44136.291043316254, -19674.206635261373, -20393.03873694405, -698.0226275947842, -6512.940706365193, -0.064, 0.968, 0.372, 192.0, 0.0, 0.0, 0.0, 0.0, 0.0, 0.0, 0.0, 0.0, 0.0, 1.6541733163860006E9, 0.0, 2022-06-02 14:35:16.386
64.0, 16675.340136926192, -91.97742843358856, -52841.31203190232, -44174.22195365691, -19662.807245589167, -20374.777361724064, -691.3618077471027, -6521.0320378580145, -0.064, 0.968, 0.372, 192.0, 0.0, 0.0, 0.0, 0.0, 0.0, 0.0, 0.0, 0.0, 0.0, 1.6541733163860064E9, 0.0, 2022-06-02 14:35:16.386
65.0, 16680.034003261808, -96.04544592445446, -52841.401438880144, -44207.43664591749, -19657.264012964253, -20367.557748265, -673.838040094142, -6517.701627934173, -0.064, 0.968, 0.372, 192.0, 0.0, 0.0, 0.0, 0.0, 0.0, 0.0, 0.0, 0.0, 0.0, 1.6541733163860142E9, 0.0, 2022-06-02 14:35:16.386
66.0, 16689.332328955214, -91.82096622240141, -52827.38689510666, -44208.55423314026, -19667.61287064706, -20370.396419810822, -663.578589389156, -6490.119575276324, -0.064, 0.968, 0.372, 192.0, 0.0, 0.0, 0.0, 0.0, 0.0, 0.0, 0.0, 0.0, 0.0, 1.654173316386034E9, 0.0, 2022-06-02 14:35:16.386
67.0, 16693.19918074598, -84.10961438532048, -52822.89419447115, -44178.46878510342, -19679.50399869728, -20387.003765941117, -669.3676912030807, -6496.802746868461, -0.066, 0.97, 0.382, 192.0, 253.0, 240.0, 30.0, 80.0, 11.0, 240.0, 0.0, 0.0, 0.0, 1.65417331638604E9, 0.0, 2022-06-02 14:35:16.386
68.0, 16686.426602176023, -81.22623935058587, -52813.72997924447, -44159.290988360764, -19671.166798015453, -20365.83666394194, -658.772964331265, -6492.511211933042, -0.066, 0.97, 0.382, 192.0, 0.0, 0.0, 0.0, 0.0, 0.0, 0.0, 0.0, 0.0, 0.0, 1.6541733163860483E9, 0.0, 2022-06-02 14:35:16.386
69.0, 16684.54905564178, -82.90262018473389, -52820.68137177007, -44177.84293625867, -19654.961783285355, -20352.604431224398, -665.9478743014187, -6487.012682797037, -0.066, 0.97, 0.382, 192.0, 0.0, 0.0, 0.0, 0.0, 0.0, 0.0, 0.0, 0.0, 0.0, 1.654173316386054E9, 0.0, 2022-06-02 14:35:16.386
70.0, 16686.96304404295, -80.3768730612842, -52839.05450571234, -44227.95554732747, -19645.775216314225, -20346.72592243265, -658.2812259532483, -6481.42474668321, -0.066, 0.97, 0.382, 192.0, 0.0, 0.0, 0.0, 0.0, 0.0, 0.0, 0.0, 0.0, 0.0, 1.6541733163860595E9, 0.0, 2022-06-02 14:35:16.386
71.0, 16672.501465380366, -91.84331796685672, -52871.688052617086, -44196.86427079014, -19669.110437525564, -20381.013498427095, -686.7797001337648, -6518.796863412484, -0.066, 0.97, 0.382, 192.0, 0.0, 0.0, 0.0, 0.0, 0.0, 0.0, 0.0, 0.0, 0.0, 1.6541733163860688E9, 0.0, 2022-06-02 14:35:16.386
72.0, 16687.521837654334, -81.38270156177302, -52835.254709154935, -44187.253020674354, -19671.03268754872, -20401.822972514987, -689.9759995908737, -6541.573291012442, -0.066, 0.97, 0.382, 192.0, 0.0, 0.0, 0.0, 0.0, 0.0, 0.0, 0.0, 0.0, 0.0, 1.6541733163860743E9, 0.0, 2022-06-02 14:35:16.386
73.0, 16681.39745967358, -80.80155620593503, -52807.985580919456, -44212.86811982014, -19662.360210700062, -20386.04264092954, -681.3035227422146, -6519.310953534956, -0.066, 0.97, 0.382, 192.0, 0.0, 0.0, 0.0, 0.0, 0.0, 0.0, 0.0, 0.0, 0.0, 1.654173316386082E9, 0.0, 2022-06-02 14:35:16.386
74.0, 16670.020421745827, -81.20388760613056, -52832.75131377594, -44190.65048583156, -19649.664419849447, -20352.35856203539, -680.8788395975638, -6497.0262643130145, -0.066, 0.97, 0.382, 192.0, 0.0, 0.0, 0.0, 0.0, 0.0, 0.0, 0.0, 0.0, 0.0, 1.6541733163860884E9, 0.0, 2022-06-02 14:35:16.386
75.0, 16670.020421745827, -81.38270156177302, -52866.10011650326, -44175.026616457304, -19654.581803629615, -20354.101998102906, -677.7495953738207, -6498.255610258057, -0.066, 0.97, 0.382, 192.0, 0.0, 0.0, 0.0, 0.0, 0.0, 0.0, 0.0, 0.0, 0.0, 1.6541733163860972E9, 0.0, 2022-06-02 14:35:16.386
76.0, 16685.15255274207, -70.78797468995747, -52870.88338981669, -44196.618401601125, -19673.401972460983, -20374.777361724064, -696.5921159496446, -6514.460624988154, -0.066, 0.97, 0.382, 192.0, 0.0, 0.0, 0.0, 0.0, 0.0, 0.0, 0.0, 0.0, 0.0, 1.654173316386103E9, 0.0, 2022-06-02 14:35:16.386
77.0, 16679.944596283985, -86.00951266402157, -52853.11375297472, -44199.05474174675, -19685.31545225566, -20388.94836770873, -699.4307874954686, -6529.302183306478, -0.068, 0.96, 0.396, 192.0, 253.0, 224.0, 30.0, 0.0, 12.0, 96.0, 0.0, 0.0, 0.0, 1.654173316386109E9, 0.0, 2022-06-02 14:35:16.386
78.0, 16660.96796524143, -104.82968149539012, -52804.67752274007, -44195.81373880074, -19664.79655084569, -20370.84345469993, -667.4230894354689, -6511.599601697874, -0.068, 0.96, 0.396, 192.0, 0.0, 0.0, 0.0, 0.0, 0.0, 0.0, 0.0, 0.0, 0.0, 1.6541733163861156E9, 0.0, 2022-06-02 14:35:16.386
79.0, 16673.954328769963, -91.21746912210813, -52812.63474376616, -44194.85261378916, -19634.018198730733, -20330.230335024637, -647.5076851257903, -6479.100165259858, -0.068, 0.96, 0.396, 192.0, 0.0, 0.0, 0.0, 0.0, 0.0, 0.0, 0.0, 0.0, 0.0, 1.6541733163861217E9, 0.0, 2022-06-02 14:35:16.386
80.0, 16681.06218350675, -90.23399236607462, -52839.65800281263, -44174.06549144572, -19635.716931309336, -20327.97280883465, -661.5222288992678, -6486.587999652386, -0.068, 0.96, 0.396, 192.0, 0.0, 0.0, 0.0, 0.0, 0.0, 0.0, 0.0, 0.0, 0.0, 1.6541733163861277E9, 0.0, 2022-06-02 14:35:16.386
81.0, 16684.482000408414, -78.4769747825831, -52854.94659602006, -44200.86523304763, -19634.97932374231, -20349.095207344915, -667.9371795579409, -6510.034979586003, -0.068, 0.96, 0.396, 192.0, 0.0, 0.0, 0.0, 0.0, 0.0, 0.0, 0.0, 0.0, 0.0, 1.6541733163861349E9, 0.0, 2022-06-02 14:35:16.386
82.0, 16680.19046547299, -74.96775090309988, -52854.678375086594, -44188.25884917484, -19654.201823973875, -20376.69961174722, -680.677673897466, -6517.299296533978, -0.068, 0.96, 0.396, 192.0, 0.0, 0.0, 0.0, 0.0, 0.0, 0.0, 0.0, 0.0, 0.0, 1.6541733163861413E9, 0.0, 2022-06-02 14:35:16.386
83.0, 16669.841607790186, -74.45366078062783, -52814.08760715576, -44183.38616888358, -19654.358286185063, -20363.3556203074, -691.0712350691838, -6506.324590006422, -0.068, 0.96, 0.396, 192.0, 0.0, 0.0, 0.0, 0.0, 0.0, 0.0, 0.0, 0.0, 0.0, 1.6541733163861473E9, 0.0, 2022-06-02 14:35:16.386
84.0, 16657.369334384126, -73.98427414706637, -52819.20615663602, -44200.41819815853, -19630.508974851247, -20324.821212866453, -678.9118860854967, -6473.892208801772, -0.068, 0.96, 0.396, 192.0, 0.0, 0.0, 0.0, 0.0, 0.0, 0.0, 0.0, 0.0, 0.0, 1.6541733163861544E9, 0.0, 2022-06-02 14:35:16.386
85.0, 16652.29548839277, -92.11153890032041, -52853.85136054175, -44199.39001791358, -19638.82382378862, -20330.811480380475, -676.0061593063068, -6477.736708848084, -0.068, 0.96, 0.396, 192.0, 0.0, 0.0, 0.0, 0.0, 0.0, 0.0, 0.0, 0.0, 0.0, 1.6541733163861623E9, 0.0, 2022-06-02 14:35:16.386
86.0, 16663.91839550953, -86.90358244223385, -52861.808581567835, -44223.41814320304, -19647.362190170552, -20351.93387889074, -650.1451909715165, -6490.946589821171, -0.068, 0.96, 0.396, 192.0, 0.0, 0.0, 0.0, 0.0, 0.0, 0.0, 0.0, 0.0, 0.0, 1.6541733163861728E9, 0.0, 2022-06-02 14:35:16.386
87.0, 16650.552052325256, -95.75487324653545, -52863.59672112426, -44177.88763974758, -19662.06963802214, -20379.694745504232, -651.3298334276478, -6512.650133687274, -0.066, 0.9380000000000001, 0.406, 192.0, 253.0, 240.0, 29.0, 80.0, 12.0, 176.0, 0.0, 0.0, 0.0, 1.65417331638618E9, 0.0, 2022-06-02 14:35:16.386
88.0, 16645.366447611625, -90.59162027735952, -52859.3275379333, -44171.383282111085, -19647.83157680411, -20365.255518586102, -641.9644525008741, -6502.681255660207, -0.066, 0.9380000000000001, 0.406, 192.0, 0.0, 0.0, 0.0, 0.0, 0.0, 0.0, 0.0, 0.0, 0.0, 1.654173316386186E9, 0.0, 2022-06-02 14:35:16.386
89.0, 16647.735732523888, -90.72573074409136, -52850.61035759573, -44191.097520720665, -19627.849117261067, -20328.21867802366, -639.5281123552456, -6490.231333998601, -0.066, 0.9380000000000001, 0.406, 192.0, 0.0, 0.0, 0.0, 0.0, 0.0, 0.0, 0.0, 0.0, 0.0, 1.654173316386192E9, 0.0, 2022-06-02 14:35:16.386
90.0, 16642.706590021444, -92.22329762259695, -52859.05931699983, -44253.30242553978, -19637.013332487742, -20347.17295732176, -666.5066679128013, -6513.611258698852, -0.066, 0.9380000000000001, 0.406, 192.0, 0.0, 0.0, 0.0, 0.0, 0.0, 0.0, 0.0, 0.0, 0.0, 1.6541733163862042E9, 0.0, 2022-06-02 14:35:16.386
91.0, 16631.553069538244, -109.76941702001298, -52877.45480268655, -44249.346166771196, -19657.465178664348, -20384.925053706775, -694.4910519708458, -6542.556767768475, -0.066, 0.9380000000000001, 0.406, 192.0, 0.0, 0.0, 0.0, 0.0, 0.0, 0.0, 0.0, 0.0, 0.0, 1.65417331638621E9, 0.0, 2022-06-02 14:35:16.386
92.0, 16633.117691650117, -108.11538793032027, -52862.97087227951, -44216.489102421896, -19672.08321953812, -20402.85115275993, -707.5891742216556, -6543.316727079956, -0.066, 0.9380000000000001, 0.406, 192.0, 0.0, 0.0, 0.0, 0.0, 0.0, 0.0, 0.0, 0.0, 0.0, 1.654173316386216E9, 0.0, 2022-06-02 14:35:16.386
93.0, 16636.269287618314, -94.81609997941256, -52845.69297381556, -44200.060570247246, -19656.571108886135, -20378.55480653701, -686.8020518782201, -6516.695799433684, -0.066, 0.9380000000000001, 0.406, 192.0, 0.0, 0.0, 0.0, 0.0, 0.0, 0.0, 0.0, 0.0, 0.0, 1.654173316386222E9, 0.0, 2022-06-02 14:35:16.386
94.0, 16639.175014397504, -98.37002734780638, -52851.57148260731, -44204.95560228296, -19635.64987607597, -20341.629724696842, -657.1859904749383, -6470.271226200012, -0.066, 0.9380000000000001, 0.406, 192.0, 0.0, 0.0, 0.0, 0.0, 0.0, 0.0, 0.0, 0.0, 0.0, 1.654173316386228E9, 0.0, 2022-06-02 14:35:16.386
95.0, 16644.561784811234, -95.576059290893, -52864.15551473564, -44229.31900373924, -19631.112471951543, -20330.297390258, -659.0635370091841, -6470.204170966646, -0.066, 0.9380000000000001, 0.406, 192.0, 0.0, 0.0, 0.0, 0.0, 0.0, 0.0, 0.0, 0.0, 0.0, 1.6541733163862348E9, 0.0, 2022-06-02 14:35:16.386
96.0, 16630.34607533766, -102.70626577213595, -52893.92803835011, -44278.93987643002, -19646.60223085907, -20355.42075102577, -677.7048918849101, -6495.99808406807, -0.066, 0.9380000000000001, 0.406, 192.0, 0.0, 0.0, 0.0, 0.0, 0.0, 0.0, 0.0, 0.0, 0.0, 1.6541733163862405E9, 0.0, 2022-06-02 14:35:16.386
97.0, 16628.177956125495, -106.93074547418898, -52866.25657871444, -44182.60385782765, -19666.00354504628, -20384.6121292844, -682.644627409533, -6523.893061148294, -0.058, 0.93, 0.418, 192.0, 254.0, 48.0, 29.0, 16.0, 13.0, 16.0, 0.0, 0.0, 0.0, 1.6541733163862467E9, 0.0, 2022-06-02 14:35:16.386
98.0, 16619.483127532378, -96.15720464673099, -52851.07974422929, -44181.64273281607, -19663.097818267088, -20382.89104496134, -677.3472639736252, -6525.412979771255, -0.058, 0.93, 0.418, 192.0, 0.0, 0.0, 0.0, 0.0, 0.0, 0.0, 0.0, 0.0, 0.0, 1.654173316386252E9, 0.0, 2022-06-02 14:35:16.386
99.0, 16605.42388026999, -113.56921357741518, -52891.64816041567, -44243.244140534895, -19656.03466701921, -20366.03782964204, -693.5299269592675, -6517.791034911995, -0.058, 0.93, 0.418, 192.0, 0.0, 0.0, 0.0, 0.0, 0.0, 0.0, 0.0, 0.0, 0.0, 1.6541733163862588E9, 0.0, 2022-06-02 14:35:16.386
100.0, 16623.931124678984, -114.48563510008277, -52868.13412524869, -44230.57070142874, -19643.294172679685, -20347.754102677598, -687.450252467424, -6508.9397441076935, -0.058, 0.93, 0.418, 192.0, 0.0, 0.0, 0.0, 0.0, 0.0, 0.0, 0.0, 0.0, 0.0, 1.6541733163862655E9, 0.0, 2022-06-02 14:35:16.386
101.0, 16629.541412537266, -112.13870193227554, -52898.68895991909, -44224.46867519244, -19656.660515863958, -20374.64325125733, -688.970171090385, -6518.819215156939, -0.058, 0.93, 0.418, 192.0, 0.0, 0.0, 0.0, 0.0, 0.0, 0.0, 0.0, 0.0, 0.0, 1.6541733163862712E9, 0.0, 2022-06-02 14:35:16.386
102.0, 16633.34120909467, -107.08720768537614, -52870.10107876076, -44199.05474174675, -19669.333954970116, -20390.624748542876, -691.093586813639, -6525.837662915906, -0.058, 0.93, 0.418, 192.0, 0.0, 0.0, 0.0, 0.0, 0.0, 0.0, 0.0, 0.0, 0.0, 1.6541733163862772E9, 0.0, 2022-06-02 14:35:16.386
103.0, 16628.714397992422, -95.53135580198239, -52843.68131681458, -44177.194735669465, -19660.16973974344, -20370.150550621816, -685.1033192996168, -6515.712322677651, -0.058, 0.93, 0.418, 192.0, 0.0, 0.0, 0.0, 0.0, 0.0, 0.0, 0.0, 0.0, 0.0, 1.654173316386285E9, 0.0, 2022-06-02 14:35:16.386
104.0, 16630.211964870927, -90.25634411052992, -52850.16332270662, -44193.44445388847, -19636.275724920717, -20331.772605392052, -674.2180197498823, -6494.612275911842, -0.058, 0.93, 0.418, 192.0, 0.0, 0.0, 0.0, 0.0, 0.0, 0.0, 0.0, 0.0, 0.0, 1.6541733163862917E9, 0.0, 2022-06-02 14:35:16.386
105.0, 16631.262496860327, -96.89481221375611, -52848.59870059475, -44198.69711383547, -19630.46427136234, -20327.726939645643, -664.450307422913, -6495.886325345794, -0.058, 0.93, 0.418, 192.0, 0.0, 0.0, 0.0, 0.0, 0.0, 0.0, 0.0, 0.0, 0.0, 1.6541733163862977E9, 0.0, 2022-06-02 14:35:16.386
106.0, 16634.5258515508, -98.37002734780638, -52869.45287817155, -44249.27911153783, -19637.683884821403, -20354.146701591817, -689.193688534938, -6529.749218195584, -0.058, 0.93, 0.418, 192.0, 0.0, 0.0, 0.0, 0.0, 0.0, 0.0, 0.0, 0.0, 0.0, 1.6541733163863037E9, 0.0, 2022-06-02 14:35:16.386
107.0, 16636.58221204069, -98.92882095918905, -52858.83579955528, -44227.866140349644, -19652.704257095367, -20387.94253920824, -694.5581072042116, -6553.687936507218, -0.064, 0.934, 0.426, 192.0, 254.0, 0.0, 29.0, 48.0, 13.0, 80.0, 0.0, 0.0, 0.0, 1.6541733163863091E9, 0.0, 2022-06-02 14:35:16.386
108.0, 16619.885458932575, -100.38168434878402, -52842.94370924756, -44182.33563689418, -19647.786873315203, -20377.571329780978, -665.8808190680527, -6540.947442167693, -0.064, 0.934, 0.426, 192.0, 0.0, 0.0, 0.0, 0.0, 0.0, 0.0, 0.0, 0.0, 0.0, 1.654173316386315E9, 0.0, 2022-06-02 14:35:16.386
109.0, 16603.14400233555, -98.14650990325332, -52847.70463081654, -44200.84288130318, -19643.137710468498, -20336.108843816382, -672.0722522821727, -6497.138023035291, -0.064, 0.934, 0.426, 192.0, 0.0, 0.0, 0.0, 0.0, 0.0, 0.0, 0.0, 0.0, 0.0, 1.6541733163863215E9, 0.0, 2022-06-02 14:35:16.386
110.0, 16625.898078191054, -87.93176268717798, -52859.34988967775, -44233.52113169684, -19635.582820842603, -20317.758061618577, -672.4075284490024, -6486.722110119118, -0.064, 0.934, 0.426, 192.0, 0.0, 0.0, 0.0, 0.0, 0.0, 0.0, 0.0, 0.0, 0.0, 1.6541733163863297E9, 0.0, 2022-06-02 14:35:16.386
111.0, 16641.119616165117, -84.13196612977579, -52869.20700898254, -44274.04484439431, -19644.277649435717, -20332.867840870364, -688.4113774790022, -6513.901831376771, -0.064, 0.934, 0.426, 192.0, 0.0, 0.0, 0.0, 0.0, 0.0, 0.0, 0.0, 0.0, 0.0, 1.6541733163863401E9, 0.0, 2022-06-02 14:35:16.386
112.0, 16649.121540680117, -78.96871316059985, -52852.1749797076, -44166.80117449775, -19658.448655420383, -20351.68800970173, -700.7495404183318, -6527.424636772232, -0.064, 0.934, 0.426, 192.0, 0.0, 0.0, 0.0, 0.0, 0.0, 0.0, 0.0, 0.0, 0.0, 1.6541733163863459E9, 0.0, 2022-06-02 14:35:16.386
113.0, 16656.67643030601, -74.58777124735967, -52821.128406659176, -44145.5670172652, -19647.541004126193, -20350.950402134706, -664.8302870786533, -6509.364427252344, -0.064, 0.934, 0.426, 192.0, 0.0, 0.0, 0.0, 0.0, 0.0, 0.0, 0.0, 0.0, 0.0, 1.6541733163863523E9, 0.0, 2022-06-02 14:35:16.386
114.0, 16654.932994238497, -73.82781193587923, -52824.86114798322, -44151.93726443497, -19618.68490203439, -20307.722128358142, -646.8818362810417, -6494.835793356395, -0.064, 0.934, 0.426, 192.0, 0.0, 0.0, 0.0, 0.0, 0.0, 0.0, 0.0, 0.0, 0.0, 1.6541733163863585E9, 0.0, 2022-06-02 14:35:16.386
115.0, 16645.09822667816, -88.37879757628413, -52867.86590431522, -44195.567869611725, -19621.635332302492, -20307.945645802694, -663.4444789224242, -6503.217697527135, -0.064, 0.934, 0.426, 192.0, 0.0, 0.0, 0.0, 0.0, 0.0, 0.0, 0.0, 0.0, 0.0, 1.6541733163863637E9, 0.0, 2022-06-02 14:35:16.386
116.0, 16647.981601712894, -92.24564936705225, -52871.15161075015, -44200.14997722507, -19639.784948800203, -20341.02622759655, -690.0430548242397, -6531.649116474285, -0.078, 0.932, 0.424, 192.0, 253.0, 144.0, 29.0, 32.0, 13.0, 64.0, 0.0, 0.0, 0.0, 1.6541733163863692E9, 0.0, 2022-06-02 14:35:16.386
117.0, 16665.527721110313, -70.11742235629825, -52857.338232676775, -44172.63497980058, -19637.058035976654, -20348.15643407779, -682.9128483429967, -6541.170959612246, -0.078, 0.932, 0.424, 192.0, 0.0, 0.0, 0.0, 0.0, 0.0, 0.0, 0.0, 0.0, 0.0, 1.6541733163863754E9, 0.0, 2022-06-02 14:35:16.386
118.0, 16648.898023235564, -75.0124543920105, -52843.144874947655, -44168.34344486516, -19639.382617400006, -20348.044675355515, -661.5669323881784, -6530.352715295878, -0.078, 0.932, 0.424, 192.0, 0.0, 0.0, 0.0, 0.0, 0.0, 0.0, 0.0, 0.0, 0.0, 1.654173316386381E9, 0.0, 2022-06-02 14:35:16.386
119.0, 16641.745465009866, -73.4031287912284, -52797.16733660309, -44177.30649439174, -19614.192201398873, -20306.470430668644, -638.902263510497, -6486.8115170969395, -0.078, 0.932, 0.424, 192.0, 0.0, 0.0, 0.0, 0.0, 0.0, 0.0, 0.0, 0.0, 0.0, 1.654173316386387E9, 0.0, 2022-06-02 14:35:16.386
120.0, 16633.56472653922, -72.57611424638203, -52834.60650856573, -44185.17430844001, -19622.9317334809, -20299.83196256542, -660.9187317989746, -6483.61521763983, -0.078, 0.932, 0.424, 192.0, 0.0, 0.0, 0.0, 0.0, 0.0, 0.0, 0.0, 0.0, 0.0, 1.6541733163863935E9, 0.0, 2022-06-02 14:35:16.386
121.0, 16653.90481399355, -60.95320712962236, -52841.28968015787, -44195.94784926747, -19618.662550289937, -20318.473317441145, -652.0674409946729, -6498.680293402707, -0.078, 0.932, 0.424, 192.0, 0.0, 0.0, 0.0, 0.0, 0.0, 0.0, 0.0, 0.0, 0.0, 1.6541733168657095E9, 0.0, 2022-06-02 14:35:16.865
122.0, 16658.285755906792, -64.59654147583741, -52845.737677304474, -44204.50856739385, -19626.530364338203, -20350.190442823226, -647.9100165259858, -6518.014552356548, -0.078, 0.932, 0.424, 192.0, 0.0, 0.0, 0.0, 0.0, 0.0, 0.0, 0.0, 0.0, 0.0, 1.6541733168657825E9, 0.0, 2022-06-02 14:35:16.865
123.0, 16638.5268138083, -83.57317251839311, -52831.901947486636, -44220.33360246821, -19624.31754163713, -20346.144777076814, -642.5455978567121, -6507.196308040179, -0.078, 0.932, 0.424, 192.0, 0.0, 0.0, 0.0, 0.0, 0.0, 0.0, 0.0, 0.0, 0.0, 1.6541733168658485E9, 0.0, 2022-06-02 14:35:16.865
124.0, 16619.01374089882, -101.00753319353262, -52838.83098826778, -44224.20045425898, -19619.51191657924, -20322.988369821116, -653.0732694951618, -6493.941723578182, -0.078, 0.932, 0.424, 192.0, 0.0, 0.0, 0.0, 0.0, 0.0, 0.0, 0.0, 0.0, 0.0, 1.6541733168658571E9, 0.0, 2022-06-02 14:35:16.865
125.0, 16629.831985215187, -97.52066105850471, -52846.65409882714, -44200.395846414074, -19618.50608807875, -20315.187611006215, -670.1723540034717, -6502.614200426841, -0.078, 0.932, 0.424, 192.0, 0.0, 0.0, 0.0, 0.0, 0.0, 0.0, 0.0, 0.0, 0.0, 1.6541733168658648E9, 0.0, 2022-06-02 14:35:16.865
126.0, 16656.117636694627, -80.1086521278205, -52847.43640988308, -44172.61262805613, -19620.830669502102, -20328.330436745935, -676.2743802397705, -6510.034979586003, -0.076, 0.9380000000000001, 0.41600000000000004, 192.0, 253.0, 160.0, 29.0, 80.0, 13.0, 0.0, 0.0, 0.0, 0.0, 1.6541733168658712E9, 0.0, 2022-06-02 14:35:16.865
127.0, 16654.597718071665, -79.86278293881213, -52862.14385773466, -44204.88854704959, -19643.271820935228, -20362.819178440473, -688.5678396901893, -6544.948404425193, -0.076, 0.9380000000000001, 0.41600000000000004, 192.0, 0.0, 0.0, 0.0, 0.0, 0.0, 0.0, 0.0, 0.0, 0.0, 1.654173316865878E9, 0.0, 2022-06-02 14:35:16.865
128.0, 16640.113787664628, -81.44975679513894, -52841.11086620222, -44154.86534295861, -19640.053169733666, -20359.89109991683, -670.9099615704968, -6539.248709589089, -0.076, 0.9380000000000001, 0.41600000000000004, 192.0, 0.0, 0.0, 0.0, 0.0, 0.0, 0.0, 0.0, 0.0, 0.0, 1.6541733168658848E9, 0.0, 2022-06-02 14:35:16.865
129.0, 16640.404360342545, -83.28259984047412, -52806.73388322996, -44149.74679347835, -19620.78596601319, -20316.662826140266, -650.5698741161674, -6486.699758374662, -0.076, 0.9380000000000001, 0.41600000000000004, 192.0, 0.0, 0.0, 0.0, 0.0, 0.0, 0.0, 0.0, 0.0, 0.0, 1.6541733168658917E9, 0.0, 2022-06-02 14:35:16.865
130.0, 16656.58702332819, -76.2418003370524, -52824.86114798322, -44164.65540703004, -19609.811259485636, -20299.20611372067, -659.935255042941, -6471.969958778615, -0.076, 0.9380000000000001, 0.41600000000000004, 192.0, 0.0, 0.0, 0.0, 0.0, 0.0, 0.0, 0.0, 0.0, 0.0, 1.654173316865898E9, 0.0, 2022-06-02 14:35:16.865
131.0, 16659.895081507573, -78.72284397159147, -52860.355718178245, -44189.51054686434, -19625.859812004546, -20325.60352392239, -697.9779241058736, -6497.138023035291, -0.076, 0.9380000000000001, 0.41600000000000004, 192.0, 0.0, 0.0, 0.0, 0.0, 0.0, 0.0, 0.0, 0.0, 0.0, 1.6541733168659074E9, 0.0, 2022-06-02 14:35:16.865
132.0, 16653.4801308489, -89.27286735449641, -52837.08755220027, -44194.517337622325, -19638.622658088527, -20354.705495203198, -683.5386971877452, -6533.638421730808, -0.076, 0.9380000000000001, 0.41600000000000004, 192.0, 0.0, 0.0, 0.0, 0.0, 0.0, 0.0, 0.0, 0.0, 0.0, 1.6541733168659556E9, 0.0, 2022-06-02 14:35:16.865
133.0, 16639.063255675228, -95.33019010188463, -52825.48699682796, -44182.3803403831, -19629.659608561946, -20365.322573819467, -639.4387053774244, -6520.696761691184, -0.076, 0.9380000000000001, 0.41600000000000004, 192.0, 0.0, 0.0, 0.0, 0.0, 0.0, 0.0, 0.0, 0.0, 0.0, 1.6541733168659613E9, 0.0, 2022-06-02 14:35:16.865
134.0, 16634.794072484263, -96.98421919157734, -52838.31689814531, -44171.71855827791, -19610.414756585928, -20327.145794289805, -635.8847780090306, -6471.500572145053, -0.076, 0.9380000000000001, 0.41600000000000004, 192.0, 0.0, 0.0, 0.0, 0.0, 0.0, 0.0, 0.0, 0.0, 0.0, 1.6541733168659668E9, 0.0, 2022-06-02 14:35:16.865
135.0, 16640.247898131358, -92.51387030051593, -52840.46266561302, -44205.87202380563, -19609.610093785537, -20316.148736017793, -663.9585690448963, -6488.800822353462, -0.076, 0.9380000000000001, 0.41600000000000004, 192.0, 0.0, 0.0, 0.0, 0.0, 0.0, 0.0, 0.0, 0.0, 0.0, 1.6541733168659725E9, 0.0, 2022-06-02 14:35:16.865
136.0, 16630.614296271124, -100.49344307106055, -52865.094288002765, -44224.580433914714, -19638.242678432784, -20344.51309973158, -683.51634544329, -6520.04856110198, -0.074, 0.9380000000000001, 0.41200000000000003, 192.0, 253.0, 176.0, 29.0, 80.0, 12.0, 224.0, 0.0, 0.0, 0.0, 1.654173316865978E9, 0.0, 2022-06-02 14:35:16.865
137.0, 16634.257630617336, -96.04544592445446, -52839.83681676827, -44221.76411411335, -19649.396198915983, -20356.337172548436, -689.9312961019631, -6519.9815058686145, -0.074, 0.9380000000000001, 0.41200000000000003, 192.0, 0.0, 0.0, 0.0, 0.0, 0.0, 0.0, 0.0, 0.0, 0.0, 1.654173316865984E9, 0.0, 2022-06-02 14:35:16.865
138.0, 16627.52975553629, -90.77043423300198, -52825.397589850145, -44246.21692254745, -19643.629448846514, -20352.760893435585, -680.7670808752872, -6517.589869211897, -0.074, 0.9380000000000001, 0.41200000000000003, 192.0, 0.0, 0.0, 0.0, 0.0, 0.0, 0.0, 0.0, 0.0, 0.0, 1.654173316865992E9, 0.0, 2022-06-02 14:35:16.865
139.0, 16620.108976377127, -88.37879757628413, -52832.12546493119, -44175.250133901856, -19622.283532891695, -20323.7483291326, -653.9449875289188, -6495.416938712232, -0.074, 0.9380000000000001, 0.41200000000000003, 192.0, 0.0, 0.0, 0.0, 0.0, 0.0, 0.0, 0.0, 0.0, 0.0, 1.6541733168659976E9, 0.0, 2022-06-02 14:35:16.865
140.0, 16612.352921051137, -106.14843441825325, -52862.926168790604, -44161.72732850639, -19633.12412895252, -20321.356692475878, -670.0382435367399, -6484.375176951311, -0.074, 0.9380000000000001, 0.41200000000000003, 192.0, 0.0, 0.0, 0.0, 0.0, 0.0, 0.0, 0.0, 0.0, 0.0, 1.654173316866003E9, 0.0, 2022-06-02 14:35:16.866
141.0, 16616.15271760854, -112.13870193227554, -52901.08059657581, -44205.916727294534, -19651.22904196132, -20350.145739334315, -702.4929764858457, -6516.315819777945, -0.074, 0.9380000000000001, 0.41200000000000003, 192.0, 0.0, 0.0, 0.0, 0.0, 0.0, 0.0, 0.0, 0.0, 0.0, 1.6541733168660083E9, 0.0, 2022-06-02 14:35:16.866
142.0, 16609.693063460956, -112.07164669890962, -52879.24294224298, -44206.36376218364, -19667.925795069434, -20381.438181571746, -704.0575985977172, -6544.389610813811, -0.074, 0.9380000000000001, 0.41200000000000003, 192.0, 0.0, 0.0, 0.0, 0.0, 0.0, 0.0, 0.0, 0.0, 0.0, 1.6541733168660138E9, 0.0, 2022-06-02 14:35:16.866
143.0, 16610.229505327883, -96.58188779138182, -52814.2664211114, -44189.75641605335, -19652.927774539923, -20358.661753971788, -674.3074267277035, -6531.783226941017, -0.074, 0.9380000000000001, 0.41200000000000003, 192.0, 0.0, 0.0, 0.0, 0.0, 0.0, 0.0, 0.0, 0.0, 0.0, 1.6541733168660192E9, 0.0, 2022-06-02 14:35:16.866
144.0, 16603.635740713566, -102.75096926104656, -52834.65121205464, -44189.19762244196, -19625.949218982365, -20319.546201175, -663.1315545000499, -6494.6793311452075, -0.074, 0.9380000000000001, 0.41200000000000003, 192.0, 0.0, 0.0, 0.0, 0.0, 0.0, 0.0, 0.0, 0.0, 0.0, 1.6541733168660252E9, 0.0, 2022-06-02 14:35:16.866
145.0, 16607.323778548693, -113.47980659959396, -52860.623939111705, -44186.068378218224, -19631.335989396095, -20315.858163339875, -680.2529907528151, -6494.947552078671, -0.074, 0.9380000000000001, 0.41200000000000003, 192.0, 0.0, 0.0, 0.0, 0.0, 0.0, 0.0, 0.0, 0.0, 0.0, 1.654173316866032E9, 0.0, 2022-06-02 14:35:16.866
146.0, 16618.410243798524, -110.73054203159118, -52861.56271237883, -44210.09650350768, -19648.725646582323, -20350.16809107877, -696.9273921164743, -6525.189462326702, -0.074, 0.9380000000000001, 0.41200000000000003, 192.0, 253.0, 176.0, 29.0, 80.0, 12.0, 224.0, 0.0, 0.0, 0.0, 1.6541733168660383E9, 0.0, 2022-06-02 14:35:16.866
147.0, 16630.033150915286, -98.01239943652146, -52843.45779937003, -44195.009076000344, -19660.057981021164, -20369.904681432807, -698.80493865072, -6542.668526490752, -0.074, 0.9380000000000001, 0.41200000000000003, 192.0, 0.0, 0.0, 0.0, 0.0, 0.0, 0.0, 0.0, 0.0, 0.0, 1.6541733168660436E9, 0.0, 2022-06-02 14:35:16.866
148.0, 16622.120633378105, -94.74904474604664, -52825.50934857242, -44178.737006036885, -19655.252355963275, -20361.232204584147, -689.2383920238486, -6533.884290919816, -0.074, 0.9380000000000001, 0.41200000000000003, 192.0, 0.0, 0.0, 0.0, 0.0, 0.0, 0.0, 0.0, 0.0, 0.0, 1.6541733168660493E9, 0.0, 2022-06-02 14:35:16.866
149.0, 16615.43746178597, -89.47403305459417, -52835.18765392157, -44172.79144201177, -19634.75580629776, -20327.704587901186, -669.1441737585276, -6501.518964948531, -0.074, 0.9380000000000001, 0.41200000000000003, 192.0, 0.0, 0.0, 0.0, 0.0, 0.0, 0.0, 0.0, 0.0, 0.0, 1.6541733168661327E9, 0.0, 2022-06-02 14:35:16.866
150.0, 16606.139136092563, -96.24661162455222, -52868.29058745987, -44213.963355298445, -19642.064826734644, -20327.88340185683, -681.0800052976615, -6509.498537719076, -0.074, 0.9380000000000001, 0.41200000000000003, 192.0, 0.0, 0.0, 0.0, 0.0, 0.0, 0.0, 0.0, 0.0, 0.0, 1.6541733168661427E9, 0.0, 2022-06-02 14:35:16.866
151.0, 16616.376235053092, -101.38751284927284, -52888.04952955837, -44241.21013178946, -19651.31844893914, -20354.034942869537, -695.7203979158876, -6539.159302611269, -0.074, 0.9380000000000001, 0.41200000000000003, 192.0, 0.0, 0.0, 0.0, 0.0, 0.0, 0.0, 0.0, 0.0, 0.0, 1.6541733168661509E9, 0.0, 2022-06-02 14:35:16.866
152.0, 16630.10020614865, -93.02796042298799, -52836.10407544424, -44178.42408161451, -19652.905422795466, -20369.256480843604, -692.3899879920468, -6543.495541035598, -0.074, 0.9380000000000001, 0.41200000000000003, 192.0, 0.0, 0.0, 0.0, 0.0, 0.0, 0.0, 0.0, 0.0, 0.0, 1.65417331686616E9, 0.0, 2022-06-02 14:35:16.866
153.0, 16627.663866003022, -103.71209427262477, -52802.84467969474, -44168.522258820805, -19644.635277347003, -20360.405190039302, -689.3948542350357, -6527.3128780499555, -0.074, 0.9380000000000001, 0.41200000000000003, 192.0, 0.0, 0.0, 0.0, 0.0, 0.0, 0.0, 0.0, 0.0, 0.0, 1.6541733168661718E9, 0.0, 2022-06-02 14:35:16.866
154.0, 16613.33639780717, -96.35837034682875, -52827.61041255122, -44221.093561779686, -19626.150384682463, -20326.36348323387, -672.2287144933599, -6509.252668530067, -0.074, 0.9380000000000001, 0.41200000000000003, 192.0, 0.0, 0.0, 0.0, 0.0, 0.0, 0.0, 0.0, 0.0, 0.0, 1.6541733168661835E9, 0.0, 2022-06-02 14:35:16.866
155.0, 16619.349017065648, -91.01630342201035, -52854.812485553324, -44192.34921841016, -19613.722814765315, -20309.823192336942, -639.5281123552456, -6493.964075322638, -0.074, 0.9380000000000001, 0.41200000000000003, 192.0, 0.0, 0.0, 0.0, 0.0, 0.0, 0.0, 0.0, 0.0, 0.0, 1.654173316866189E9, 0.0, 2022-06-02 14:35:16.866
156.0, 16634.34703759516, -83.2155446071082, -52831.544319575354, -44156.94405519296, -19622.238829402784, -20319.054462796983, -653.7214700843657, -6482.318816461422, -0.068, 0.9500000000000001, 0.41200000000000003, 192.0, 253.0, 224.0, 29.0, 176.0, 12.0, 224.0, 0.0, 0.0, 0.0, 1.6541733168661973E9, 0.0, 2022-06-02 14:35:16.866
157.0, 16630.30137184875, -85.80834696392381, -52827.476302084484, -44184.391997384075, -19642.534213368202, -20365.009649397096, -681.1917640199381, -6533.1243316083355, -0.068, 0.9500000000000001, 0.41200000000000003, 192.0, 0.0, 0.0, 0.0, 0.0, 0.0, 0.0, 0.0, 0.0, 0.0, 1.654173316866204E9, 0.0, 2022-06-02 14:35:16.866
158.0, 16634.369389339612, -78.27580908248534, -52813.55116528883, -44171.115061177625, -19633.235887674797, -20360.74046620613, -664.7855835897427, -6528.408113528266, -0.068, 0.9500000000000001, 0.41200000000000003, 192.0, 0.0, 0.0, 0.0, 0.0, 0.0, 0.0, 0.0, 0.0, 0.0, 1.6541733168662097E9, 0.0, 2022-06-02 14:35:16.866
159.0, 16639.48793881988, -79.34869281634008, -52818.043865924345, -44186.5824683407, -19616.20385839985, -20315.63464589532, -648.2005892039048, -6484.598694395864, -0.068, 0.9500000000000001, 0.41200000000000003, 192.0, 0.0, 0.0, 0.0, 0.0, 0.0, 0.0, 0.0, 0.0, 0.0, 1.6541733168662157E9, 0.0, 2022-06-02 14:35:16.866
160.0, 16651.334363381193, -74.85599218082335, -52823.40828459362, -44203.74860808237, -19616.22621014431, -20311.276055726536, -678.2636854962929, -6499.596714925375, -0.068, 0.9500000000000001, 0.41200000000000003, 192.0, 0.0, 0.0, 0.0, 0.0, 0.0, 0.0, 0.0, 0.0, 0.0, 1.654173316866223E9, 0.0, 2022-06-02 14:35:16.866
161.0, 16649.18859591348, -79.79572770544621, -52834.56180507682, -44271.27322808185, -19632.542983596682, -20341.20504155219, -692.5017467143234, -6510.414959241743, -0.068, 0.9500000000000001, 0.41200000000000003, 192.0, 0.0, 0.0, 0.0, 0.0, 0.0, 0.0, 0.0, 0.0, 0.0, 1.654173316866229E9, 0.0, 2022-06-02 14:35:16.866
162.0, 16644.00299119985, -87.6635417537143, -52823.18476714907, -44201.736951081395, -19640.544908111682, -20367.445989542724, -647.4629816368797, -6505.609334183852, -0.068, 0.9500000000000001, 0.41200000000000003, 192.0, 0.0, 0.0, 0.0, 0.0, 0.0, 0.0, 0.0, 0.0, 0.0, 1.6541733168662348E9, 0.0, 2022-06-02 14:35:16.866
163.0, 16647.71338077943, -67.85989616631224, -52782.97397887397, -44150.126773134085, -19620.584800313092, -20359.667582472277, -616.5058155662794, -6473.668691357218, -0.068, 0.9500000000000001, 0.41200000000000003, 192.0, 0.0, 0.0, 0.0, 0.0, 0.0, 0.0, 0.0, 0.0, 0.0, 1.6541733168662405E9, 0.0, 2022-06-02 14:35:16.866
164.0, 16644.740598766875, -71.1679543456977, -52795.58036274676, -44176.635942058085, -19609.20776238534, -20324.038901810516, -615.4999870657906, -6454.759115548029, -0.068, 0.9500000000000001, 0.41200000000000003, 192.0, 0.0, 0.0, 0.0, 0.0, 0.0, 0.0, 0.0, 0.0, 0.0, 1.6541733168662457E9, 0.0, 2022-06-02 14:35:16.866
165.0, 16648.38393311309, -68.23987582205247, -52804.141080873145, -44219.73010536791, -19596.55667502364, -20302.35770968887, -618.6515830339889, -6450.154656190236, -0.068, 0.9500000000000001, 0.41200000000000003, 192.0, 0.0, 0.0, 0.0, 0.0, 0.0, 0.0, 0.0, 0.0, 0.0, 1.6541733168662512E9, 0.0, 2022-06-02 14:35:16.866
166.0, 16641.454892331945, -67.36815778829549, -52828.1692061626, -44208.64364011808, -19619.69073053488, -20326.83286986743, -634.677783808444, -6459.56474060592, -0.066, 0.9460000000000001, 0.41000000000000003, 192.0, 253.0, 240.0, 29.0, 144.0, 12.0, 208.0, 0.0, 0.0, 0.0, 1.6541733168662567E9, 0.0, 2022-06-02 14:35:16.866
167.0, 16649.859148247142, -68.37398628878431, -52833.60068006524, -44181.396863627066, -19627.26797190523, -20346.88238464384, -633.2696239077598, -6471.478220400599, -0.066, 0.9460000000000001, 0.41000000000000003, 192.0, 0.0, 0.0, 0.0, 0.0, 0.0, 0.0, 0.0, 0.0, 0.0, 1.6541733168662636E9, 0.0, 2022-06-02 14:35:16.866
168.0, 16647.7804360128, -71.68204446816975, -52808.544374530844, -44163.60487504064, -19619.958951468343, -20336.958210105684, -626.4299901044358, -6462.314005173923, -0.066, 0.9460000000000001, 0.41000000000000003, 192.0, 0.0, 0.0, 0.0, 0.0, 0.0, 0.0, 0.0, 0.0, 0.0, 1.6541733168662705E9, 0.0, 2022-06-02 14:35:16.866
169.0, 16628.490880547866, -85.94245743065565, -52799.78249070436, -44193.17623295501, -19616.36032061104, -20313.801802849986, -628.9557372278855, -6449.394696878755, -0.066, 0.9460000000000001, 0.41000000000000003, 192.0, 0.0, 0.0, 0.0, 0.0, 0.0, 0.0, 0.0, 0.0, 0.0, 1.654173316866279E9, 0.0, 2022-06-02 14:35:16.866
170.0, 16639.979677197894, -74.47601252508314, -52806.0633308963, -44253.257722050876, -19609.63244552999, -20299.742555587596, -629.4698273503575, -6445.259624154523, -0.066, 0.9460000000000001, 0.41000000000000003, 192.0, 0.0, 0.0, 0.0, 0.0, 0.0, 0.0, 0.0, 0.0, 0.0, 1.6541733168662841E9, 0.0, 2022-06-02 14:35:16.866
171.0, 16639.063255675228, -84.08726264086516, -52849.448066884055, -44220.44536119048, -19632.922963252422, -20338.478128728646, -668.7418423583321, -6479.726014104607, -0.066, 0.9460000000000001, 0.41000000000000003, 192.0, 0.0, 0.0, 0.0, 0.0, 0.0, 0.0, 0.0, 0.0, 0.0, 1.6541733168662896E9, 0.0, 2022-06-02 14:35:16.866
172.0, 16657.704610550954, -68.0387101219547, -52832.97483122049, -44182.69326480547, -19641.97541975682, -20367.378934309356, -671.3793482040583, -6496.7356916350955, -0.066, 0.9460000000000001, 0.41000000000000003, 192.0, 0.0, 0.0, 0.0, 0.0, 0.0, 0.0, 0.0, 0.0, 0.0, 1.654173316866295E9, 0.0, 2022-06-02 14:35:16.866
173.0, 16657.794017528777, -68.70926245561391, -52802.21883084999, -44176.88181124709, -19635.35930339805, -20359.444065027725, -646.7477258143099, -6480.195400738168, -0.066, 0.9460000000000001, 0.41000000000000003, 192.0, 0.0, 0.0, 0.0, 0.0, 0.0, 0.0, 0.0, 0.0, 0.0, 1.6541733168663008E9, 0.0, 2022-06-02 14:35:16.866
174.0, 16641.365485354127, -80.06394863890989, -52809.28198209786, -44194.60674460015, -19621.657684046946, -20337.002913594595, -635.2812809087374, -6452.568644591409, -0.066, 0.9460000000000001, 0.41000000000000003, 192.0, 0.0, 0.0, 0.0, 0.0, 0.0, 0.0, 0.0, 0.0, 0.0, 1.6541733168663065E9, 0.0, 2022-06-02 14:35:16.866
175.0, 16639.28677311978, -92.67033251170308, -52840.44031386857, -44219.26071873435, -19626.50801259375, -20336.533526961033, -650.8604467940863, -6468.170162221213, -0.066, 0.9460000000000001, 0.41000000000000003, 192.0, 0.0, 0.0, 0.0, 0.0, 0.0, 0.0, 0.0, 0.0, 0.0, 1.6541733168663151E9, 0.0, 2022-06-02 14:35:16.866
176.0, 16650.552052325256, -89.898716199245, -52854.7230785755, -44232.5376549408, -19640.433149389406, -20355.532509748045, -673.9945023053292, -6484.218714740124, -0.056, 0.936, 0.406, 192.0, 254.0, 64.0, 29.0, 64.0, 12.0, 176.0, 0.0, 0.0, 0.0, 1.6541733168663204E9, 0.0, 2022-06-02 14:35:16.866
177.0, 16656.095284950174, -77.00175964853283, -52850.65506108464, -44249.972015615946, -19659.23096647632, -20383.159265894803, -676.9896360623403, -6496.512174190542, -0.056, 0.936, 0.406, 192.0, 0.0, 0.0, 0.0, 0.0, 0.0, 0.0, 0.0, 0.0, 0.0, 1.6541733168663256E9, 0.0, 2022-06-02 14:35:16.866
178.0, 16643.399494099558, -77.91818117120042, -52844.46362787052, -44251.11195458317, -19653.151291984475, -20375.93965243574, -635.1471704420055, -6481.268284472023, -0.056, 0.936, 0.406, 192.0, 0.0, 0.0, 0.0, 0.0, 0.0, 0.0, 0.0, 0.0, 0.0, 1.6541733168663309E9, 0.0, 2022-06-02 14:35:16.866
179.0, 16644.85235748915, -79.01341664951046, -52833.17599692059, -44218.567814656235, -19639.539079611193, -20328.710416401675, -635.8847780090306, -6445.773714276996, -0.056, 0.936, 0.406, 192.0, 0.0, 0.0, 0.0, 0.0, 0.0, 0.0, 0.0, 0.0, 0.0, 1.6541733168663368E9, 0.0, 2022-06-02 14:35:16.866
180.0, 16649.792093013777, -88.49055629856066, -52851.41502039612, -44230.48129445092, -19639.002637744266, -20330.722073402652, -664.9867492898404, -6466.85140929835, -0.056, 0.936, 0.406, 192.0, 0.0, 0.0, 0.0, 0.0, 0.0, 0.0, 0.0, 0.0, 0.0, 1.6541733168663423E9, 0.0, 2022-06-02 14:35:16.866
181.0, 16656.16234018354, -90.5022132995383, -52861.674471101105, -44208.37541918462, -19651.36315242805, -20374.777361724064, -685.9079821000079, -6507.173956295724, -0.056, 0.936, 0.406, 192.0, 0.0, 0.0, 0.0, 0.0, 0.0, 0.0, 0.0, 0.0, 0.0, 1.654173316866348E9, 0.0, 2022-06-02 14:35:16.866
182.0, 16664.119561209627, -74.00662589152168, -52857.65115709915, -44209.94004129649, -19658.56041414266, -20394.871579989383, -687.6290664230664, -6533.213738586157, -0.056, 0.936, 0.406, 192.0, 0.0, 0.0, 0.0, 0.0, 0.0, 0.0, 0.0, 0.0, 0.0, 1.6541733168663535E9, 0.0, 2022-06-02 14:35:16.866
183.0, 16660.275061163316, -79.70632072762498, -52858.522875132905, -44190.35991315364, -19650.022047760733, -20379.158303637305, -658.1694672309718, -6485.515115918532, -0.056, 0.936, 0.406, 192.0, 0.0, 0.0, 0.0, 0.0, 0.0, 0.0, 0.0, 0.0, 0.0, 1.6541733168663592E9, 0.0, 2022-06-02 14:35:16.866
184.0, 16650.753218025355, -90.68102725518075, -52828.54918581834, -44206.52022439483, -19641.84130929009, -20340.467433985166, -642.8138187901758, -6418.817510463895, -0.056, 0.936, 0.406, 192.0, 0.0, 0.0, 0.0, 0.0, 0.0, 0.0, 0.0, 0.0, 0.0, 1.6541733168663645E9, 0.0, 2022-06-02 14:35:16.866
185.0, 16664.186616442992, -76.28650382596301, -52838.83098826778, -44240.33841375571, -19634.822861531124, -20317.221619751646, -647.3512229146031, -6408.446301036633, -0.056, 0.936, 0.406, 192.0, 0.0, 0.0, 0.0, 0.0, 0.0, 0.0, 0.0, 0.0, 0.0, 1.6541733168663714E9, 0.0, 2022-06-02 14:35:16.866
186.0, 16679.296395694782, -76.80059394843506, -52846.63174708268, -44180.0781107042, -19635.336951653597, -20325.916448344764, -657.163638730483, -6428.920498957694, -0.06, 0.9420000000000001, 0.40800000000000003, 192.0, 254.0, 32.0, 29.0, 112.0, 12.0, 192.0, 0.0, 0.0, 0.0, 1.654173316866377E9, 0.0, 2022-06-02 14:35:16.866
187.0, 16674.02138400333, -79.88513468326744, -52853.158456463636, -44184.883735762094, -19660.303850210174, -20355.465454514677, -673.4133569494912, -6465.443249397666, -0.06, 0.9420000000000001, 0.40800000000000003, 192.0, 0.0, 0.0, 0.0, 0.0, 0.0, 0.0, 0.0, 0.0, 0.0, 1.6541733168663828E9, 0.0, 2022-06-02 14:35:16.866
188.0, 16654.016572715827, -77.2029253486306, -52829.26444164091, -44182.96148573893, -19658.962745542856, -20364.27204183007, -665.1655632454829, -6466.382022664789, -0.06, 0.9420000000000001, 0.40800000000000003, 192.0, 0.0, 0.0, 0.0, 0.0, 0.0, 0.0, 0.0, 0.0, 0.0, 1.6541733168663926E9, 0.0, 2022-06-02 14:35:16.866
189.0, 16645.075874933707, -83.2155446071082, -52839.03215396788, -44181.35216013815, -19646.803396559168, -20342.926125875252, -664.0032725338069, -6458.782429549984, -0.06, 0.9420000000000001, 0.40800000000000003, 192.0, 0.0, 0.0, 0.0, 0.0, 0.0, 0.0, 0.0, 0.0, 0.0, 1.6541733168663988E9, 0.0, 2022-06-02 14:35:16.866
190.0, 16655.670601805523, -76.71118697061384, -52843.45779937003, -44202.40750341505, -19630.88895450699, -20331.325570502948, -664.5397144007343, -6457.731897560585, -0.06, 0.9420000000000001, 0.40800000000000003, 192.0, 0.0, 0.0, 0.0, 0.0, 0.0, 0.0, 0.0, 0.0, 0.0, 1.654173316866404E9, 0.0, 2022-06-02 14:35:16.866
191.0, 16663.136084453596, -83.48376554057188, -52854.477209386496, -44218.366648956144, -19634.107605708552, -20346.59181196592, -659.9799585318516, -6474.495705902065, -0.06, 0.9420000000000001, 0.40800000000000003, 192.0, 0.0, 0.0, 0.0, 0.0, 0.0, 0.0, 0.0, 0.0, 0.0, 1.65417331686641E9, 0.0, 2022-06-02 14:35:16.866
192.0, 16663.493712364878, -82.63439925127021, -52866.502447903455, -44222.65818389156, -19641.886012779, -20363.93676566324, -648.6476240930109, -6477.334377447889, -0.06, 0.9420000000000001, 0.40800000000000003, 192.0, 0.0, 0.0, 0.0, 0.0, 0.0, 0.0, 0.0, 0.0, 0.0, 1.6541733168664165E9, 0.0, 2022-06-02 14:35:16.866
193.0, 16656.609375072643, -78.87930618277862, -52841.78141853588, -44152.33959583516, -19636.767463298736, -20364.02617264106, -635.9741849868518, -6473.109897745836, -0.06, 0.9420000000000001, 0.40800000000000003, 192.0, 0.0, 0.0, 0.0, 0.0, 0.0, 0.0, 0.0, 0.0, 0.0, 1.6541733168664227E9, 0.0, 2022-06-02 14:35:16.866
194.0, 16656.25174716136, -75.12421311428703, -52839.38978187917, -44158.240456371364, -19608.894837962966, -20331.414977480767, -623.3678011140587, -6448.299461400445, -0.06, 0.9420000000000001, 0.40800000000000003, 192.0, 0.0, 0.0, 0.0, 0.0, 0.0, 0.0, 0.0, 0.0, 0.0, 1.654173316866428E9, 0.0, 2022-06-02 14:35:16.866
195.0, 16657.525796595313, -85.38366381927298, -52840.5744243353, -44189.10821546414, -19614.683939776893, -20314.62881739483, -640.3327751556367, -6431.848577481339, -0.06, 0.9440000000000001, 0.4, 192.0, 254.0, 32.0, 29.0, 128.0, 12.0, 128.0, 0.0, 0.0, 0.0, 1.6541733168664355E9, 0.0, 2022-06-02 14:35:16.866
196.0, 16667.11469496664, -83.93080042967802, -52829.376200363185, -44200.99934351437, -19626.64212306048, -20332.085529814427, -650.5251706272568, -6454.423839381199, -0.06, 0.9440000000000001, 0.4, 192.0, 0.0, 0.0, 0.0, 0.0, 0.0, 0.0, 0.0, 0.0, 0.0, 1.654173316866444E9, 0.0, 2022-06-02 14:35:16.866
197.0, 16679.20698871696, -74.18543984716415, -52837.221662667, -44175.875982746606, -19637.996809243778, -20351.553899235, -646.8818362810417, -6473.3110634459335, -0.06, 0.9440000000000001, 0.4, 192.0, 0.0, 0.0, 0.0, 0.0, 0.0, 0.0, 0.0, 0.0, 0.0, 1.65417331686645E9, 0.0, 2022-06-02 14:35:16.866
198.0, 16676.72594508242, -68.19517233314185, -52811.85243271023, -44165.41536634152, -19631.02306497372, -20347.687047444233, -628.486350594324, -6464.9738627641045, -0.06, 0.9440000000000001, 0.4, 192.0, 0.0, 0.0, 0.0, 0.0, 0.0, 0.0, 0.0, 0.0, 0.0, 1.6541733168664565E9, 0.0, 2022-06-02 14:35:16.866
199.0, 16681.86684630714, -65.08827985385416, -52820.904889214624, -44212.46578841994, -19603.709233249338, -20312.192477249202, -625.3124028816704, -6444.566720076409, -0.06, 0.9440000000000001, 0.4, 192.0, 0.0, 0.0, 0.0, 0.0, 0.0, 0.0, 0.0, 0.0, 0.0, 1.6541733168664625E9, 0.0, 2022-06-02 14:35:16.866
200.0, 16669.863959534643, -69.53627700046027, -52856.98060476549, -44251.223713305444, -19603.68688150488, -20304.145849245295, -651.195722960916, -6441.526882830487, -0.06, 0.9440000000000001, 0.4, 192.0, 0.0, 0.0, 0.0, 0.0, 0.0, 0.0, 0.0, 0.0, 0.0, 1.6541733168664677E9, 0.0, 2022-06-02 14:35:16.866
201.0, 16662.242014675383, -80.48863178356073, -52866.16717173662, -44172.76909026731, -19633.235887674797, -20334.946553104706, -670.6417406370331, -6466.046746497959, -0.06, 0.9440000000000001, 0.4, 192.0, 0.0, 0.0, 0.0, 0.0, 0.0, 0.0, 0.0, 0.0, 0.0, 1.6541733168664737E9, 0.0, 2022-06-02 14:35:16.866
202.0, 16664.34307865418, -75.57124800339318, -52828.50448232943, -44157.41344182652, -19648.435073904406, -20356.292469059525, -677.4366709514464, -6484.263418229034, -0.06, 0.9440000000000001, 0.4, 192.0, 0.0, 0.0, 0.0, 0.0, 0.0, 0.0, 0.0, 0.0, 0.0, 1.6541733168664813E9, 0.0, 2022-06-02 14:35:16.866
203.0, 16666.645308333078, -74.92304741418927, -52820.50255781443, -44156.921703448505, -19649.038571004698, -20352.69383820222, -673.7709848607761, -6475.792107080473, -0.06, 0.9440000000000001, 0.4, 192.0, 0.0, 0.0, 0.0, 0.0, 0.0, 0.0, 0.0, 0.0, 0.0, 1.6541733168664904E9, 0.0, 2022-06-02 14:35:16.866
204.0, 16659.380991385104, -92.37975983378409, -52832.728962031484, -44169.66219778803, -19640.70137032287, -20326.721111145154, -648.0888304816283, -6453.149789947247, -0.06, 0.9440000000000001, 0.4, 192.0, 0.0, 0.0, 0.0, 0.0, 0.0, 0.0, 0.0, 0.0, 0.0, 1.6541733168664987E9, 0.0, 2022-06-02 14:35:16.866
205.0, 16661.124427452618, -90.54691678844891, -52838.942746990055, -44207.99543952888, -19615.086271177086, -20312.728919116133, -621.8702342355531, -6449.215882923113, -0.064, 0.9460000000000001, 0.4, 192.0, 254.0, 0.0, 29.0, 144.0, 12.0, 128.0, 0.0, 0.0, 0.0, 1.6541733168665047E9, 0.0, 2022-06-02 14:35:16.866
206.0, 16670.042773490284, -95.77722499099076, -52872.917398562124, -44226.30151823777, -19630.330160895606, -20331.459680969678, -640.5786443446451, -6473.266359957023, -0.064, 0.9460000000000001, 0.4, 192.0, 0.0, 0.0, 0.0, 0.0, 0.0, 0.0, 0.0, 0.0, 0.0, 1.6541733168665135E9, 0.0, 2022-06-02 14:35:16.866
207.0, 16679.788134072798, -86.7247684865914, -52873.99028229598, -44181.19569792697, -19643.763559313247, -20345.608335209887, -654.8167055626757, -6483.145831006269, -0.064, 0.9460000000000001, 0.4, 192.0, 0.0, 0.0, 0.0, 0.0, 0.0, 0.0, 0.0, 0.0, 0.0, 1.6541733168665211E9, 0.0, 2022-06-02 14:35:16.866
208.0, 16667.226453688916, -87.41767256470592, -52844.97771799299, -44171.78561351128, -19647.205727959365, -20371.491655289134, -646.2783391807484, -6476.686176858685, -0.064, 0.9460000000000001, 0.4, 192.0, 0.0, 0.0, 0.0, 0.0, 0.0, 0.0, 0.0, 0.0, 0.0, 1.654173316866531E9, 0.0, 2022-06-02 14:35:16.866
209.0, 16664.857168776653, -82.96967541809981, -52812.07595015478, -44162.42023258451, -19631.47009986283, -20347.97762012215, -642.8585222790864, -6463.94568251916, -0.064, 0.9460000000000001, 0.4, 192.0, 0.0, 0.0, 0.0, 0.0, 0.0, 0.0, 0.0, 0.0, 0.0, 1.6541733168665438E9, 0.0, 2022-06-02 14:35:16.866
210.0, 16669.573386856722, -78.36521606030657, -52838.2721946564, -44188.437663130484, -19627.446785860873, -20329.82800362444, -652.8050485616981, -6465.130324975291, -0.064, 0.9460000000000001, 0.4, 192.0, 0.0, 0.0, 0.0, 0.0, 0.0, 0.0, 0.0, 0.0, 0.0, 1.6541733168665543E9, 0.0, 2022-06-02 14:35:16.866
211.0, 16672.367354913637, -81.0250736504881, -52862.6802996016, -44192.46097713244, -19651.385504172507, -20352.35856203539, -680.2529907528151, -6496.66863640173, -0.064, 0.9460000000000001, 0.4, 192.0, 0.0, 0.0, 0.0, 0.0, 0.0, 0.0, 0.0, 0.0, 0.0, 1.6541733168665636E9, 0.0, 2022-06-02 14:35:16.866
212.0, 16687.41007893206, -75.0348061364658, -52862.52383739041, -44182.849727016655, -19658.828635076123, -20368.630631998854, -682.8457931096308, -6523.110750092358, -0.064, 0.9460000000000001, 0.4, 192.0, 0.0, 0.0, 0.0, 0.0, 0.0, 0.0, 0.0, 0.0, 0.0, 1.654173316866573E9, 0.0, 2022-06-02 14:35:16.866
213.0, 16688.01357603235, -72.12907935727588, -52853.11375297472, -44156.921703448505, -19645.484643636304, -20356.203062081702, -649.2064177043936, -6494.947552078671, -0.064, 0.9460000000000001, 0.4, 192.0, 0.0, 0.0, 0.0, 0.0, 0.0, 0.0, 0.0, 0.0, 0.0, 1.6541733168665843E9, 0.0, 2022-06-02 14:35:16.866
214.0, 16664.700706565465, -74.74423345854682, -52840.350906890744, -44170.80213675525, -19636.54394585418, -20331.236163525125, -652.581531117145, -6465.443249397666, -0.064, 0.9460000000000001, 0.4, 192.0, 0.0, 0.0, 0.0, 0.0, 0.0, 0.0, 0.0, 0.0, 0.0, 1.6541733168665977E9, 0.0, 2022-06-02 14:35:16.866
215.0, 16661.14677919707, -80.73450097256911, -52856.3771076652, -44211.12468375262, -19638.488547621793, -20324.910619844275, -674.0615575386951, -6469.7347843330845, -0.058, 0.9540000000000001, 0.394, 192.0, 254.0, 48.0, 29.0, 208.0, 12.0, 80.0, 0.0, 0.0, 0.0, 1.6541733168666055E9, 0.0, 2022-06-02 14:35:16.866
216.0, 16675.5860061152, -86.18832661966404, -52861.540360634375, -44233.56583518575, -19653.285402451205, -20343.619029953366, -687.673769911977, -6492.444156699677, -0.058, 0.9540000000000001, 0.394, 192.0, 0.0, 0.0, 0.0, 0.0, 0.0, 0.0, 0.0, 0.0, 0.0, 1.6541733168666155E9, 0.0, 2022-06-02 14:35:16.866
217.0, 16677.4859043939, -90.77043423300198, -52868.737622348985, -44157.41344182652, -19675.815960862157, -20378.04071641454, -711.2548603123261, -6517.679276189719, -0.058, 0.9540000000000001, 0.394, 192.0, 0.0, 0.0, 0.0, 0.0, 0.0, 0.0, 0.0, 0.0, 0.0, 1.654173316866624E9, 0.0, 2022-06-02 14:35:16.866
218.0, 16664.611299587643, -95.15137614624217, -52844.754200548436, -44178.737006036885, -19675.167760272954, -20376.096114646927, -692.8146711366977, -6500.714302148141, -0.058, 0.9540000000000001, 0.394, 192.0, 0.0, 0.0, 0.0, 0.0, 0.0, 0.0, 0.0, 0.0, 0.0, 1.6541733168666368E9, 0.0, 2022-06-02 14:35:16.866
219.0, 16661.39264838608, -100.00170469304379, -52833.444217854056, -44226.65914614906, -19645.328181425117, -20337.002913594595, -645.8313042916423, -6464.258606941535, -0.058, 0.9540000000000001, 0.394, 192.0, 0.0, 0.0, 0.0, 0.0, 0.0, 0.0, 0.0, 0.0, 0.0, 1.654173316866643E9, 0.0, 2022-06-02 14:35:16.866
220.0, 16670.512160123846, -101.87925122728959, -52871.956273550546, -44207.07901800621, -19640.611963345047, -20321.4460994537, -641.3609554005809, -6458.514208616521, -0.058, 0.9540000000000001, 0.394, 192.0, 0.0, 0.0, 0.0, 0.0, 0.0, 0.0, 0.0, 0.0, 0.0, 1.654173316866649E9, 0.0, 2022-06-02 14:35:16.866
221.0, 16682.470343407436, -94.79374823495725, -52876.426622441606, -44187.118910207624, -19658.113379253555, -20342.747311919607, -674.128612772061, -6501.407206226255, -0.058, 0.9540000000000001, 0.394, 192.0, 0.0, 0.0, 0.0, 0.0, 0.0, 0.0, 0.0, 0.0, 0.0, 1.654173316866654E9, 0.0, 2022-06-02 14:35:16.866
222.0, 16699.636483149112, -86.63536150877017, -52858.254654199445, -44200.59701211417, -19671.07739103763, -20374.978527424162, -699.7213601733876, -6529.436293773209, -0.058, 0.9540000000000001, 0.394, 192.0, 0.0, 0.0, 0.0, 0.0, 0.0, 0.0, 0.0, 0.0, 0.0, 1.6541733168666608E9, 0.0, 2022-06-02 14:35:16.866
223.0, 16699.72589012693, -80.64509399474788, -52871.64334912817, -44191.92453526551, -19675.346574228595, -20382.421658327778, -694.6251624375776, -6513.320686020933, -0.058, 0.9540000000000001, 0.394, 192.0, 0.0, 0.0, 0.0, 0.0, 0.0, 0.0, 0.0, 0.0, 0.0, 1.6541733168666675E9, 0.0, 2022-06-02 14:35:16.866
224.0, 16673.6861078365, -87.73059698708022, -52882.52864867791, -44189.018808486326, -19648.166852970942, -20342.143814819316, -664.2714934672706, -6476.216790225124, -0.058, 0.9540000000000001, 0.394, 192.0, 0.0, 0.0, 0.0, 0.0, 0.0, 0.0, 0.0, 0.0, 0.0, 1.6541733168666744E9, 0.0, 2022-06-02 14:35:16.866
225.0, 16675.92128228203, -86.3894923197618, -52865.384860680686, -44194.673799833516, -19641.573088356625, -20317.78041336303, -667.5348481577454, -6453.485066114076, -0.054, 0.9500000000000001, 0.394, 192.0, 254.0, 80.0, 29.0, 176.0, 12.0, 80.0, 0.0, 0.0, 0.0, 1.65417331686668E9, 0.0, 2022-06-02 14:35:16.866
226.0, 16681.10688699566, -87.19415512015286, -52859.506351888944, -44185.017846228824, -19657.442826919894, -20328.01751232356, -674.5085924278012, -6462.269301685012, -0.054, 0.9500000000000001, 0.394, 192.0, 0.0, 0.0, 0.0, 0.0, 0.0, 0.0, 0.0, 0.0, 0.0, 1.6541733168666856E9, 0.0, 2022-06-02 14:35:16.866
227.0, 16694.003843546372, -67.79284093294632, -52847.59287209426, -44171.4279856, -19666.450579935383, -20349.721056189665, -673.3686534605806, -6490.566610165431, -0.054, 0.9500000000000001, 0.394, 192.0, 0.0, 0.0, 0.0, 0.0, 0.0, 0.0, 0.0, 0.0, 0.0, 1.6541733168666909E9, 0.0, 2022-06-02 14:35:16.866
228.0, 16690.025233033328, -73.02314913548817, -52840.909700502125, -44161.72732850639, -19666.42822819093, -20351.755064935096, -665.2773219677595, -6489.761947365039, -0.054, 0.9500000000000001, 0.394, 192.0, 0.0, 0.0, 0.0, 0.0, 0.0, 0.0, 0.0, 0.0, 0.0, 1.6541733168666961E9, 0.0, 2022-06-02 14:35:16.866
229.0, 16672.412058402548, -83.84139345185679, -52863.619072868714, -44178.245267658865, -19643.897669779977, -20322.139003531815, -652.9838625173405, -6458.08952547187, -0.054, 0.9500000000000001, 0.394, 192.0, 0.0, 0.0, 0.0, 0.0, 0.0, 0.0, 0.0, 0.0, 0.0, 1.6541733168667023E9, 0.0, 2022-06-02 14:35:16.866
230.0, 16665.997107743875, -85.62953300828136, -52871.598645639264, -44200.61936385863, -19657.75575134227, -20326.40818672278, -685.6174094220888, -6470.740612833573, -0.054, 0.9500000000000001, 0.394, 192.0, 0.0, 0.0, 0.0, 0.0, 0.0, 0.0, 0.0, 0.0, 0.0, 1.6541733168667085E9, 0.0, 2022-06-02 14:35:16.866
231.0, 16699.234151748915, -56.95224487212239, -52852.68906983007, -44211.102332008166, -19652.726608839825, -20322.6977971432, -678.3083889852035, -6469.913598288727, -0.054, 0.9500000000000001, 0.394, 192.0, 0.0, 0.0, 0.0, 0.0, 0.0, 0.0, 0.0, 0.0, 0.0, 1.6541733168667161E9, 0.0, 2022-06-02 14:35:16.866
232.0, 16700.15057327158, -54.24768379303024, -52880.24877074346, -44180.9274769935, -19661.13086475502, -20337.561707205976, -674.8215168501755, -6476.529714647498, -0.054, 0.9500000000000001, 0.394, 192.0, 0.0, 0.0, 0.0, 0.0, 0.0, 0.0, 0.0, 0.0, 0.0, 1.6541733168667235E9, 0.0, 2022-06-02 14:35:16.866
233.0, 16707.884276853118, -44.457619721605745, -52842.36256389172, -44127.909139145515, -19654.380637929517, -20334.611276937878, -665.1432115010276, -6473.71339484613, -0.054, 0.9500000000000001, 0.394, 192.0, 0.0, 0.0, 0.0, 0.0, 0.0, 0.0, 0.0, 0.0, 0.0, 1.6541733168667312E9, 0.0, 2022-06-02 14:35:16.866
234.0, 16694.87556158013, -45.642262177737024, -52832.393685864656, -44116.2638802843, -19649.284440193707, -20316.55106741799, -666.0596330236951, -6476.395604180766, -0.054, 0.9500000000000001, 0.394, 192.0, 0.0, 0.0, 0.0, 0.0, 0.0, 0.0, 0.0, 0.0, 0.0, 1.6541733168667395E9, 0.0, 2022-06-02 14:35:16.866
235.0, 16699.703538382477, -34.958128328100244, -52858.522875132905, -44152.920741191, -19628.094986450076, -20303.229427722625, -655.353147429603, -6462.738688318574, -0.05, 0.9420000000000001, 0.394, 192.0, 254.0, 112.0, 29.0, 112.0, 12.0, 80.0, 0.0, 0.0, 0.0, 1.6541733168667512E9, 0.0, 2022-06-02 14:35:16.866
236.0, 16711.035872821318, -31.29244223742989, -52845.71532556001, -44153.211313868924, -19634.50993710875, -20305.151677745784, -655.4872578963349, -6447.628909066786, -0.05, 0.9420000000000001, 0.394, 192.0, 0.0, 0.0, 0.0, 0.0, 0.0, 0.0, 0.0, 0.0, 0.0, 1.6541733168667579E9, 0.0, 2022-06-02 14:35:16.866
237.0, 16717.383768246626, -16.83086357484622, -52822.35775260422, -44142.01308989681, -19644.098835480076, -20319.322683730446, -667.5571999022008, -6472.729918090095, -0.05, 0.9420000000000001, 0.394, 192.0, 0.0, 0.0, 0.0, 0.0, 0.0, 0.0, 0.0, 0.0, 0.0, 1.6541733168667643E9, 0.0, 2022-06-02 14:35:16.866
238.0, 16707.616055919654, -16.36147694128477, -52845.46945637101, -44153.74775573585, -19656.571108886135, -20326.251724511592, -668.3395109581364, -6481.514153661032, -0.05, 0.9420000000000001, 0.394, 192.0, 0.0, 0.0, 0.0, 0.0, 0.0, 0.0, 0.0, 0.0, 0.0, 1.6541733168667717E9, 0.0, 2022-06-02 14:35:16.866
239.0, 16704.93384658502, -26.10683752379865, -52863.641424613175, -44193.198584699465, -19639.963762755844, -20313.06419528296, -641.6291763340446, -6456.189627193168, -0.05, 0.9420000000000001, 0.394, 192.0, 0.0, 0.0, 0.0, 0.0, 0.0, 0.0, 0.0, 0.0, 0.0, 1.6541733168667867E9, 0.0, 2022-06-02 14:35:16.866
240.0, 16721.07180608175, -23.67049737817018, -52812.34417108824, -44150.21618011191, -19619.51191657924, -20299.45198290968, -641.8303420341423, -6448.232406167079, -0.05, 0.9420000000000001, 0.394, 192.0, 0.0, 0.0, 0.0, 0.0, 0.0, 0.0, 0.0, 0.0, 0.0, 1.6541733168667927E9, 0.0, 2022-06-02 14:35:16.866
241.0, 16723.619904949654, -27.69381138012545, -52826.82810149528, -44196.84191904568, -19636.767463298736, -20309.443212681203, -665.6573016234996, -6472.461697156632, -0.05, 0.9420000000000001, 0.394, 192.0, 0.0, 0.0, 0.0, 0.0, 0.0, 0.0, 0.0, 0.0, 0.0, 1.654173317345997E9, 0.0, 2022-06-02 14:35:17.345
242.0, 16710.63354142112, -35.51692193948292, -52852.39849715215, -44157.86047671562, -19660.505015910272, -20340.579192707442, -677.0790430401615, -6496.802746868461, -0.05, 0.9420000000000001, 0.394, 192.0, 0.0, 0.0, 0.0, 0.0, 0.0, 0.0, 0.0, 0.0, 0.0, 1.6541733173461978E9, 0.0, 2022-06-02 14:35:17.346
243.0, 16719.350721758692, -26.129189268253956, -52838.22749116749, -44129.54081649075, -19651.117283239044, -20337.78522465053, -649.3181764266702, -6491.594790410375, -0.05, 0.9420000000000001, 0.394, 192.0, 0.0, 0.0, 0.0, 0.0, 0.0, 0.0, 0.0, 0.0, 0.0, 1.6541733173462064E9, 0.0, 2022-06-02 14:35:17.346
244.0, 16722.3458555157, -16.182662985642313, -52838.674526056595, -44112.64289768254, -19621.568277069127, -20290.511285127555, -628.9557372278855, -6440.744571774551, -0.05, 0.9420000000000001, 0.394, 192.0, 0.0, 0.0, 0.0, 0.0, 0.0, 0.0, 0.0, 0.0, 0.0, 1.654173317346214E9, 0.0, 2022-06-02 14:35:17.346
245.0, 16706.16319253006, -27.067962535376854, -52819.34026710275, -44141.320185818695, -19628.07263470562, -20279.424819877724, -656.8283625636534, -6443.605595064831, -0.05, 0.9440000000000001, 0.398, 192.0, 254.0, 112.0, 29.0, 128.0, 12.0, 112.0, 0.0, 0.0, 0.0, 1.6541733173462217E9, 0.0, 2022-06-02 14:35:17.346
246.0, 16713.606323433676, -21.949413055111535, -52846.45293312704, -44194.58439285569, -19646.490472136793, -20294.579302618422, -685.2150780218933, -6466.806705809439, -0.05, 0.9440000000000001, 0.398, 192.0, 0.0, 0.0, 0.0, 0.0, 0.0, 0.0, 0.0, 0.0, 0.0, 1.6541733173462307E9, 0.0, 2022-06-02 14:35:17.346
247.0, 16730.50424224189, -10.214747216075327, -52849.11279071722, -44214.61155588765, -19651.765483828247, -20318.11568952986, -673.0557290382063, -6483.369348450822, -0.05, 0.9440000000000001, 0.398, 192.0, 0.0, 0.0, 0.0, 0.0, 0.0, 0.0, 0.0, 0.0, 0.0, 1.654173317346239E9, 0.0, 2022-06-02 14:35:17.346
248.0, 16724.558678216777, -12.718142595069718, -52808.1643948751, -44088.86064158209, -19645.194070958387, -20323.837736110418, -638.5893390881228, -6476.909694303238, -0.05, 0.9440000000000001, 0.398, 192.0, 0.0, 0.0, 0.0, 0.0, 0.0, 0.0, 0.0, 0.0, 0.0, 1.6541733173462465E9, 0.0, 2022-06-02 14:35:17.346
249.0, 16704.710329140464, -23.51403516698303, -52834.94178473256, -44134.14527584855, -19633.817033030635, -20294.512247385057, -643.9090542684859, -6455.094391714859, -0.05, 0.9440000000000001, 0.398, 192.0, 0.0, 0.0, 0.0, 0.0, 0.0, 0.0, 0.0, 0.0, 0.0, 1.654173317346254E9, 0.0, 2022-06-02 14:35:17.346
250.0, 16718.903686869584, -13.612212373282, -52864.62490136921, -44155.088860403164, -19626.17273642692, -20270.26060465105, -662.1257259995612, -6437.704734528629, -0.05, 0.9440000000000001, 0.398, 192.0, 0.0, 0.0, 0.0, 0.0, 0.0, 0.0, 0.0, 0.0, 0.0, 1.6541733173462622E9, 0.0, 2022-06-02 14:35:17.346
251.0, 16719.238963036416, -22.30704096639645, -52864.691956602575, -44156.45231681494, -19640.70137032287, -20290.06425023845, -668.2054004914046, -6447.8971300002495, -0.05, 0.9440000000000001, 0.398, 192.0, 0.0, 0.0, 0.0, 0.0, 0.0, 0.0, 0.0, 0.0, 0.0, 1.6541733173462696E9, 0.0, 2022-06-02 14:35:17.346
252.0, 16716.17677404604, -25.19041600113106, -52853.225511697, -44157.70401450444, -19661.779065344224, -20326.765814634065, -667.870124324575, -6470.628854111297, -0.05, 0.9440000000000001, 0.398, 192.0, 0.0, 0.0, 0.0, 0.0, 0.0, 0.0, 0.0, 0.0, 0.0, 1.6541733173462772E9, 0.0, 2022-06-02 14:35:17.346
253.0, 16712.30992225527, -14.059247262388142, -52817.97681069098, -44135.46402877141, -19655.9899635303, -20326.54229718951, -646.7030223253993, -6469.578322121897, -0.05, 0.9440000000000001, 0.398, 192.0, 0.0, 0.0, 0.0, 0.0, 0.0, 0.0, 0.0, 0.0, 0.0, 1.6541733173462849E9, 0.0, 2022-06-02 14:35:17.346
254.0, 16707.526648941835, -8.493662893016683, -52831.56667131981, -44126.47862750037, -19640.27668717822, -20297.753250331076, -638.2093594323826, -6459.117705716813, -0.05, 0.9440000000000001, 0.398, 192.0, 0.0, 0.0, 0.0, 0.0, 0.0, 0.0, 0.0, 0.0, 0.0, 1.6541733173462925E9, 0.0, 2022-06-02 14:35:17.346
255.0, 16706.811393119264, -16.920270552667446, -52860.1769042226, -44159.64861627205, -19639.51672786674, -20281.749401301076, -654.548484629212, -6443.0244497089925, -0.048, 0.9440000000000001, 0.402, 192.0, 254.0, 128.0, 29.0, 128.0, 12.0, 144.0, 0.0, 0.0, 0.0, 1.6541733173463004E9, 0.0, 2022-06-02 14:35:17.346
0.0, 16731.01833236436, -12.651087361703798, -52864.60254962475, -44149.59033126716, -19632.520631852225, -20282.86698852384, -664.4279556784577, -6450.333470145878, -0.048, 0.9440000000000001, 0.402, 192.0, 0.0, 0.0, 0.0, 0.0, 0.0, 0.0, 0.0, 0.0, 0.0, 1.654173317346308E9, 0.0, 2022-06-02 14:35:17.346
1.0, 16738.506166756888, -4.33623842432957, -52831.23139515298, -44128.333822290166, -19646.535175625704, -20302.223599222136, -684.8798018550638, -6470.360633177833, -0.048, 0.9440000000000001, 0.402, 192.0, 0.0, 0.0, 0.0, 0.0, 0.0, 0.0, 0.0, 0.0, 0.0, 1.6541733173463156E9, 0.0, 2022-06-02 14:35:17.346
2.0, 16727.911439885072, -2.5704506123603124, -52802.50940352791, -44107.97138309138, -19650.69260009439, -20307.16333474676, -663.1762579889605, -6463.029260996493, -0.048, 0.9440000000000001, 0.402, 192.0, 0.0, 0.0, 0.0, 0.0, 0.0, 0.0, 0.0, 0.0, 0.0, 1.6541733173463228E9, 0.0, 2022-06-02 14:35:17.346
3.0, 16701.670491894543, -19.088389764832232, -52851.1244477182, -44112.68760117145, -19637.46036737685, -20289.930139771717, -635.4824466088351, -6443.359725875822, -0.048, 0.9440000000000001, 0.402, 192.0, 0.0, 0.0, 0.0, 0.0, 0.0, 0.0, 0.0, 0.0, 0.0, 1.65417331734633E9, 0.0, 2022-06-02 14:35:17.346
4.0, 16710.92411409904, -14.215709473575291, -52820.6143165367, -44139.04030788426, -19619.55662006815, -20272.831055263407, -637.4270483764468, -6427.847615223839, -0.048, 0.9440000000000001, 0.402, 192.0, 0.0, 0.0, 0.0, 0.0, 0.0, 0.0, 0.0, 0.0, 0.0, 1.6541733173463695E9, 0.0, 2022-06-02 14:35:17.346
5.0, 16721.250620037394, 0.6258488447485977, -52817.32861010177, -44208.42012267353, -19617.32144562262, -20269.791218017486, -633.3143273966704, -6429.5239960579875, -0.048, 0.9440000000000001, 0.402, 192.0, 0.0, 0.0, 0.0, 0.0, 0.0, 0.0, 0.0, 0.0, 0.0, 1.6541733173463771E9, 0.0, 2022-06-02 14:35:17.346
6.0, 16710.790003632308, -14.908613551689811, -52853.359622163734, -44211.68347736401, -19652.16781522844, -20310.717262115155, -666.1266882570611, -6476.105031502847, -0.048, 0.9440000000000001, 0.402, 192.0, 0.0, 0.0, 0.0, 0.0, 0.0, 0.0, 0.0, 0.0, 0.0, 1.6541733173463843E9, 0.0, 2022-06-02 14:35:17.346
7.0, 16706.16319253006, -22.016468288477455, -52835.098246943744, -44100.95293533241, -19652.74896058428, -20319.680311641732, -661.2316562213489, -6482.654092628252, -0.048, 0.9440000000000001, 0.402, 192.0, 0.0, 0.0, 0.0, 0.0, 0.0, 0.0, 0.0, 0.0, 0.0, 1.654173317346392E9, 0.0, 2022-06-02 14:35:17.346
8.0, 16695.702576124975, -19.446017676117144, -52832.14781667564, -44098.136615531046, -19630.061939962143, -20289.460753138155, -630.6991732953994, -6450.08760095687, -0.048, 0.9440000000000001, 0.402, 192.0, 0.0, 0.0, 0.0, 0.0, 0.0, 0.0, 0.0, 0.0, 0.0, 1.6541733173463995E9, 0.0, 2022-06-02 14:35:17.346
9.0, 16686.672471365033, -21.703543866103157, -52844.53068310388, -44137.09570611664, -19632.565335341136, -20274.39567737528, -652.1791997169495, -6440.99044096356, -0.044, 0.9440000000000001, 0.402, 192.0, 254.0, 160.0, 29.0, 128.0, 12.0, 144.0, 0.0, 0.0, 0.0, 1.6541733173464067E9, 0.0, 2022-06-02 14:35:17.346
10.0, 16695.92609356953, -22.172930499664606, -52861.27213970091, -44151.6243400126, -19655.31941119664, -20295.20515146317, -697.352075261125, -6475.121554746814, -0.044, 0.9440000000000001, 0.402, 192.0, 0.0, 0.0, 0.0, 0.0, 0.0, 0.0, 0.0, 0.0, 0.0, 1.6541733173464155E9, 0.0, 2022-06-02 14:35:17.346
11.0, 16714.321579256248, -6.727875081047426, -52849.38101165069, -44145.79053470976, -19660.102684510075, -20313.958265061174, -680.4094529640023, -6485.738633363085, -0.044, 0.9440000000000001, 0.402, 192.0, 0.0, 0.0, 0.0, 0.0, 0.0, 0.0, 0.0, 0.0, 0.0, 1.654173317346423E9, 0.0, 2022-06-02 14:35:17.346
12.0, 16700.239980249404, -14.908613551689811, -52837.758104533925, -44125.15987457751, -19653.64303036249, -20316.10403252888, -627.6593360494776, -6463.766868563517, -0.044, 0.9440000000000001, 0.402, 192.0, 0.0, 0.0, 0.0, 0.0, 0.0, 0.0, 0.0, 0.0, 0.0, 1.6541733173464303E9, 0.0, 2022-06-02 14:35:17.346
13.0, 16694.339119713204, -21.994116544022148, -52866.81537232583, -44135.933415404965, -19639.427320888917, -20287.538503115, -638.8352082771312, -6441.70569678613, -0.044, 0.9440000000000001, 0.402, 192.0, 0.0, 0.0, 0.0, 0.0, 0.0, 0.0, 0.0, 0.0, 0.0, 1.6541733173464754E9, 0.0, 2022-06-02 14:35:17.346
14.0, 16693.512105168356, -24.609270645293076, -52861.78622982338, -44151.91491269051, -19641.30486742316, -20273.613366319343, -664.2491417228152, -6443.359725875822, -0.044, 0.9440000000000001, 0.402, 192.0, 0.0, 0.0, 0.0, 0.0, 0.0, 0.0, 0.0, 0.0, 0.0, 1.6541733173464837E9, 0.0, 2022-06-02 14:35:17.346
15.0, 16691.276930722826, -17.12143625276521, -52864.267273457925, -44153.16661038001, -19652.61485011755, -20289.706622327165, -657.8341910641421, -6474.003967524049, -0.044, 0.9440000000000001, 0.402, 192.0, 0.0, 0.0, 0.0, 0.0, 0.0, 0.0, 0.0, 0.0, 0.0, 1.6541733173464916E9, 0.0, 2022-06-02 14:35:17.346
