%OpenBCI Raw EEG Data
%Number of channels = 8
%Sample Rate = 250 Hz
%Board = OpenBCI_GUI$BoardCytonSerial
Sample Index, EXG Channel 0, EXG Channel 1, EXG Channel 2, EXG Channel 3, EXG Channel 4, EXG Channel 5, EXG Channel 6, EXG Channel 7, Accel Channel 0, Accel Channel 1, Accel Channel 2, Other, Other, Other, Other, Other, Other, Other, Analog Channel 0, Analog Channel 1, Analog Channel 2, Timestamp, Other, Timestamp (Formatted)
25.0, 14478.878912792077, 27113.582445810134, -30002.143085258376, -13432.481996116878, 2130.635336713235, -393.7706820691445, 8442.410342980666, 4406.378198430324, 0.0, 0.0, 0.0, 192.0, 0.0, 0.0, 0.0, 0.0, 0.0, 0.0, 0.0, 0.0, 0.0, 1.6527795970329773E9, 0.0, 2022-05-17 11:26:37.032
26.0, 14535.54058498628, 27167.740722625345, -29980.327782669996, -13395.132231132058, 2199.478709635581, -310.7339514176788, 8496.389805840232, 4538.320545950001, 0.0, 0.0, 0.0, 192.0, 0.0, 0.0, 0.0, 0.0, 0.0, 0.0, 0.0, 0.0, 0.0, 1.652779597032984E9, 0.0, 2022-05-17 11:26:37.032
27.0, 14553.01964915033, 27156.833071331155, -30038.777594420626, -13447.971755024404, 2194.2931049219496, -324.03323936858646, 8469.143029349212, 4595.00456988866, 0.0, 0.0, 0.0, 192.0, 0.0, 0.0, 0.0, 0.0, 0.0, 0.0, 0.0, 0.0, 0.0, 1.6527795970329897E9, 0.0, 2022-05-17 11:26:37.032
28.0, 14504.359901471127, 27096.192788623906, -30105.63166208645, -13523.207726860968, 2121.158197064185, -421.97858357174204, 8398.75738605945, 4481.055376655505, 0.0, 0.0, 0.0, 192.0, 0.0, 0.0, 0.0, 0.0, 0.0, 0.0, 0.0, 0.0, 0.0, 1.6527795970329952E9, 0.0, 2022-05-17 11:26:37.032
29.0, 14453.15205492402, 27064.185090563908, -30098.456752116294, -13532.349590343189, 2083.2719902124395, -474.66164525290077, 8373.142286913668, 4325.978973624584, -0.082, 0.886, 0.506, 192.0, 253.0, 112.0, 27.0, 176.0, 15.0, 208.0, 0.0, 0.0, 0.0, 1.6527795970330007E9, 0.0, 2022-05-17 11:26:37.033
30.0, 14472.15103771103, 27114.74473652181, -30018.37045173293, -13451.19040622597, 2124.1086273322853, -420.5704236710577, 8431.882671342215, 4282.728348103565, -0.082, 0.886, 0.506, 192.0, 0.0, 0.0, 0.0, 0.0, 0.0, 0.0, 0.0, 0.0, 0.0, 1.6527795970330071E9, 0.0, 2022-05-17 11:26:37.033
31.0, 14542.603736234158, 27186.270318778792, -29990.721343841717, -13385.65509148301, 2188.4369478746594, -316.43364625378206, 8475.759145707983, 4481.189487122237, -0.082, 0.886, 0.506, 192.0, 0.0, 0.0, 0.0, 0.0, 0.0, 0.0, 0.0, 0.0, 0.0, 1.6527795970330129E9, 0.0, 2022-05-17 11:26:37.033
32.0, 14559.009916664352, 27173.976859328373, -30051.451033526784, -13438.628725842087, 2183.184287927662, -313.48321598568157, 8452.178055307633, 4638.076381454037, -0.082, 0.886, 0.506, 192.0, 0.0, 0.0, 0.0, 0.0, 0.0, 0.0, 0.0, 0.0, 0.0, 1.652779597033018E9, 0.0, 2022-05-17 11:26:37.033
33.0, 14519.760253400835, 27116.97991096734, -30093.651127058405, -13507.203877830969, 2135.284499559939, -403.851318818488, 8421.936145059604, 4533.000830769638, -0.082, 0.886, 0.506, 192.0, 0.0, 0.0, 0.0, 0.0, 0.0, 0.0, 0.0, 0.0, 0.0, 1.6527795970330236E9, 0.0, 2022-05-17 11:26:37.033
34.0, 14475.727316823879, 27092.258881599773, -30081.75999900818, -13501.727700439418, 2104.215574767062, -448.0407176066301, 8422.00320029297, 4411.653210121776, -0.082, 0.886, 0.506, 192.0, 0.0, 0.0, 0.0, 0.0, 0.0, 0.0, 0.0, 0.0, 0.0, 1.652779597033029E9, 0.0, 2022-05-17 11:26:37.033
35.0, 14488.57956988568, 27131.84382103012, -30016.358794731954, -13416.724016275886, 2147.265034587984, -381.3654638964491, 8475.401517796698, 4423.097303282893, -0.082, 0.886, 0.506, 192.0, 0.0, 0.0, 0.0, 0.0, 0.0, 0.0, 0.0, 0.0, 0.0, 1.6527795970330343E9, 0.0, 2022-05-17 11:26:37.033
36.0, 14551.723247971922, 27191.43357174797, -30006.255806238154, -13383.486972270844, 2205.9830672720755, -300.8991838573437, 8505.934000722647, 4529.066923745504, -0.082, 0.886, 0.506, 192.0, 0.0, 0.0, 0.0, 0.0, 0.0, 0.0, 0.0, 0.0, 0.0, 1.6527795970330396E9, 0.0, 2022-05-17 11:26:37.033
37.0, 14563.346155088682, 27170.892318593542, -30051.071053871045, -13455.928976050494, 2180.211505915106, -322.9156521458211, 8469.098325860301, 4567.266055019624, -0.082, 0.886, 0.506, 192.0, 0.0, 0.0, 0.0, 0.0, 0.0, 0.0, 0.0, 0.0, 0.0, 1.652779597033045E9, 0.0, 2022-05-17 11:26:37.033
38.0, 14515.692235909968, 27107.860399229576, -30092.95822298029, -13505.505145252366, 2112.8880516157215, -420.36925797095995, 8401.32783667181, 4458.435411266734, -0.082, 0.886, 0.506, 192.0, 0.0, 0.0, 0.0, 0.0, 0.0, 0.0, 0.0, 0.0, 0.0, 1.6527795970330503E9, 0.0, 2022-05-17 11:26:37.033
39.0, 14474.207398200919, 27084.413419295957, -30067.074902901044, -13503.873467907128, 2084.3672256907494, -467.03970039364106, 8381.546542828864, 4377.209171916148, -0.078, 0.89, 0.502, 192.0, 253.0, 144.0, 27.0, 208.0, 15.0, 176.0, 0.0, 0.0, 0.0, 1.652779597033056E9, 0.0, 2022-05-17 11:26:37.033
40.0, 14505.365729971616, 27148.51822239378, -29984.440503649774, -13417.014588953805, 2136.4691420160702, -381.6560365743681, 8437.582366178318, 4409.552146142977, -0.078, 0.89, 0.502, 192.0, 0.0, 0.0, 0.0, 0.0, 0.0, 0.0, 0.0, 0.0, 0.0, 1.6527795970330613E9, 0.0, 2022-05-17 11:26:37.033
41.0, 14562.250919610373, 27210.43255453498, -29945.906096208826, -13375.619158222577, 2208.1064829953293, -289.7903668630561, 8489.05843365889, 4527.323487677991, -0.078, 0.89, 0.502, 192.0, 0.0, 0.0, 0.0, 0.0, 0.0, 0.0, 0.0, 0.0, 0.0, 1.6527795970330665E9, 0.0, 2022-05-17 11:26:37.033
42.0, 14573.60560579367, 27187.27614727928, -30023.80192563557, -13432.727865305886, 2189.889811264254, -300.1392245458632, 8463.778610679938, 4629.113331927459, -0.078, 0.89, 0.502, 192.0, 0.0, 0.0, 0.0, 0.0, 0.0, 0.0, 0.0, 0.0, 0.0, 1.652779597033072E9, 0.0, 2022-05-17 11:26:37.033
43.0, 14531.807843662244, 27112.174285909452, -30095.796894526113, -13504.745185940885, 2118.923022618654, -400.8338333170216, 8401.059615738346, 4546.255415231635, -0.078, 0.89, 0.502, 192.0, 0.0, 0.0, 0.0, 0.0, 0.0, 0.0, 0.0, 0.0, 0.0, 1.6527795970330772E9, 0.0, 2022-05-17 11:26:37.033
44.0, 14478.968319769898, 27079.83131168262, -30074.294516360107, -13504.834592918705, 2087.8540978257774, -455.9979386327194, 8376.718566026517, 4373.476430592112, -0.078, 0.89, 0.502, 192.0, 0.0, 0.0, 0.0, 0.0, 0.0, 0.0, 0.0, 0.0, 0.0, 1.6527795970330825E9, 0.0, 2022-05-17 11:26:37.033
45.0, 14504.382253215583, 27139.510469378292, -29996.868073566926, -13421.999027967338, 2132.669345458668, -384.27119067563905, 8451.753372162982, 4379.734919039598, -0.078, 0.89, 0.502, 192.0, 0.0, 0.0, 0.0, 0.0, 0.0, 0.0, 0.0, 0.0, 0.0, 1.652779597033088E9, 0.0, 2022-05-17 11:26:37.033
46.0, 14555.92537592952, 27189.734839169367, -29972.057637221533, -13392.539428775244, 2194.896602022243, -300.27333501259506, 8512.416006614687, 4513.934792749261, -0.078, 0.89, 0.502, 192.0, 0.0, 0.0, 0.0, 0.0, 0.0, 0.0, 0.0, 0.0, 0.0, 1.652779597033094E9, 0.0, 2022-05-17 11:26:37.033
47.0, 14573.538550560303, 27179.006001830818, -30042.778556678124, -13431.252650171835, 2178.3563111253156, -312.9691258632095, 8474.641558485218, 4577.257284791146, -0.078, 0.89, 0.502, 192.0, 0.0, 0.0, 0.0, 0.0, 0.0, 0.0, 0.0, 0.0, 0.0, 1.6527795970331037E9, 0.0, 2022-05-17 11:26:37.033
48.0, 14532.724265184912, 27115.705861533388, -30100.96014749529, -13499.693691693985, 2118.5206912184585, -399.7162460942562, 8392.275380167412, 4516.684057317264, -0.078, 0.89, 0.502, 192.0, 0.0, 0.0, 0.0, 0.0, 0.0, 0.0, 0.0, 0.0, 0.0, 1.652779597033109E9, 0.0, 2022-05-17 11:26:37.033
49.0, 14485.606787873125, 27087.16268386396, -30073.355743092987, -13499.269008549334, 2092.480908928026, -460.3565288015043, 8377.858504993737, 4371.956511969151, -0.076, 0.89, 0.5, 192.0, 253.0, 160.0, 27.0, 208.0, 15.0, 160.0, 0.0, 0.0, 0.0, 1.6527795970331144E9, 0.0, 2022-05-17 11:26:37.033
50.0, 14498.593151401657, 27126.23353317184, -30001.941919558278, -13428.659847815019, 2130.0765431018526, -398.24103096020593, 8457.810694910371, 4328.772941681497, -0.076, 0.89, 0.5, 192.0, 0.0, 0.0, 0.0, 0.0, 0.0, 0.0, 0.0, 0.0, 0.0, 1.6527795970331197E9, 0.0, 2022-05-17 11:26:37.033
51.0, 14549.041038637286, 27172.971030827885, -29983.904061782847, -13401.569533535187, 2183.5866193278575, -308.16350080531845, 8498.49086981903, 4472.047623640015, -0.076, 0.89, 0.5, 192.0, 0.0, 0.0, 0.0, 0.0, 0.0, 0.0, 0.0, 0.0, 0.0, 1.6527795970331247E9, 0.0, 2022-05-17 11:26:37.033
52.0, 14558.16055037505, 27153.636771874044, -30035.737757174702, -13442.383818910577, 2180.7479477820334, -310.5551374620363, 8469.366546793764, 4626.967564459749, -0.076, 0.89, 0.5, 192.0, 0.0, 0.0, 0.0, 0.0, 0.0, 0.0, 0.0, 0.0, 0.0, 1.6527795970331302E9, 0.0, 2022-05-17 11:26:37.033
53.0, 14507.645607906057, 27084.994564651795, -30105.274034175163, -13513.216497089446, 2122.320487775861, -399.1127489939629, 8426.898232328682, 4569.568284698521, -0.076, 0.89, 0.5, 192.0, 0.0, 0.0, 0.0, 0.0, 0.0, 0.0, 0.0, 0.0, 0.0, 1.6527795970331357E9, 0.0, 2022-05-17 11:26:37.033
54.0, 14453.822607257678, 27047.823613622622, -30102.34595565152, -13525.040569906303, 2079.9415802885987, -470.48186903975835, 8399.830269793305, 4383.512363852545, -0.076, 0.89, 0.5, 192.0, 0.0, 0.0, 0.0, 0.0, 0.0, 0.0, 0.0, 0.0, 0.0, 1.652779597033141E9, 0.0, 2022-05-17 11:26:37.033
55.0, 14482.254026204828, 27108.41919284096, -30021.23147502321, -13438.651077586543, 2127.640202956224, -415.8989090798985, 8447.81946513885, 4313.886679874263, -0.076, 0.89, 0.5, 192.0, 0.0, 0.0, 0.0, 0.0, 0.0, 0.0, 0.0, 0.0, 0.0, 1.6527795970331464E9, 0.0, 2022-05-17 11:26:37.033
56.0, 14547.096436869675, 27171.04878080473, -29989.536701385583, -13394.260513098301, 2199.791634057955, -316.54540497605865, 8495.071052917368, 4443.482094226133, -0.076, 0.89, 0.5, 192.0, 0.0, 0.0, 0.0, 0.0, 0.0, 0.0, 0.0, 0.0, 0.0, 1.6527795970331516E9, 0.0, 2022-05-17 11:26:37.033
57.0, 14570.655175525568, 27164.6114784016, -30042.398577022384, -13448.910528291528, 2192.1026339653295, -308.16350080531845, 8470.797058438904, 4598.156165856858, -0.076, 0.89, 0.5, 192.0, 0.0, 0.0, 0.0, 0.0, 0.0, 0.0, 0.0, 0.0, 0.0, 1.6527795970331569E9, 0.0, 2022-05-17 11:26:37.033
58.0, 14526.175204059507, 27100.50667530378, -30109.565569110582, -13523.274782094335, 2116.061999328375, -402.35375193998243, 8400.2326011935, 4511.967839237194, -0.076, 0.89, 0.5, 192.0, 0.0, 0.0, 0.0, 0.0, 0.0, 0.0, 0.0, 0.0, 0.0, 1.652779597033162E9, 0.0, 2022-05-17 11:26:37.033
59.0, 14462.00334572832, 27056.071407326628, -30113.566531368084, -13537.088160167714, 2073.5713331188363, -463.7092904698003, 8382.060632951336, 4355.617386772321, -0.078, 0.886, 0.492, 192.0, 253.0, 144.0, 27.0, 176.0, 15.0, 96.0, 0.0, 0.0, 0.0, 1.6527795970331676E9, 0.0, 2022-05-17 11:26:37.033
60.0, 14490.993558286853, 27117.158724922985, -30006.904006827357, -13438.85224328664, 2121.873452886755, -393.54716462459146, 8424.327781716322, 4365.832133988397, -0.078, 0.886, 0.492, 192.0, 0.0, 0.0, 0.0, 0.0, 0.0, 0.0, 0.0, 0.0, 0.0, 1.6527795970331728E9, 0.0, 2022-05-17 11:26:37.033
61.0, 14568.26353886885, 27192.66291769301, -29952.142232911854, -13369.092448841626, 2199.05402649093, -280.6932068697461, 8465.857322914282, 4534.073714503493, -0.078, 0.886, 0.492, 192.0, 0.0, 0.0, 0.0, 0.0, 0.0, 0.0, 0.0, 0.0, 0.0, 1.652779597033178E9, 0.0, 2022-05-17 11:26:37.033
62.0, 14576.757201761868, 27170.333524982158, -30020.583274434004, -13432.213775183413, 2189.1075002083185, -290.147994774341, 8459.598834466797, 4645.094829213003, -0.078, 0.886, 0.492, 192.0, 0.0, 0.0, 0.0, 0.0, 0.0, 0.0, 0.0, 0.0, 0.0, 1.6527795970331836E9, 0.0, 2022-05-17 11:26:37.033
63.0, 14521.928372612998, 27099.970233436852, -30096.37803988195, -13517.463328535954, 2120.509996474981, -386.95340001027586, 8421.62322063723, 4566.103764307948, -0.078, 0.886, 0.492, 192.0, 0.0, 0.0, 0.0, 0.0, 0.0, 0.0, 0.0, 0.0, 0.0, 1.6527795970331888E9, 0.0, 2022-05-17 11:26:37.033
64.0, 14474.967357512398, 27066.174395820428, -30091.68417354634, -13532.3942938321, 2080.478022155526, -453.29337755362724, 8396.633970336195, 4380.271360906525, -0.078, 0.886, 0.492, 192.0, 0.0, 0.0, 0.0, 0.0, 0.0, 0.0, 0.0, 0.0, 0.0, 1.6527795970331943E9, 0.0, 2022-05-17 11:26:37.033
65.0, 14498.704910123935, 27121.472611602858, -30005.31703297103, -13442.830853799684, 2131.060019857886, -389.2779814336278, 8446.456008727075, 4334.4502847731455, -0.078, 0.886, 0.492, 192.0, 0.0, 0.0, 0.0, 0.0, 0.0, 0.0, 0.0, 0.0, 0.0, 1.6527795970331995E9, 0.0, 2022-05-17 11:26:37.033
66.0, 14566.385992334604, 27185.84563563414, -29961.060578949524, -13386.392699050033, 2205.6254393607906, -299.4463204677487, 8501.106023920302, 4449.919396629261, -0.078, 0.886, 0.492, 192.0, 0.0, 0.0, 0.0, 0.0, 0.0, 0.0, 0.0, 0.0, 0.0, 1.6527795970332048E9, 0.0, 2022-05-17 11:26:37.033
67.0, 14585.832010010721, 27179.85536812012, -30023.064318068544, -13435.410074640522, 2204.731369582578, -299.89335535685484, 8479.313073076377, 4567.467220719722, -0.078, 0.886, 0.492, 192.0, 0.0, 0.0, 0.0, 0.0, 0.0, 0.0, 0.0, 0.0, 0.0, 1.6527795970332103E9, 0.0, 2022-05-17 11:26:37.033
68.0, 14538.491015254382, 27113.403631854493, -30092.846464258015, -13521.48664253791, 2136.3350315493385, -385.0311499871195, 8421.37735144822, 4550.457543189233, -0.078, 0.886, 0.492, 192.0, 0.0, 0.0, 0.0, 0.0, 0.0, 0.0, 0.0, 0.0, 0.0, 1.652779597033218E9, 0.0, 2022-05-17 11:26:37.033
69.0, 14476.397869157538, 27069.057770855165, -30090.00779271219, -13529.600325775185, 2085.440109424604, -460.4235840348702, 8391.71658655603, 4393.816518046441, -0.078, 0.896, 0.5, 192.0, 253.0, 144.0, 28.0, 0.0, 15.0, 160.0, 0.0, 0.0, 0.0, 1.6527795970332234E9, 0.0, 2022-05-17 11:26:37.033
70.0, 14485.427973917482, 27109.40266959699, -30017.588140676995, -13442.920260777506, 2118.8112638963776, -413.77549335664435, 8433.559052176362, 4338.786523197475, -0.078, 0.896, 0.5, 192.0, 0.0, 0.0, 0.0, 0.0, 0.0, 0.0, 0.0, 0.0, 0.0, 1.6527795970332289E9, 0.0, 2022-05-17 11:26:37.033
71.0, 14546.828215936212, 27171.071132549183, -29972.07998896599, -13395.825135210174, 2187.0734914628856, -309.25873628362854, 8495.093404661824, 4495.516955318089, -0.078, 0.896, 0.5, 192.0, 0.0, 0.0, 0.0, 0.0, 0.0, 0.0, 0.0, 0.0, 0.0, 1.652779597033234E9, 0.0, 2022-05-17 11:26:37.033
72.0, 14577.114829673152, 27176.100275051627, -30018.057527310557, -13432.973734494894, 2197.1317764677738, -288.3822069623717, 8499.183773897144, 4647.508817614176, -0.078, 0.896, 0.5, 192.0, 0.0, 0.0, 0.0, 0.0, 0.0, 0.0, 0.0, 0.0, 0.0, 1.6527795970332394E9, 0.0, 2022-05-17 11:26:37.033
73.0, 14535.674695453012, 27124.110117448585, -30081.42472284135, -13506.555677241764, 2146.7285927210564, -380.78431854061114, 8431.837967853304, 4547.417705943311, -0.078, 0.896, 0.5, 192.0, 0.0, 0.0, 0.0, 0.0, 0.0, 0.0, 0.0, 0.0, 0.0, 1.6527795970332448E9, 0.0, 2022-05-17 11:26:37.033
74.0, 14477.135476724563, 27082.6923349729, -30081.089446674523, -13520.100834381681, 2094.581972906825, -449.7394501852334, 8397.639798836684, 4388.3403406548905, -0.078, 0.896, 0.5, 192.0, 0.0, 0.0, 0.0, 0.0, 0.0, 0.0, 0.0, 0.0, 0.0, 1.65277959703325E9, 0.0, 2022-05-17 11:26:37.033
75.0, 14484.444497161448, 27115.281178388737, -30014.458896453252, -13448.687010846974, 2113.7821213939337, -396.7658158261557, 8429.803959107872, 4362.859351975841, -0.078, 0.896, 0.5, 192.0, 0.0, 0.0, 0.0, 0.0, 0.0, 0.0, 0.0, 0.0, 0.0, 1.652779597033255E9, 0.0, 2022-05-17 11:26:37.033
76.0, 14545.084779868697, 27172.188719771948, -29977.869090779914, -13396.31687358819, 2184.123061194785, -304.7436839036565, 8484.901009190204, 4505.172908922781, -0.078, 0.896, 0.5, 192.0, 0.0, 0.0, 0.0, 0.0, 0.0, 0.0, 0.0, 0.0, 0.0, 1.6527795970332603E9, 0.0, 2022-05-17 11:26:37.033
77.0, 14566.050716167774, 27163.04685628973, -30030.61920769444, -13444.641345100565, 2185.3971106287377, -304.1178350589079, 8454.748505919993, 4603.699398481775, -0.078, 0.896, 0.5, 192.0, 0.0, 0.0, 0.0, 0.0, 0.0, 0.0, 0.0, 0.0, 0.0, 1.652779597033266E9, 0.0, 2022-05-17 11:26:37.033
78.0, 14531.360808773139, 27109.313262619173, -30088.13024617794, -13513.57412500073, 2126.120284333263, -390.2838099341166, 8385.905132997648, 4527.435246400267, -0.078, 0.896, 0.5, 192.0, 0.0, 0.0, 0.0, 0.0, 0.0, 0.0, 0.0, 0.0, 0.0, 1.6527795970332713E9, 0.0, 2022-05-17 11:26:37.033
79.0, 14485.62913961758, 27070.756503433768, -30079.658935029383, -13513.328255811723, 2089.1728507486405, -449.3594705294932, 8386.46392660903, 4401.594925116888, -0.076, 0.89, 0.508, 192.0, 253.0, 160.0, 27.0, 208.0, 15.0, 224.0, 0.0, 0.0, 0.0, 1.6527795970332763E9, 0.0, 2022-05-17 11:26:37.033
80.0, 14494.927465310988, 27105.424059083947, -30011.486114440697, -13439.343981664657, 2122.253432542495, -398.8445280604992, 8461.699898445595, 4388.25093367707, -0.076, 0.89, 0.508, 192.0, 0.0, 0.0, 0.0, 0.0, 0.0, 0.0, 0.0, 0.0, 0.0, 1.652779597033282E9, 0.0, 2022-05-17 11:26:37.033
81.0, 14553.489035783892, 27172.255775005317, -29971.700009310247, -13391.377138063568, 2191.990875243053, -308.09644557195253, 8515.902878749714, 4487.403272080812, -0.076, 0.89, 0.508, 192.0, 0.0, 0.0, 0.0, 0.0, 0.0, 0.0, 0.0, 0.0, 0.0, 1.65277959703329E9, 0.0, 2022-05-17 11:26:37.033
82.0, 14575.259634883361, 27160.968144055387, -30029.143992560388, -13448.821121313707, 2186.738215296056, -320.2781463000949, 8487.91849469167, 4563.913293351328, -0.076, 0.89, 0.508, 192.0, 0.0, 0.0, 0.0, 0.0, 0.0, 0.0, 0.0, 0.0, 0.0, 1.6527795970332956E9, 0.0, 2022-05-17 11:26:37.033
83.0, 14523.20242204695, 27095.45518105688, -30103.463542874284, -13531.790796731806, 2119.4371127411264, -409.39455144340417, 8429.245165496488, 4535.079543003982, -0.076, 0.89, 0.508, 192.0, 0.0, 0.0, 0.0, 0.0, 0.0, 0.0, 0.0, 0.0, 0.0, 1.6527795970333247E9, 0.0, 2022-05-17 11:26:37.033
84.0, 14481.829343060177, 27067.11316908755, -30093.986403225234, -13524.370017572644, 2084.9260193021323, -459.14953460091766, 8406.066406496335, 4410.200346732181, -0.076, 0.89, 0.508, 192.0, 0.0, 0.0, 0.0, 0.0, 0.0, 0.0, 0.0, 0.0, 0.0, 1.652779597033336E9, 0.0, 2022-05-17 11:26:37.033
85.0, 14493.452250176937, 27100.484323559325, -30027.0876320705, -13451.369220181612, 2119.548871463403, -408.38872294291536, 8444.399648237188, 4358.657224018243, -0.076, 0.89, 0.508, 192.0, 0.0, 0.0, 0.0, 0.0, 0.0, 0.0, 0.0, 0.0, 0.0, 1.6527795970333428E9, 0.0, 2022-05-17 11:26:37.033
86.0, 14554.852492195665, 27162.778635356266, -29971.945878499257, -13391.377138063568, 2192.281447920972, -312.25387004063964, 8507.96800946808, 4488.163231392292, -0.076, 0.89, 0.508, 192.0, 0.0, 0.0, 0.0, 0.0, 0.0, 0.0, 0.0, 0.0, 0.0, 1.6527795970333483E9, 0.0, 2022-05-17 11:26:37.033
87.0, 14576.064297683752, 27164.52207142378, -30011.106134784954, -13435.499481618344, 2203.613782359813, -305.3471810039498, 8489.594875525818, 4600.458395535755, -0.076, 0.89, 0.508, 192.0, 0.0, 0.0, 0.0, 0.0, 0.0, 0.0, 0.0, 0.0, 0.0, 1.6527795970333543E9, 0.0, 2022-05-17 11:26:37.033
88.0, 14541.7320182004, 27103.65827127198, -30090.61128981248, -13517.642142491597, 2132.4905315030255, -399.3809699274266, 8402.534830872397, 4517.779292795574, -0.07200000000000001, 0.87, 0.508, 192.0, 253.0, 192.0, 27.0, 48.0, 15.0, 224.0, 0.0, 0.0, 0.0, 1.6527795970333595E9, 0.0, 2022-05-17 11:26:37.033
89.0, 14486.925540795988, 27067.761369676755, -30093.51701659167, -13525.845232706695, 2085.440109424604, -464.6033602480126, 8389.973150488515, 4376.493916093578, -0.07200000000000001, 0.87, 0.508, 192.0, 0.0, 0.0, 0.0, 0.0, 0.0, 0.0, 0.0, 0.0, 0.0, 1.6527795970333683E9, 0.0, 2022-05-17 11:26:37.033
90.0, 14509.567857929214, 27116.242303400315, -30017.02934706561, -13440.819196798706, 2122.6781156871457, -406.6676386198567, 8457.698936188095, 4371.91180848024, -0.07200000000000001, 0.87, 0.508, 192.0, 0.0, 0.0, 0.0, 0.0, 0.0, 0.0, 0.0, 0.0, 0.0, 1.6527795970333736E9, 0.0, 2022-05-17 11:26:37.033
91.0, 14581.965158219953, 27194.875740394087, -29969.867166264914, -13374.54627448872, 2203.569078870902, -304.1848902922738, 8521.289649163444, 4507.855118257417, -0.07200000000000001, 0.87, 0.508, 192.0, 0.0, 0.0, 0.0, 0.0, 0.0, 0.0, 0.0, 0.0, 0.0, 1.652779597033379E9, 0.0, 2022-05-17 11:26:37.033
92.0, 14604.31690267526, 27184.213958288907, -30029.1886960493, -13424.033036712772, 2192.7284828100783, -307.6270589383911, 8495.316922106376, 4600.748968213674, -0.07200000000000001, 0.87, 0.508, 192.0, 0.0, 0.0, 0.0, 0.0, 0.0, 0.0, 0.0, 0.0, 0.0, 1.6527795970333846E9, 0.0, 2022-05-17 11:26:37.033
93.0, 14567.660041768557, 27126.546457594213, -30095.52867359265, -13499.470174249433, 2141.8559124297994, -394.86591754745456, 8437.627069667229, 4539.549891895043, -0.07200000000000001, 0.87, 0.508, 192.0, 0.0, 0.0, 0.0, 0.0, 0.0, 0.0, 0.0, 0.0, 0.0, 1.6527795970333898E9, 0.0, 2022-05-17 11:26:37.033
94.0, 14491.39588968705, 27077.238509325805, -30105.743420808725, -13517.038645391303, 2093.5314409174252, -466.70442422681145, 8406.066406496335, 4383.579419085911, -0.07200000000000001, 0.87, 0.508, 192.0, 0.0, 0.0, 0.0, 0.0, 0.0, 0.0, 0.0, 0.0, 0.0, 1.6527795970333953E9, 0.0, 2022-05-17 11:26:37.033
95.0, 14491.217075731407, 27109.335614363627, -30038.531725231616, -13445.513063134322, 2111.9045748596877, -421.173920771351, 8440.62220342424, 4330.739895193565, -0.07200000000000001, 0.87, 0.508, 192.0, 0.0, 0.0, 0.0, 0.0, 0.0, 0.0, 0.0, 0.0, 0.0, 1.6527795970334003E9, 0.0, 2022-05-17 11:26:37.033
96.0, 14555.098361384675, 27174.446245961935, -29990.587233374983, -13386.325643816668, 2183.5195640944917, -319.87581489989935, 8498.446166330119, 4486.196277880225, -0.07200000000000001, 0.87, 0.508, 192.0, 0.0, 0.0, 0.0, 0.0, 0.0, 0.0, 0.0, 0.0, 0.0, 1.6527795970334058E9, 0.0, 2022-05-17 11:26:37.033
97.0, 14573.024460437831, 27166.690190635945, -30047.494774758194, -13432.839624028162, 2177.4398896026482, -313.9749543636983, 8473.680433473639, 4607.029808405615, -0.07200000000000001, 0.87, 0.508, 192.0, 0.0, 0.0, 0.0, 0.0, 0.0, 0.0, 0.0, 0.0, 0.0, 1.6527795970334113E9, 0.0, 2022-05-17 11:26:37.033
98.0, 14524.923506370009, 27100.461971814868, -30130.86678157649, -13519.564392514754, 2098.359417719772, -417.61999340295716, 8384.787545774883, 4498.735606519653, -0.064, 0.872, 0.504, 192.0, 254.0, 0.0, 27.0, 64.0, 15.0, 192.0, 0.0, 0.0, 0.0, 1.6527795970334165E9, 0.0, 2022-05-17 11:26:37.033
99.0, 14482.902226794033, 27067.806073165666, -30116.71812733628, -13522.53717452731, 2067.424603393627, -474.86281095299853, 8373.589321802774, 4375.532791082, -0.064, 0.872, 0.504, 192.0, 0.0, 0.0, 0.0, 0.0, 0.0, 0.0, 0.0, 0.0, 0.0, 1.6527795970334218E9, 0.0, 2022-05-17 11:26:37.033
100.0, 14492.222904231896, 27112.196637653906, -30040.23045781022, -13437.198214196947, 2105.7354933900233, -419.89987133739845, 8440.130465046223, 4373.2529131475585, -0.064, 0.872, 0.504, 192.0, 0.0, 0.0, 0.0, 0.0, 0.0, 0.0, 0.0, 0.0, 0.0, 1.652779597033427E9, 0.0, 2022-05-17 11:26:37.033
101.0, 14551.298564827272, 27179.251871019827, -29998.656213123348, -13384.716318215886, 2176.7469855245336, -328.14596034836296, 8497.708558763094, 4504.390597866845, -0.064, 0.872, 0.504, 192.0, 0.0, 0.0, 0.0, 0.0, 0.0, 0.0, 0.0, 0.0, 0.0, 1.6527795970334325E9, 0.0, 2022-05-17 11:26:37.033
102.0, 14571.906873215064, 27174.669763406488, -30051.249867826686, -13434.873632773595, 2180.8150030153993, -330.85052142745513, 8478.709575976083, 4582.308779038046, -0.064, 0.872, 0.504, 192.0, 0.0, 0.0, 0.0, 0.0, 0.0, 0.0, 0.0, 0.0, 0.0, 1.6527795970334375E9, 0.0, 2022-05-17 11:26:37.033
103.0, 14536.92639314251, 27120.55619008019, -30106.168103953376, -13505.996883630381, 2126.9472988781095, -413.2166997452617, 8413.598944377774, 4497.327446618968, -0.064, 0.872, 0.504, 192.0, 0.0, 0.0, 0.0, 0.0, 0.0, 0.0, 0.0, 0.0, 0.0, 1.6527795970334427E9, 0.0, 2022-05-17 11:26:37.033
104.0, 14482.164619227007, 27081.127712861027, -30104.603481841503, -13515.205802345969, 2076.7899843204004, -477.65677900991193, 8372.941121213571, 4367.664977033732, -0.064, 0.872, 0.504, 192.0, 0.0, 0.0, 0.0, 0.0, 0.0, 0.0, 0.0, 0.0, 0.0, 1.6527795970334485E9, 0.0, 2022-05-17 11:26:37.033
105.0, 14496.53679091177, 27122.32197789216, -30028.249922782175, -13434.426597884489, 2109.4235312251485, -416.23418524672815, 8420.036246780903, 4386.328683653914, -0.064, 0.872, 0.504, 192.0, 0.0, 0.0, 0.0, 0.0, 0.0, 0.0, 0.0, 0.0, 0.0, 1.6527795970334537E9, 0.0, 2022-05-17 11:26:37.033
106.0, 14560.663945754046, 27183.655164677522, -29982.92058502681, -13384.805725193708, 2180.0326919594636, -320.4569602557374, 8486.644445257718, 4510.760845036608, -0.064, 0.872, 0.504, 192.0, 0.0, 0.0, 0.0, 0.0, 0.0, 0.0, 0.0, 0.0, 0.0, 1.652779597033605E9, 0.0, 2022-05-17 11:26:37.033
107.0, 14578.858265740666, 27181.241176276348, -30037.32473103103, -13431.498519360843, 2178.803346014422, -316.14307357586307, 8442.075066813835, 4569.121249809415, -0.064, 0.872, 0.504, 192.0, 0.0, 0.0, 0.0, 0.0, 0.0, 0.0, 0.0, 0.0, 0.0, 1.6527795970336106E9, 0.0, 2022-05-17 11:26:37.033
108.0, 14541.039114122286, 27129.56394309568, -30095.551025337107, -13498.017310859837, 2122.164025564674, -397.1681472263512, 8368.917807211616, 4490.644275026832, -0.066, 0.886, 0.494, 192.0, 253.0, 240.0, 27.0, 176.0, 15.0, 112.0, 0.0, 0.0, 0.0, 1.652779597033616E9, 0.0, 2022-05-17 11:26:37.033
109.0, 14481.58347387117, 27078.98194539332, -30101.831865529046, -13522.403064060578, 2075.158306975163, -481.0318924226633, 8358.054859406337, 4349.917691936218, -0.066, 0.886, 0.494, 192.0, 0.0, 0.0, 0.0, 0.0, 0.0, 0.0, 0.0, 0.0, 0.0, 1.6527795970336213E9, 0.0, 2022-05-17 11:26:37.033
110.0, 14489.272473963794, 27117.04696620071, -30030.149821060877, -13452.576214382198, 2109.2670690139616, -431.7462958987112, 8417.309333957355, 4351.348203581358, -0.066, 0.886, 0.494, 192.0, 0.0, 0.0, 0.0, 0.0, 0.0, 0.0, 0.0, 0.0, 0.0, 1.6527795970336268E9, 0.0, 2022-05-17 11:26:37.033
111.0, 14546.314125813738, 27178.916594852995, -29990.609585119437, -13398.395585822534, 2171.404918599715, -332.1245708614076, 8494.936942450637, 4484.7210627461745, -0.066, 0.886, 0.494, 192.0, 0.0, 0.0, 0.0, 0.0, 0.0, 0.0, 0.0, 0.0, 0.0, 1.6527795970336344E9, 0.0, 2022-05-17 11:26:37.033
112.0, 14569.001146435876, 27184.884510622564, -30033.726100173724, -13432.236126927868, 2172.2319331445615, -310.3986752508492, 8488.253770858499, 4578.173706313813, -0.066, 0.886, 0.494, 192.0, 0.0, 0.0, 0.0, 0.0, 0.0, 0.0, 0.0, 0.0, 0.0, 1.6527795970336397E9, 0.0, 2022-05-17 11:26:37.033
113.0, 14524.16354705853, 27130.61447508508, -30096.28863290413, -13503.00174987337, 2119.191243552118, -386.014626743153, 8401.193726205078, 4504.055321700015, -0.066, 0.886, 0.494, 192.0, 0.0, 0.0, 0.0, 0.0, 0.0, 0.0, 0.0, 0.0, 0.0, 1.652779597033645E9, 0.0, 2022-05-17 11:26:37.033
114.0, 14468.328889409173, 27078.266689570748, -30103.642356829925, -13526.62754376263, 2074.264237196951, -473.7675754746885, 8344.84497843325, 4319.273450287992, -0.066, 0.886, 0.494, 192.0, 0.0, 0.0, 0.0, 0.0, 0.0, 0.0, 0.0, 0.0, 0.0, 1.6527795970336504E9, 0.0, 2022-05-17 11:26:37.033
115.0, 14475.302633679228, 27102.518332304757, -30038.75524267617, -13464.221473243413, 2095.029007795931, -434.00382208869723, 8390.46488886653, 4330.739895193565, -0.066, 0.886, 0.494, 192.0, 0.0, 0.0, 0.0, 0.0, 0.0, 0.0, 0.0, 0.0, 0.0, 1.652779597033656E9, 0.0, 2022-05-17 11:26:37.033
116.0, 14536.077026853209, 27168.835958103653, -29991.16837873082, -13401.524830046277, 2165.7275755080673, -324.3908672798714, 8449.182921550622, 4510.827900269974, -0.066, 0.886, 0.494, 192.0, 0.0, 0.0, 0.0, 0.0, 0.0, 0.0, 0.0, 0.0, 0.0, 1.6527795970336611E9, 0.0, 2022-05-17 11:26:37.033
117.0, 14561.222739365428, 27173.90980409501, -30034.8883908854, -13436.28179267428, 2170.3320348658604, -308.7222944167012, 8428.418150951642, 4638.702230298785, -0.066, 0.886, 0.494, 192.0, 0.0, 0.0, 0.0, 0.0, 0.0, 0.0, 0.0, 0.0, 0.0, 1.6527795970336664E9, 0.0, 2022-05-17 11:26:37.033
118.0, 14514.373482987105, 27117.292835389715, -30096.087467204034, -13505.214572574447, 2121.024086597453, -386.1487372098848, 8402.579534361308, 4594.24461057718, -0.058, 0.898, 0.492, 192.0, 254.0, 48.0, 28.0, 16.0, 15.0, 96.0, 0.0, 0.0, 0.0, 1.6527795970336719E9, 0.0, 2022-05-17 11:26:37.033
119.0, 14466.00430798582, 27072.857567412564, -30100.96014749529, -13529.086235652714, 2080.165097733152, -467.2632178381941, 8406.446386152076, 4411.250878721581, -0.058, 0.898, 0.492, 192.0, 0.0, 0.0, 0.0, 0.0, 0.0, 0.0, 0.0, 0.0, 0.0, 1.652779597033677E9, 0.0, 2022-05-17 11:26:37.033
120.0, 14467.479523119871, 27105.06643117266, -30031.356815261464, -13459.505255163343, 2110.60817368128, -420.4586649487812, 8448.892348872703, 4346.944909923663, -0.058, 0.898, 0.492, 192.0, 0.0, 0.0, 0.0, 0.0, 0.0, 0.0, 0.0, 0.0, 0.0, 1.6527795970336823E9, 0.0, 2022-05-17 11:26:37.033
121.0, 14530.891422139577, 27169.41710345949, -29985.245166450164, -13399.55787653421, 2184.6818548061674, -316.43364625378206, 8506.291628633931, 4454.9038356427955, -0.058, 0.898, 0.492, 192.0, 0.0, 0.0, 0.0, 0.0, 0.0, 0.0, 0.0, 0.0, 0.0, 1.6527795970336878E9, 0.0, 2022-05-17 11:26:37.033
122.0, 14554.852492195665, 27163.60564990111, -30038.107042086966, -13441.75797006583, 2181.6196658157905, -311.8068351515335, 8484.453974301097, 4562.9074648508395, -0.058, 0.898, 0.492, 192.0, 0.0, 0.0, 0.0, 0.0, 0.0, 0.0, 0.0, 0.0, 0.0, 1.6527795970336933E9, 0.0, 2022-05-17 11:26:37.033
123.0, 14513.568820186714, 27103.79238173871, -30107.03982198713, -13512.925924411527, 2120.219423797062, -397.01168501516406, 8413.688351355595, 4515.834691027962, -0.058, 0.898, 0.492, 192.0, 0.0, 0.0, 0.0, 0.0, 0.0, 0.0, 0.0, 0.0, 0.0, 1.6527795970336983E9, 0.0, 2022-05-17 11:26:37.033
124.0, 14473.223921444884, 27080.993602394297, -30094.835769514535, -13509.237886576402, 2089.016388537453, -450.81233391908813, 8391.984807489493, 4416.905870068774, -0.058, 0.898, 0.492, 192.0, 0.0, 0.0, 0.0, 0.0, 0.0, 0.0, 0.0, 0.0, 0.0, 1.6527795970337036E9, 0.0, 2022-05-17 11:26:37.033
125.0, 14456.415409614494, 27098.830294469633, -30041.795079922093, -13451.816255070718, 2109.8482143697997, -411.8532433334879, 8422.09260727079, 4384.652302819765, -0.058, 0.898, 0.492, 192.0, 0.0, 0.0, 0.0, 0.0, 0.0, 0.0, 0.0, 0.0, 0.0, 1.6527795970337093E9, 0.0, 2022-05-17 11:26:37.033
126.0, 14510.283113751784, 27158.598859143123, -30008.289814983586, -13401.480126557366, 2170.8684767327877, -320.792236422567, 8478.195485853612, 4485.726891246663, -0.058, 0.898, 0.492, 192.0, 0.0, 0.0, 0.0, 0.0, 0.0, 0.0, 0.0, 0.0, 0.0, 1.6527795970337143E9, 0.0, 2022-05-17 11:26:37.033
127.0, 14549.242204337384, 27169.394751715037, -30043.158536333864, -13432.034961227771, 2186.045311217941, -297.0993872999415, 8471.802886939393, 4591.897677409373, -0.058, 0.898, 0.492, 192.0, 0.0, 0.0, 0.0, 0.0, 0.0, 0.0, 0.0, 0.0, 0.0, 1.6527795970337195E9, 0.0, 2022-05-17 11:26:37.033
128.0, 14516.139270799074, 27110.587312053125, -30107.3080429206, -13501.191258572491, 2134.0998571038076, -375.7104725492564, 8404.300618684367, 4543.3049849635345, -0.062, 0.898, 0.492, 192.0, 254.0, 16.0, 28.0, 16.0, 15.0, 96.0, 0.0, 0.0, 0.0, 1.652779597033725E9, 0.0, 2022-05-17 11:26:37.033
129.0, 14465.691383563446, 27063.581593463612, -30108.068002232078, -13519.542040770299, 2092.0785775278305, -453.8521711650099, 8370.03539443438, 4393.660055835254, -0.062, 0.898, 0.492, 192.0, 0.0, 0.0, 0.0, 0.0, 0.0, 0.0, 0.0, 0.0, 0.0, 1.6527795970337303E9, 0.0, 2022-05-17 11:26:37.033
130.0, 14459.142322438041, 27091.342460077103, -30035.17896356332, -13450.765723081318, 2118.341877262816, -412.85907183397677, 8424.081912527314, 4355.595035027866, -0.062, 0.898, 0.492, 192.0, 0.0, 0.0, 0.0, 0.0, 0.0, 0.0, 0.0, 0.0, 0.0, 1.6527795970337355E9, 0.0, 2022-05-17 11:26:37.033
131.0, 14501.00713980283, 27141.388015912537, -29999.147951501367, -13402.441251568944, 2175.5176395794915, -318.91468988832116, 8475.692090474617, 4468.739565460631, -0.062, 0.898, 0.492, 192.0, 0.0, 0.0, 0.0, 0.0, 0.0, 0.0, 0.0, 0.0, 0.0, 1.6527795970337408E9, 0.0, 2022-05-17 11:26:37.033
132.0, 14535.831157664199, 27143.93611478044, -30046.488946257705, -13444.998973011849, 2179.563305325902, -318.1100270879301, 8455.061430342368, 4516.840519528451, -0.062, 0.898, 0.492, 192.0, 0.0, 0.0, 0.0, 0.0, 0.0, 0.0, 0.0, 0.0, 0.0, 1.6527795970337484E9, 0.0, 2022-05-17 11:26:37.033
133.0, 14496.29092172276, 27083.564053006656, -30118.059232003598, -13523.900630939082, 2116.8443103843106, -412.18851950031757, 8378.238484649479, 4472.651120740309, -0.062, 0.898, 0.492, 192.0, 0.0, 0.0, 0.0, 0.0, 0.0, 0.0, 0.0, 0.0, 0.0, 1.6527795970337536E9, 0.0, 2022-05-17 11:26:37.033
134.0, 14436.164729137985, 27043.621485665022, -30113.87945579046, -13529.309753097266, 2080.0756907553305, -464.73747071474446, 8368.448420578054, 4423.834910849919, -0.062, 0.898, 0.492, 192.0, 0.0, 0.0, 0.0, 0.0, 0.0, 0.0, 0.0, 0.0, 0.0, 1.652779597033759E9, 0.0, 2022-05-17 11:26:37.033
135.0, 14444.926612964466, 27084.525178018237, -30042.219763066743, -13451.145702737058, 2107.925964346643, -422.9173568388649, 8431.10036028628, 4379.243180661581, -0.062, 0.898, 0.492, 192.0, 0.0, 0.0, 0.0, 0.0, 0.0, 0.0, 0.0, 0.0, 0.0, 1.6527795970337644E9, 0.0, 2022-05-17 11:26:37.033
136.0, 14511.847735863656, 27149.47934740536, -29991.302489197555, -13390.17014386298, 2183.7207297945893, -326.2460620696619, 8479.24601784301, 4503.65299029982, -0.062, 0.898, 0.492, 192.0, 0.0, 0.0, 0.0, 0.0, 0.0, 0.0, 0.0, 0.0, 0.0, 1.6527795970337696E9, 0.0, 2022-05-17 11:26:37.033
137.0, 14547.297602569772, 27150.574582883666, -30041.88448689991, -13431.207946682925, 2192.1696891986953, -317.26066079862846, 8450.546377962397, 4605.778110716118, -0.062, 0.898, 0.492, 192.0, 0.0, 0.0, 0.0, 0.0, 0.0, 0.0, 0.0, 0.0, 0.0, 1.6527795970337749E9, 0.0, 2022-05-17 11:26:37.033
138.0, 14509.25493350684, 27091.387163566014, -30116.91929303638, -13512.814165689251, 2127.439037256126, -410.8474148329991, 8391.649531322662, 4510.693789803242, -0.068, 0.902, 0.492, 192.0, 253.0, 224.0, 28.0, 48.0, 15.0, 96.0, 0.0, 0.0, 0.0, 1.65277959703378E9, 0.0, 2022-05-17 11:26:37.033
139.0, 14449.15109266652, 27041.11809028603, -30123.91538905089, -13532.841328721206, 2077.4605366540595, -484.02702617967446, 8386.128650442202, 4360.5124188080335, -0.068, 0.902, 0.492, 192.0, 0.0, 0.0, 0.0, 0.0, 0.0, 0.0, 0.0, 0.0, 0.0, 1.6527795970337856E9, 0.0, 2022-05-17 11:26:37.033
140.0, 14459.209377671406, 27083.541701262202, -30035.916571130347, -13447.457664901933, 2119.6829819301347, -427.9017958523984, 8451.172226807144, 4358.1654856402265, -0.068, 0.902, 0.492, 192.0, 0.0, 0.0, 0.0, 0.0, 0.0, 0.0, 0.0, 0.0, 0.0, 1.6527795970337908E9, 0.0, 2022-05-17 11:26:37.033
141.0, 14523.001256346854, 27155.782539341755, -29981.64653559286, -13381.296501314224, 2191.0297502314747, -321.99923062315355, 8506.224573400566, 4482.396481322823, -0.068, 0.902, 0.492, 192.0, 0.0, 0.0, 0.0, 0.0, 0.0, 0.0, 0.0, 0.0, 0.0, 1.652779597033796E9, 0.0, 2022-05-17 11:26:37.033
142.0, 14543.78837869029, 27148.071187504673, -30039.291684543095, -13427.832833270173, 2189.1745554416843, -325.2849370580837, 8466.304357803388, 4546.993022798661, -0.068, 0.902, 0.492, 192.0, 0.0, 0.0, 0.0, 0.0, 0.0, 0.0, 0.0, 0.0, 0.0, 1.6527795970338013E9, 0.0, 2022-05-17 11:26:37.033
143.0, 14494.033395532775, 27090.51544553226, -30112.225426700763, -13502.19708707298, 2128.288403545428, -404.94655429679807, 8386.016891719924, 4520.796778297041, -0.068, 0.902, 0.492, 192.0, 0.0, 0.0, 0.0, 0.0, 0.0, 0.0, 0.0, 0.0, 0.0, 1.652779597033807E9, 0.0, 2022-05-17 11:26:37.033
144.0, 14451.00628745631, 27054.015046836743, -30111.91250227839, -13514.445843034488, 2083.428452423627, -462.3905375469372, 8373.835190991782, 4425.35482947288, -0.068, 0.902, 0.492, 192.0, 0.0, 0.0, 0.0, 0.0, 0.0, 0.0, 0.0, 0.0, 0.0, 1.6527795970338123E9, 0.0, 2022-05-17 11:26:37.033
145.0, 14462.271566661784, 27087.430904797424, -30042.28681830011, -13446.407132912533, 2106.1154730457633, -430.31578425357156, 8429.088703285302, 4350.275319847503, -0.068, 0.902, 0.492, 192.0, 0.0, 0.0, 0.0, 0.0, 0.0, 0.0, 0.0, 0.0, 0.0, 1.6527795970338175E9, 0.0, 2022-05-17 11:26:37.033
146.0, 14511.557163185736, 27148.764091582787, -29997.717439856227, -13386.593864750132, 2174.578866312369, -336.9301959192987, 8486.085651646335, 4465.543266003521, -0.068, 0.902, 0.492, 192.0, 0.0, 0.0, 0.0, 0.0, 0.0, 0.0, 0.0, 0.0, 0.0, 1.652779597033823E9, 0.0, 2022-05-17 11:26:37.033
147.0, 14544.078951368208, 27152.496832906825, -30045.304303801575, -13424.100091946137, 2185.2630001620055, -320.2781463000949, 8475.937959663624, 4570.484706221188, -0.068, 0.902, 0.492, 192.0, 0.0, 0.0, 0.0, 0.0, 0.0, 0.0, 0.0, 0.0, 0.0, 1.6527795970338283E9, 0.0, 2022-05-17 11:26:37.033
148.0, 14505.924523582999, 27096.818637468656, -30118.327452937065, -13503.158212084558, 2129.383639023738, -402.5996211289908, 8411.274362954422, 4502.490699588144, -0.07200000000000001, 0.906, 0.5, 192.0, 253.0, 192.0, 28.0, 80.0, 15.0, 160.0, 0.0, 0.0, 0.0, 1.6527795970338335E9, 0.0, 2022-05-17 11:26:37.033
0.0, 0.0, 0.0, 0.0, 0.0, 0.0, 0.0, 0.0, 0.0, -0.07200000000000001, 0.906, 0.5, 192.0, 0.0, 0.0, 0.0, 0.0, 0.0, 0.0, 0.0, 0.0, 0.0, 1.652779597096989E9, 0.0, 2022-05-17 11:26:37.096
1.0, 13968.365069432864, 27369.04053318984, -30643.325226703317, -13612.100614559724, 3315.7918829669816, -227.71957251066834, 9566.390164660235, 6329.656401831675, -0.058, 0.926, 0.444, 192.0, 254.0, 48.0, 28.0, 240.0, 13.0, 224.0, 0.0, 0.0, 0.0, 1.652779597112861E9, 0.0, 2022-05-17 11:26:37.112
2.0, 13970.28731945602, 27402.32228068379, -30574.414798547605, -13548.219328906456, 3334.23207214261, -182.2561242885738, 9603.941095345152, 6351.8069805868845, -0.058, 0.926, 0.444, 192.0, 0.0, 0.0, 0.0, 0.0, 0.0, 0.0, 0.0, 0.0, 0.0, 1.652779597591854E9, 0.0, 2022-05-17 11:26:37.591
3.0, 14031.44169228574, 27460.66033371214, -30539.791946386333, -13506.734491197407, 3399.5215176965617, -104.4273500951946, 9659.82045648342, 6408.1557283587135, -0.058, 0.926, 0.444, 192.0, 0.0, 0.0, 0.0, 0.0, 0.0, 0.0, 0.0, 0.0, 0.0, 1.6527795975920756E9, 0.0, 2022-05-17 11:26:37.592
4.0, 14066.600986313939, 27459.699208700564, -30584.271917852395, -13551.236814407923, 3413.290192281031, -103.77914950599069, 9641.6261364968, 6431.490949570054, -0.058, 0.926, 0.444, 192.0, 0.0, 0.0, 0.0, 0.0, 0.0, 0.0, 0.0, 0.0, 0.0, 1.652779597592105E9, 0.0, 2022-05-17 11:26:37.592
5.0, 14043.086951146955, 27415.6215686347, -30631.076470741806, -13607.138527290646, 3367.580874869928, -163.03362405700972, 9611.563040204412, 6415.352990073323, -0.058, 0.926, 0.444, 192.0, 0.0, 0.0, 0.0, 0.0, 0.0, 0.0, 0.0, 0.0, 0.0, 1.6527795975921106E9, 0.0, 2022-05-17 11:26:37.592
6.0, 13974.936482302724, 27368.23587038945, -30629.53420037439, -13619.163765807602, 3316.6636010007387, -209.01116240157634, 9599.42604296518, 6359.4959806795105, -0.058, 0.926, 0.444, 192.0, 0.0, 0.0, 0.0, 0.0, 0.0, 0.0, 0.0, 0.0, 0.0, 1.6527795975921166E9, 0.0, 2022-05-17 11:26:37.592
7.0, 13956.786865805016, 27386.31843165379, -30582.886109696166, -13565.988965748425, 3321.6703917587274, -182.054958588476, 9630.852595669341, 6362.759335369985, -0.058, 0.926, 0.444, 192.0, 0.0, 0.0, 0.0, 0.0, 0.0, 0.0, 0.0, 0.0, 0.0, 1.6527795975921223E9, 0.0, 2022-05-17 11:26:37.592
8.0, 14017.740072934637, 27448.14335681717, -30552.62184770368, -13518.58091575872, 3381.9083430657797, -99.44291108166112, 9668.828209498908, 6436.989478706059, -0.048, 0.9400000000000001, 0.41200000000000003, 192.0, 254.0, 128.0, 29.0, 96.0, 12.0, 224.0, 0.0, 0.0, 0.0, 1.6527795975921278E9, 0.0, 2022-05-17 11:26:37.592
9.0, 14061.460085089218, 27463.700170958065, -30582.640240507157, -13542.698448025996, 3406.7634829000813, -82.05325389543222, 9655.48421805909, 6430.954507703127, -0.048, 0.9400000000000001, 0.41200000000000003, 192.0, 0.0, 0.0, 0.0, 0.0, 0.0, 0.0, 0.0, 0.0, 0.0, 1.6527795975921333E9, 0.0, 2022-05-17 11:26:37.592
10.0, 14048.786645983058, 27430.731347886485, -30621.35346190375, -13595.828544596261, 3376.320406951953, -149.3990599392724, 9614.178194305683, 6350.6893933641195, -0.048, 0.9400000000000001, 0.41200000000000003, 192.0, 0.0, 0.0, 0.0, 0.0, 0.0, 0.0, 0.0, 0.0, 0.0, 1.652779597592139E9, 0.0, 2022-05-17 11:26:37.592
11.0, 13981.262025983577, 27371.566280313287, -30636.97733127801, -13622.337713520255, 3322.162130136744, -221.8857672078332, 9584.51742941349, 6328.53881460891, -0.048, 0.9400000000000001, 0.41200000000000003, 192.0, 0.0, 0.0, 0.0, 0.0, 0.0, 0.0, 0.0, 0.0, 0.0, 1.6527795975921445E9, 0.0, 2022-05-17 11:26:37.592
12.0, 13975.159999747277, 27400.08710623826, -30577.38758056016, -13555.796570276807, 3333.874444231325, -170.36499623835044, 9620.257868797526, 6392.442452006633, -0.048, 0.9400000000000001, 0.41200000000000003, 192.0, 0.0, 0.0, 0.0, 0.0, 0.0, 0.0, 0.0, 0.0, 0.0, 1.65277959759215E9, 0.0, 2022-05-17 11:26:37.592
13.0, 14027.172509094777, 27455.29591504287, -30539.99311208643, -13510.400177288078, 3393.6877123937265, -93.96673369011089, 9655.99830818156, 6419.55511803092, -0.048, 0.9400000000000001, 0.41200000000000003, 192.0, 0.0, 0.0, 0.0, 0.0, 0.0, 0.0, 0.0, 0.0, 0.0, 1.6527795975921557E9, 0.0, 2022-05-17 11:26:37.592
14.0, 14056.475646075683, 27459.6321534672, -30582.30496434033, -13555.930680743539, 3407.0317038335447, -109.5011960865493, 9635.5241102605, 6363.563998170376, -0.048, 0.9400000000000001, 0.41200000000000003, 192.0, 0.0, 0.0, 0.0, 0.0, 0.0, 0.0, 0.0, 0.0, 0.0, 1.6527795975921612E9, 0.0, 2022-05-17 11:26:37.592
15.0, 14036.984924910657, 27415.018071534407, -30627.522543373412, -13611.810041881805, 3364.451630646185, -167.4369177147052, 9606.600952935332, 6350.8682073197615, -0.048, 0.9400000000000001, 0.41200000000000003, 192.0, 0.0, 0.0, 0.0, 0.0, 0.0, 0.0, 0.0, 0.0, 0.0, 1.652779597592167E9, 0.0, 2022-05-17 11:26:37.592
16.0, 13981.150267261299, 27368.459387834002, -30628.461316640536, -13624.97521936598, 3311.768568965026, -222.1092846523863, 9588.965426560097, 6357.484323678533, -0.048, 0.9400000000000001, 0.41200000000000003, 192.0, 0.0, 0.0, 0.0, 0.0, 0.0, 0.0, 0.0, 0.0, 0.0, 1.6527795975921724E9, 0.0, 2022-05-17 11:26:37.592
17.0, 13973.930653802236, 27395.437943391556, -30576.67232473759, -13570.794590806318, 3322.0280196700123, -186.83823190191174, 9615.765168162008, 6390.050815349915, -0.048, 0.9400000000000001, 0.41200000000000003, 192.0, 0.0, 0.0, 0.0, 0.0, 0.0, 0.0, 0.0, 0.0, 0.0, 1.6527795975921779E9, 0.0, 2022-05-17 11:26:37.592
18.0, 14023.417416026285, 27450.087958584783, -30540.104870808707, -13521.173718115535, 3388.636218146827, -107.40013210775044, 9645.515340032023, 6435.9836502055705, -0.048, 0.9520000000000001, 0.396, 192.0, 254.0, 128.0, 29.0, 192.0, 12.0, 96.0, 0.0, 0.0, 0.0, 1.652779597592183E9, 0.0, 2022-05-17 11:26:37.592
19.0, 14057.63793678736, 27460.928554645605, -30573.09604562474, -13551.437980108021, 3408.8198433899697, -102.16982390520859, 9626.270488056003, 6399.0585683654035, -0.048, 0.9520000000000001, 0.396, 192.0, 0.0, 0.0, 0.0, 0.0, 0.0, 0.0, 0.0, 0.0, 0.0, 1.6527795975921888E9, 0.0, 2022-05-17 11:26:37.592
20.0, 14013.292075788031, 27402.612853361712, -30634.54099113238, -13622.114196075701, 3357.7237555651377, -177.8528306308783, 9576.381394431757, 6333.210329200069, -0.048, 0.9520000000000001, 0.396, 192.0, 0.0, 0.0, 0.0, 0.0, 0.0, 0.0, 0.0, 0.0, 0.0, 1.652779597592194E9, 0.0, 2022-05-17 11:26:37.592
21.0, 13956.295127426998, 27358.959896440494, -30635.16683997713, -13632.530108991876, 3310.874499186814, -227.2725376215622, 9565.451391393113, 6332.428018144134, -0.048, 0.9520000000000001, 0.396, 192.0, 0.0, 0.0, 0.0, 0.0, 0.0, 0.0, 0.0, 0.0, 0.0, 1.6527795975921996E9, 0.0, 2022-05-17 11:26:37.592
22.0, 13972.589549134917, 27399.684774838064, -30561.51784199689, -13555.327183643245, 3335.6625837877496, -173.0919090618979, 9621.576621720389, 6397.0022078755155, -0.048, 0.9520000000000001, 0.396, 192.0, 0.0, 0.0, 0.0, 0.0, 0.0, 0.0, 0.0, 0.0, 0.0, 1.6527795975922048E9, 0.0, 2022-05-17 11:26:37.592
23.0, 14028.78183469556, 27459.498043000465, -30523.586931656235, -13499.00078761587, 3400.996732830612, -93.54205054546006, 9678.595921825878, 6446.734839288573, -0.048, 0.9520000000000001, 0.396, 192.0, 0.0, 0.0, 0.0, 0.0, 0.0, 0.0, 0.0, 0.0, 0.0, 1.6527795975922103E9, 0.0, 2022-05-17 11:26:37.592
24.0, 14059.537835066061, 27461.330886045802, -30568.782158944865, -13541.983192203426, 3417.4699684941734, -102.03571343847675, 9648.823398211409, 6411.553193515921, -0.048, 0.9520000000000001, 0.396, 192.0, 0.0, 0.0, 0.0, 0.0, 0.0, 0.0, 0.0, 0.0, 0.0, 1.652779597592216E9, 0.0, 2022-05-17 11:26:37.592
25.0, 14028.200689339721, 27416.739155857464, -30618.44773512456, -13599.40482370911, 3372.0959272499, -166.3863857253058, 9596.699130141633, 6378.003225088504, -0.048, 0.9520000000000001, 0.396, 192.0, 0.0, 0.0, 0.0, 0.0, 0.0, 0.0, 0.0, 0.0, 0.0, 1.6527795975922213E9, 0.0, 2022-05-17 11:26:37.592
26.0, 13971.874293312347, 27375.12020768168, -30615.6761188121, -13607.11617554619, 3326.6324790278054, -221.5504910410036, 9594.620417907288, 6335.400800156689, -0.048, 0.9520000000000001, 0.396, 192.0, 0.0, 0.0, 0.0, 0.0, 0.0, 0.0, 0.0, 0.0, 0.0, 1.6527795975922291E9, 0.0, 2022-05-17 11:26:37.592
27.0, 13979.585645149427, 27405.675042352086, -30553.29240003734, -13542.340820114712, 3341.1387611792998, -186.90528713527766, 9634.317116059914, 6328.672925075642, -0.05, 0.9500000000000001, 0.388, 192.0, 254.0, 112.0, 29.0, 176.0, 12.0, 32.0, 0.0, 0.0, 0.0, 1.6527795975922346E9, 0.0, 2022-05-17 11:26:37.592
28.0, 14029.877070173869, 27454.46890049802, -30528.727832880955, -13510.467232521443, 3393.352436226897, -115.04442871146546, 9658.501703560556, 6408.066321380892, -0.05, 0.9500000000000001, 0.388, 192.0, 0.0, 0.0, 0.0, 0.0, 0.0, 0.0, 0.0, 0.0, 0.0, 1.65277959759224E9, 0.0, 2022-05-17 11:26:37.592
29.0, 14064.45521884623, 27461.86732791273, -30566.591687988246, -13536.305849111779, 3411.1667765577768, -93.3632365898176, 9640.441494040668, 6433.860234482317, -0.05, 0.9500000000000001, 0.388, 192.0, 0.0, 0.0, 0.0, 0.0, 0.0, 0.0, 0.0, 0.0, 0.0, 1.652779597592245E9, 0.0, 2022-05-17 11:26:37.592
30.0, 14016.801299667515, 27407.552588886334, -30623.25336018245, -13594.934474818048, 3367.0444330030004, -172.4660602171493, 9588.451336437623, 6341.078143248337, -0.05, 0.9500000000000001, 0.388, 192.0, 0.0, 0.0, 0.0, 0.0, 0.0, 0.0, 0.0, 0.0, 0.0, 1.6527795975922508E9, 0.0, 2022-05-17 11:26:37.592
31.0, 13950.506025613073, 27354.310733593793, -30634.406880665647, -13621.22012629749, 3311.1427201202778, -239.78951451653415, 9572.93922578564, 6328.337648908812, -0.05, 0.9500000000000001, 0.388, 192.0, 0.0, 0.0, 0.0, 0.0, 0.0, 0.0, 0.0, 0.0, 0.0, 1.6527795975922563E9, 0.0, 2022-05-17 11:26:37.592
32.0, 13948.606127334373, 27384.820864775287, -30571.106740368217, -13558.054096466793, 3324.3526010933642, -193.76727268305692, 9624.325886288392, 6356.992585300516, -0.05, 0.9500000000000001, 0.388, 192.0, 0.0, 0.0, 0.0, 0.0, 0.0, 0.0, 0.0, 0.0, 0.0, 1.6527795975922618E9, 0.0, 2022-05-17 11:26:37.592
33.0, 14009.760500164093, 27451.47376674101, -30529.733661381444, -13504.208744073958, 3389.95497106969, -97.94534420315554, 9669.141133921283, 6423.645487266242, -0.05, 0.9500000000000001, 0.388, 192.0, 0.0, 0.0, 0.0, 0.0, 0.0, 0.0, 0.0, 0.0, 0.0, 1.6527795975922673E9, 0.0, 2022-05-17 11:26:37.592
34.0, 14062.73413452317, 27472.283240828903, -30565.831728676767, -13532.05901766527, 3413.647820192316, -88.64701850974781, 9660.468657072623, 6434.84371123835, -0.05, 0.9500000000000001, 0.388, 192.0, 0.0, 0.0, 0.0, 0.0, 0.0, 0.0, 0.0, 0.0, 0.0, 1.6527795975922723E9, 0.0, 2022-05-17 11:26:37.592
35.0, 14038.080160388967, 27421.61183614872, -30619.4759153695, -13588.206599737001, 3369.1454969817996, -167.32515899242867, 9612.23359253807, 6381.445393734622, -0.05, 0.9500000000000001, 0.388, 192.0, 0.0, 0.0, 0.0, 0.0, 0.0, 0.0, 0.0, 0.0, 0.0, 1.6527795975922778E9, 0.0, 2022-05-17 11:26:37.592
36.0, 13971.628424123339, 27371.856852991208, -30631.00941550844, -13609.93249534756, 3314.94251667768, -226.69139226572423, 9582.617531134789, 6328.404704142178, -0.05, 0.9500000000000001, 0.388, 192.0, 0.0, 0.0, 0.0, 0.0, 0.0, 0.0, 0.0, 0.0, 0.0, 1.6527795975922832E9, 0.0, 2022-05-17 11:26:37.592
37.0, 13953.836435536914, 27385.916100253595, -30583.53431028537, -13564.044363980815, 3314.8307579554034, -206.9548019116881, 9606.533897701967, 6334.797303056396, -0.04, 0.9520000000000001, 0.382, 192.0, 254.0, 192.0, 29.0, 192.0, 11.0, 240.0, 0.0, 0.0, 0.0, 1.6527795975922887E9, 0.0, 2022-05-17 11:26:37.592
38.0, 14008.53115421905, 27443.494193970466, -30542.317693509784, -13516.569258757741, 3385.5293256675395, -122.800484037457, 9657.093543659872, 6400.26556256599, -0.04, 0.9520000000000001, 0.382, 192.0, 0.0, 0.0, 0.0, 0.0, 0.0, 0.0, 0.0, 0.0, 0.0, 1.6527795975922945E9, 0.0, 2022-05-17 11:26:37.592
39.0, 14052.92171870729, 27464.303668058357, -30569.296249067338, -13538.988058446415, 3410.451520735207, -93.07266391189862, 9635.345296304858, 6424.517205299999, -0.04, 0.9520000000000001, 0.382, 192.0, 0.0, 0.0, 0.0, 0.0, 0.0, 0.0, 0.0, 0.0, 0.0, 1.6527795975922997E9, 0.0, 2022-05-17 11:26:37.592
40.0, 14021.472814258674, 27412.402917433134, -30628.796592807365, -13608.03259706886, 3360.361261410864, -159.5020484330712, 9569.675871095165, 6366.313262738378, -0.04, 0.9520000000000001, 0.382, 192.0, 0.0, 0.0, 0.0, 0.0, 0.0, 0.0, 0.0, 0.0, 0.0, 1.652779597592305E9, 0.0, 2022-05-17 11:26:37.592
41.0, 13961.525435629539, 27367.18533840005, -30637.5808283783, -13625.690475188552, 3310.9639061646353, -227.49605506611528, 9580.337653200348, 6314.568974324343, -0.04, 0.9520000000000001, 0.382, 192.0, 0.0, 0.0, 0.0, 0.0, 0.0, 0.0, 0.0, 0.0, 0.0, 1.6527795975923104E9, 0.0, 2022-05-17 11:26:37.592
42.0, 13946.549766844484, 27391.86166427871, -30582.684943996068, -13564.513750614376, 3322.7656272370373, -198.90817390777755, 9634.406523037735, 6360.524160924454, -0.04, 0.9520000000000001, 0.382, 192.0, 0.0, 0.0, 0.0, 0.0, 0.0, 0.0, 0.0, 0.0, 0.0, 1.6527795975923157E9, 0.0, 2022-05-17 11:26:37.592
43.0, 14010.140479819833, 27455.58648772079, -30539.009635330396, -13506.600380730675, 3392.6371804043274, -105.00849545103259, 9696.3879104123, 6430.84274898085, -0.04, 0.9520000000000001, 0.382, 192.0, 0.0, 0.0, 0.0, 0.0, 0.0, 0.0, 0.0, 0.0, 0.0, 1.6527795975923212E9, 0.0, 2022-05-17 11:26:37.592
44.0, 14068.478532848185, 27478.09469438728, -30556.533402983358, -13522.671284994041, 3429.7857796890476, -74.78893694745743, 9681.769869538532, 6432.563833303909, -0.04, 0.9520000000000001, 0.382, 192.0, 0.0, 0.0, 0.0, 0.0, 0.0, 0.0, 0.0, 0.0, 0.0, 1.6527795975923266E9, 0.0, 2022-05-17 11:26:37.592
45.0, 14044.271593603087, 27429.65846415263, -30612.144543188162, -13585.099707257714, 3383.9200000667574, -142.02298426902107, 9620.414331008713, 6349.325936952346, -0.04, 0.9520000000000001, 0.382, 192.0, 0.0, 0.0, 0.0, 0.0, 0.0, 0.0, 0.0, 0.0, 0.0, 1.652779597592332E9, 0.0, 2022-05-17 11:26:37.592
46.0, 13975.227054980644, 27379.32233563928, -30628.90835152964, -13610.133661047657, 3318.004705668057, -215.94020318272152, 9592.787574861954, 6313.719608035041, -0.04, 0.9520000000000001, 0.382, 192.0, 0.0, 0.0, 0.0, 0.0, 0.0, 0.0, 0.0, 0.0, 0.0, 1.6527795975923383E9, 0.0, 2022-05-17 11:26:37.592
47.0, 13955.982203004623, 27400.690603338553, -30576.426455548582, -13559.506959856388, 3324.3526010933642, -183.5748772114369, 9637.759284706031, 6385.424004247667, -0.046, 0.9460000000000001, 0.378, 192.0, 254.0, 144.0, 29.0, 144.0, 11.0, 208.0, 0.0, 0.0, 0.0, 1.6527795975923467E9, 0.0, 2022-05-17 11:26:37.592
48.0, 14013.694407188226, 27456.838185410284, -30537.936751596542, -13504.34285454069, 3392.257200748587, -95.79957673544607, 9687.268398674536, 6459.452981883644, -0.046, 0.9460000000000001, 0.378, 192.0, 0.0, 0.0, 0.0, 0.0, 0.0, 0.0, 0.0, 0.0, 0.0, 1.652779597592352E9, 0.0, 2022-05-17 11:26:37.592
49.0, 14055.73803850866, 27464.504833758456, -30571.062036879306, -13534.182433388523, 3425.2036720757096, -84.44489055215008, 9674.01381421254, 6461.196417951157, -0.046, 0.9460000000000001, 0.378, 192.0, 0.0, 0.0, 0.0, 0.0, 0.0, 0.0, 0.0, 0.0, 0.0, 1.6527795975923572E9, 0.0, 2022-05-17 11:26:37.592
50.0, 14021.137538091843, 27413.028766277883, -30631.18822946408, -13601.237666754445, 3368.6090551148723, -157.669205387736, 9614.424063494691, 6374.359890742289, -0.046, 0.9460000000000001, 0.378, 192.0, 0.0, 0.0, 0.0, 0.0, 0.0, 0.0, 0.0, 0.0, 0.0, 1.6527795975923626E9, 0.0, 2022-05-17 11:26:37.592
51.0, 13961.637194351817, 27361.37388484167, -30639.547781890367, -13623.544707720841, 3312.1485486207666, -224.27740386455108, 9585.299740469425, 6306.656456787165, -0.046, 0.9460000000000001, 0.378, 192.0, 0.0, 0.0, 0.0, 0.0, 0.0, 0.0, 0.0, 0.0, 0.0, 1.652779597592368E9, 0.0, 2022-05-17 11:26:37.592
52.0, 13955.557519859973, 27382.13865544065, -30591.983269689474, -13570.481666383943, 3326.3419063498864, -195.66717096175802, 9623.05183685444, 6356.947881811605, -0.046, 0.9460000000000001, 0.378, 192.0, 0.0, 0.0, 0.0, 0.0, 0.0, 0.0, 0.0, 0.0, 0.0, 1.6527795975923731E9, 0.0, 2022-05-17 11:26:37.592
53.0, 14000.708043659693, 27431.04427230886, -30564.42356877608, -13528.661552508063, 3383.9200000667574, -116.43023686769449, 9670.43753509969, 6430.999211192037, -0.046, 0.9460000000000001, 0.378, 192.0, 0.0, 0.0, 0.0, 0.0, 0.0, 0.0, 0.0, 0.0, 0.0, 1.6527795975923817E9, 0.0, 2022-05-17 11:26:37.592
54.0, 14041.522329035084, 27454.938287131583, -30589.85985396622, -13545.53711957182, 3408.126939311855, -83.14848937374228, 9655.663032014732, 6446.645432310753, -0.046, 0.9460000000000001, 0.378, 192.0, 0.0, 0.0, 0.0, 0.0, 0.0, 0.0, 0.0, 0.0, 0.0, 1.6527795975924206E9, 0.0, 2022-05-17 11:26:37.592
55.0, 14027.038398628045, 27415.71097561252, -30637.178496978107, -13602.288198743845, 3369.100793492889, -153.5117809190489, 9610.37839774828, 6379.143164055725, -0.046, 0.9460000000000001, 0.378, 192.0, 0.0, 0.0, 0.0, 0.0, 0.0, 0.0, 0.0, 0.0, 0.0, 1.652779597592428E9, 0.0, 2022-05-17 11:26:37.592
56.0, 13964.274700197542, 27355.27185860537, -30655.573982664824, -13635.838167171261, 3310.069836386423, -238.85074124941127, 9573.833295563853, 6315.954782480572, -0.046, 0.9460000000000001, 0.378, 192.0, 0.0, 0.0, 0.0, 0.0, 0.0, 0.0, 0.0, 0.0, 0.0, 1.6527795975924382E9, 0.0, 2022-05-17 11:26:37.592
57.0, 13960.76547631806, 27385.60317583122, -30599.448752337546, -13569.431134394543, 3312.126196876311, -198.3940837853055, 9613.23942103856, 6356.366736455767, -0.048, 0.9460000000000001, 0.378, 192.0, 254.0, 128.0, 29.0, 144.0, 11.0, 208.0, 0.0, 0.0, 0.0, 1.6527795975924475E9, 0.0, 2022-05-17 11:26:37.592
58.0, 14011.43688099824, 27454.89358364267, -30557.114548339196, -13510.53428775481, 3379.248485475598, -114.10565544434256, 9661.161561150737, 6417.632868007764, -0.048, 0.9460000000000001, 0.378, 192.0, 0.0, 0.0, 0.0, 0.0, 0.0, 0.0, 0.0, 0.0, 0.0, 1.6527795975924609E9, 0.0, 2022-05-17 11:26:37.592
59.0, 14052.608794284915, 27472.57381350682, -30586.48474055347, -13539.30098286879, 3419.6604394507935, -91.28452435547405, 9656.065363414928, 6421.633830265264, -0.048, 0.9460000000000001, 0.378, 192.0, 0.0, 0.0, 0.0, 0.0, 0.0, 0.0, 0.0, 0.0, 0.0, 1.652779597592474E9, 0.0, 2022-05-17 11:26:37.592
60.0, 14023.43976777074, 27421.85770533773, -30639.30191270136, -13606.736195890451, 3369.100793492889, -162.6536444012695, 9605.103386056828, 6349.415343930166, -0.048, 0.9460000000000001, 0.378, 192.0, 0.0, 0.0, 0.0, 0.0, 0.0, 0.0, 0.0, 0.0, 0.0, 1.6527795975924919E9, 0.0, 2022-05-17 11:26:37.592
61.0, 13949.969583746146, 27366.425379088567, -30649.67312212862, -13629.065588601303, 3315.031923655501, -233.39691560231634, 9578.258940966003, 6291.412567068644, -0.048, 0.9460000000000001, 0.378, 192.0, 0.0, 0.0, 0.0, 0.0, 0.0, 0.0, 0.0, 0.0, 0.0, 1.6527795975925045E9, 0.0, 2022-05-17 11:26:37.592
62.0, 13952.00359249158, 27397.069620736795, -30589.569281288303, -13561.406858135088, 3331.5945662968834, -192.7167406936575, 9618.201508307637, 6368.704899395097, -0.048, 0.9460000000000001, 0.378, 192.0, 0.0, 0.0, 0.0, 0.0, 0.0, 0.0, 0.0, 0.0, 0.0, 1.6527795975925343E9, 0.0, 2022-05-17 11:26:37.592
63.0, 14010.38634900884, 27456.279391798904, -30556.712216939002, -13509.774328443329, 3389.284418736031, -106.57311756290407, 9655.797142481464, 6455.854351026339, -0.048, 0.9460000000000001, 0.378, 192.0, 0.0, 0.0, 0.0, 0.0, 0.0, 0.0, 0.0, 0.0, 0.0, 1.6527795975925465E9, 0.0, 2022-05-17 11:26:37.592
64.0, 14060.722477522193, 27477.96058392055, -30587.222348120493, -13533.288363610312, 3413.357247514397, -89.92106794370031, 9642.85548244184, 6420.7174087425965, -0.048, 0.9460000000000001, 0.378, 192.0, 0.0, 0.0, 0.0, 0.0, 0.0, 0.0, 0.0, 0.0, 0.0, 1.6527795975925672E9, 0.0, 2022-05-17 11:26:37.592
65.0, 14053.748733252138, 27441.974275347508, -30629.02011025192, -13589.078317770758, 3380.678997120738, -157.11041177635335, 9599.269580753993, 6341.8828060487285, -0.048, 0.9460000000000001, 0.378, 192.0, 0.0, 0.0, 0.0, 0.0, 0.0, 0.0, 0.0, 0.0, 0.0, 1.6527795975925753E9, 0.0, 2022-05-17 11:26:37.592
66.0, 13997.467040713675, 27388.397143888134, -30637.11144174474, -13609.373701736176, 3328.1076941618558, -220.2093863736852, 9565.764315815488, 6338.932375780628, -0.048, 0.9460000000000001, 0.378, 192.0, 0.0, 0.0, 0.0, 0.0, 0.0, 0.0, 0.0, 0.0, 0.0, 1.6527795975925865E9, 0.0, 2022-05-17 11:26:37.592
67.0, 13962.419505407752, 27399.79653356034, -30591.513883055915, -13564.424343636554, 3316.395380067275, -197.29884830699544, 9611.674798926688, 6371.901198852205, -0.05, 0.9540000000000001, 0.376, 192.0, 254.0, 112.0, 29.0, 208.0, 11.0, 192.0, 0.0, 0.0, 0.0, 1.6527795975925927E9, 0.0, 2022-05-17 11:26:37.592
68.0, 14011.548639720517, 27465.19773783657, -30547.927981368066, -13509.304941809767, 3386.021064045556, -112.47397809910514, 9680.719337549132, 6420.359780831312, -0.05, 0.9540000000000001, 0.376, 192.0, 0.0, 0.0, 0.0, 0.0, 0.0, 0.0, 0.0, 0.0, 0.0, 1.6527795975926025E9, 0.0, 2022-05-17 11:26:37.592
69.0, 14043.936317436257, 27476.53007227541, -30580.360362572716, -13534.428302577533, 3413.1337300698438, -98.4370825811723, 9666.39186935328, 6437.2129961506125, -0.05, 0.9540000000000001, 0.376, 192.0, 0.0, 0.0, 0.0, 0.0, 0.0, 0.0, 0.0, 0.0, 0.0, 1.6527795975926075E9, 0.0, 2022-05-17 11:26:37.592
70.0, 14012.219192054177, 27417.09678376875, -30640.26303771294, -13605.372739478677, 3363.3787469123304, -176.0199875855431, 9593.994569062539, 6365.888579593728, -0.05, 0.9540000000000001, 0.376, 192.0, 0.0, 0.0, 0.0, 0.0, 0.0, 0.0, 0.0, 0.0, 0.0, 1.6527795975926132E9, 0.0, 2022-05-17 11:26:37.592
71.0, 13960.497255384596, 27378.830597261265, -30645.515697659936, -13622.69534143154, 3320.4186940692302, -242.58348257344755, 9565.36198441529, 6271.81008718134, -0.05, 0.9540000000000001, 0.376, 192.0, 0.0, 0.0, 0.0, 0.0, 0.0, 0.0, 0.0, 0.0, 0.0, 1.6527795975926185E9, 0.0, 2022-05-17 11:26:37.592
72.0, 13958.060915238968, 27396.242606191947, -30593.63729877917, -13565.117247714668, 3320.4410458136854, -214.95672642668802, 9611.5183367155, 6341.525178137444, -0.05, 0.9540000000000001, 0.376, 192.0, 0.0, 0.0, 0.0, 0.0, 0.0, 0.0, 0.0, 0.0, 0.0, 1.652779597592624E9, 0.0, 2022-05-17 11:26:37.592
73.0, 14012.82268915447, 27453.932458631094, -30552.42068200358, -13512.121261611137, 3377.214476730165, -126.37676315030613, 9668.135305420794, 6443.091504942358, -0.05, 0.9540000000000001, 0.376, 192.0, 0.0, 0.0, 0.0, 0.0, 0.0, 0.0, 0.0, 0.0, 0.0, 1.6527795975926294E9, 0.0, 2022-05-17 11:26:37.592
74.0, 14069.640823559861, 27483.48146480101, -30571.084388623764, -13519.76555821485, 3416.1288638268547, -85.98716091956626, 9664.849598985864, 6475.926217547205, -0.05, 0.9540000000000001, 0.376, 192.0, 0.0, 0.0, 0.0, 0.0, 0.0, 0.0, 0.0, 0.0, 0.0, 1.652779597592635E9, 0.0, 2022-05-17 11:26:37.592
75.0, 14053.748733252138, 27444.120042815215, -30626.002624750454, -13581.903407800604, 3374.62167437335, -160.26200774455165, 9619.5202612305, 6382.808850146395, -0.05, 0.9540000000000001, 0.376, 192.0, 0.0, 0.0, 0.0, 0.0, 0.0, 0.0, 0.0, 0.0, 0.0, 1.65277959759264E9, 0.0, 2022-05-17 11:26:37.592
76.0, 13997.53409594704, 27385.580824086766, -30641.760604591444, -13613.911105860605, 3322.22918537011, -240.77299127256768, 9591.491173683546, 6303.258991629958, -0.05, 0.9540000000000001, 0.376, 192.0, 0.0, 0.0, 0.0, 0.0, 0.0, 0.0, 0.0, 0.0, 0.0, 1.6527795975926454E9, 0.0, 2022-05-17 11:26:37.592
77.0, 13979.295072471508, 27394.72268756899, -30600.454580838035, -13570.951053017505, 3313.288487587987, -215.67198224925784, 9597.257923753015, 6345.30262295039, -0.048, 0.9560000000000001, 0.376, 192.0, 254.0, 128.0, 29.0, 224.0, 11.0, 192.0, 0.0, 0.0, 0.0, 1.652779597592651E9, 0.0, 2022-05-17 11:26:37.592
78.0, 14017.58361072345, 27463.923688402618, -30553.918248882088, -13513.462366278454, 3371.023043516045, -126.42146663921675, 9647.258776099537, 6428.004077435026, -0.048, 0.9560000000000001, 0.376, 192.0, 0.0, 0.0, 0.0, 0.0, 0.0, 0.0, 0.0, 0.0, 0.0, 1.6527795975926561E9, 0.0, 2022-05-17 11:26:37.592
79.0, 14070.937224738267, 27498.92652021963, -30563.060112364306, -13516.368093057645, 3418.252279550109, -81.94149517315569, 9674.527904335011, 6459.184760950179, -0.048, 0.9560000000000001, 0.376, 192.0, 0.0, 0.0, 0.0, 0.0, 0.0, 0.0, 0.0, 0.0, 0.0, 1.6527795975926619E9, 0.0, 2022-05-17 11:26:37.592
80.0, 14051.602965784428, 27447.91983937262, -30629.668310841123, -13585.412631680088, 3368.5643516259615, -153.10944951885338, 9624.348238032846, 6390.006111861005, -0.048, 0.9560000000000001, 0.376, 192.0, 0.0, 0.0, 0.0, 0.0, 0.0, 0.0, 0.0, 0.0, 0.0, 1.652779597592667E9, 0.0, 2022-05-17 11:26:37.592
81.0, 13989.420412709764, 27389.961766000008, -30652.57884890781, -13621.153071064124, 3309.064007885934, -240.99650871712075, 9593.681644640166, 6306.030607942415, -0.048, 0.9560000000000001, 0.376, 192.0, 0.0, 0.0, 0.0, 0.0, 0.0, 0.0, 0.0, 0.0, 0.0, 1.6527795975926723E9, 0.0, 2022-05-17 11:26:37.592
82.0, 13970.130857244832, 27393.381582901668, -30603.784990761877, -13571.800419306806, 3316.909470189747, -231.22879639015156, 9618.045046096451, 6317.675866803631, -0.048, 0.9560000000000001, 0.376, 192.0, 0.0, 0.0, 0.0, 0.0, 0.0, 0.0, 0.0, 0.0, 0.0, 1.652779597592678E9, 0.0, 2022-05-17 11:26:37.592
83.0, 14019.595267724428, 27465.421255281122, -30555.19229831604, -13506.689787708496, 3387.38452045733, -134.53514987649322, 9665.609558297343, 6399.304437554412, -0.048, 0.9560000000000001, 0.376, 192.0, 0.0, 0.0, 0.0, 0.0, 0.0, 0.0, 0.0, 0.0, 0.0, 1.6527795975926833E9, 0.0, 2022-05-17 11:26:37.592
84.0, 14082.269559177108, 27505.07324994484, -30573.140749113652, -13510.53428775481, 3413.6254684478604, -91.08335865537629, 9665.877779230808, 6432.541481559454, -0.048, 0.9560000000000001, 0.376, 192.0, 0.0, 0.0, 0.0, 0.0, 0.0, 0.0, 0.0, 0.0, 0.0, 1.6527795975926888E9, 0.0, 2022-05-17 11:26:37.592
85.0, 14064.231701401675, 27456.301743543358, -30633.49045914298, -13576.382526920144, 3363.892837034802, -160.68669088920248, 9611.652447182232, 6385.178135058658, -0.048, 0.9560000000000001, 0.376, 192.0, 0.0, 0.0, 0.0, 0.0, 0.0, 0.0, 0.0, 0.0, 0.0, 1.6527795975926971E9, 0.0, 2022-05-17 11:26:37.592
86.0, 14001.892686115825, 27404.93743478506, -30648.711997117043, -13607.429099968565, 3323.391476081786, -235.29681388101744, 9578.974196788573, 6333.210329200069, -0.048, 0.9560000000000001, 0.376, 192.0, 0.0, 0.0, 0.0, 0.0, 0.0, 0.0, 0.0, 0.0, 0.0, 1.652779597592703E9, 0.0, 2022-05-17 11:26:37.592
87.0, 13996.707081402194, 27435.604028177742, -30585.7694847309, -13544.3971806046, 3335.819045998937, -201.6574384757803, 9617.37449376279, 6316.11124469176, -0.044, 0.9560000000000001, 0.376, 192.0, 254.0, 160.0, 29.0, 224.0, 11.0, 192.0, 0.0, 0.0, 0.0, 1.6527795975927088E9, 0.0, 2022-05-17 11:26:37.592
88.0, 14038.884823189357, 27479.704019988065, -30547.659760434603, -13494.686900935996, 3388.680921635738, -117.27960315699616, 9658.725221005108, 6390.542553727932, -0.044, 0.9560000000000001, 0.376, 192.0, 0.0, 0.0, 0.0, 0.0, 0.0, 0.0, 0.0, 0.0, 0.0, 1.6527795975927143E9, 0.0, 2022-05-17 11:26:37.592
89.0, 14073.418268372807, 27488.77882823692, -30584.09310389675, -13519.542040770299, 3413.290192281031, -92.33505634487348, 9638.899223673252, 6421.343257587345, -0.044, 0.9560000000000001, 0.376, 192.0, 0.0, 0.0, 0.0, 0.0, 0.0, 0.0, 0.0, 0.0, 0.0, 1.65277959759272E9, 0.0, 2022-05-17 11:26:37.592
90.0, 14054.486340819161, 27441.035502080384, -30643.280523214406, -13585.658500869096, 3373.548790639495, -174.58947594040347, 9587.579618403866, 6344.5873671278205, -0.044, 0.9560000000000001, 0.376, 192.0, 0.0, 0.0, 0.0, 0.0, 0.0, 0.0, 0.0, 0.0, 0.0, 1.6527795975927286E9, 0.0, 2022-05-17 11:26:37.592
91.0, 13997.399985480308, 27389.447675877534, -30660.871346100732, -13620.370760008189, 3308.236993341088, -261.3812996603608, 9561.316318668882, 6278.180334351103, -0.044, 0.9560000000000001, 0.376, 192.0, 0.0, 0.0, 0.0, 0.0, 0.0, 0.0, 0.0, 0.0, 0.0, 1.652779597592734E9, 0.0, 2022-05-17 11:26:37.592
92.0, 13973.215397979666, 27414.81690583431, -30609.305871642337, -13567.531236115843, 3303.364313049831, -245.24334016362909, 9602.264714511004, 6295.793508981885, -0.044, 0.9560000000000001, 0.376, 192.0, 0.0, 0.0, 0.0, 0.0, 0.0, 0.0, 0.0, 0.0, 0.0, 1.6527795975927396E9, 0.0, 2022-05-17 11:26:37.592
93.0, 14032.469872530684, 27487.81770322534, -30559.729702440465, -13500.140726583091, 3376.7450900966037, -134.64690859876976, 9655.551273292456, 6419.041027908448, -0.044, 0.9560000000000001, 0.376, 192.0, 0.0, 0.0, 0.0, 0.0, 0.0, 0.0, 0.0, 0.0, 0.0, 1.652779597592745E9, 0.0, 2022-05-17 11:26:37.592
94.0, 14078.581521341983, 27506.414354612156, -30581.23208060647, -13505.661607463553, 3404.0812735654445, -80.15335561673113, 9644.62127025381, 6492.354749721855, -0.044, 0.9560000000000001, 0.376, 192.0, 0.0, 0.0, 0.0, 0.0, 0.0, 0.0, 0.0, 0.0, 0.0, 1.6527795975927503E9, 0.0, 2022-05-17 11:26:37.592
95.0, 14076.703974807737, 27475.971278664027, -30623.789802049378, -13554.075485953748, 3381.19308724321, -140.95010053516634, 9603.00232207803, 6397.426891020166, -0.044, 0.9560000000000001, 0.376, 192.0, 0.0, 0.0, 0.0, 0.0, 0.0, 0.0, 0.0, 0.0, 0.0, 1.6527795975927556E9, 0.0, 2022-05-17 11:26:37.592
96.0, 14025.540831749538, 27426.640978651165, -30642.319398202828, -13589.88298057115, 3318.7199614906267, -237.6884505377353, 9572.22396996307, 6288.462136800545, -0.044, 0.9560000000000001, 0.376, 192.0, 0.0, 0.0, 0.0, 0.0, 0.0, 0.0, 0.0, 0.0, 0.0, 1.6527795975927613E9, 0.0, 2022-05-17 11:26:37.592
97.0, 14014.879049644358, 27444.656484682142, -30592.29619411185, -13544.933622471526, 3331.7733802525263, -210.03934264652048, 9600.94596158814, 6328.605869842276, -0.042, 0.9480000000000001, 0.372, 192.0, 254.0, 176.0, 29.0, 160.0, 11.0, 160.0, 0.0, 0.0, 0.0, 1.6527795975927668E9, 0.0, 2022-05-17 11:26:37.592
98.0, 14064.477570590685, 27496.736049263007, -30552.867716892688, -13496.43033700351, 3393.3300844824416, -116.27377465650734, 9642.319040574914, 6440.431647352177, -0.042, 0.9480000000000001, 0.372, 192.0, 0.0, 0.0, 0.0, 0.0, 0.0, 0.0, 0.0, 0.0, 0.0, 1.652779597592772E9, 0.0, 2022-05-17 11:26:37.592
99.0, 14116.199507260264, 27526.665035088663, -30572.537252013357, -13503.62759871812, 3421.5603377294947, -75.45948928111665, 9640.486197529579, 6445.79606602145, -0.042, 0.9480000000000001, 0.372, 192.0, 0.0, 0.0, 0.0, 0.0, 0.0, 0.0, 0.0, 0.0, 0.0, 1.6527795975927775E9, 0.0, 2022-05-17 11:26:37.592
100.0, 14084.616492344916, 27469.981011150005, -30639.45837491255, -13579.176494977057, 3362.261159689565, -146.38157443780597, 9584.852705580319, 6367.296739494413, -0.042, 0.9480000000000001, 0.372, 192.0, 0.0, 0.0, 0.0, 0.0, 0.0, 0.0, 0.0, 0.0, 0.0, 1.6527795975927827E9, 0.0, 2022-05-17 11:26:37.592
101.0, 14024.356189293409, 27416.80621109083, -30647.192078494085, -13601.684701643551, 3318.4740923016184, -231.698183023713, 9558.455295378602, 6303.258991629958, -0.042, 0.9480000000000001, 0.372, 192.0, 0.0, 0.0, 0.0, 0.0, 0.0, 0.0, 0.0, 0.0, 0.0, 1.652779597592788E9, 0.0, 2022-05-17 11:26:37.592
102.0, 14002.853811127403, 27435.112289799727, -30591.826807478286, -13547.168796917058, 3324.6208220268277, -219.20355787319636, 9595.514487685501, 6321.095683705293, -0.042, 0.9480000000000001, 0.372, 192.0, 0.0, 0.0, 0.0, 0.0, 0.0, 0.0, 0.0, 0.0, 0.0, 1.6527795975927935E9, 0.0, 2022-05-17 11:26:37.592
103.0, 14042.394047068841, 27483.883796201208, -30553.404158759615, -13497.793793415285, 3382.1765639992436, -129.70717307414688, 9649.181026122693, 6430.6415832807525, -0.042, 0.9480000000000001, 0.372, 192.0, 0.0, 0.0, 0.0, 0.0, 0.0, 0.0, 0.0, 0.0, 0.0, 1.6527795975927987E9, 0.0, 2022-05-17 11:26:37.592
104.0, 14079.02855623109, 27497.406601596667, -30581.47794979548, -13520.592572759697, 3407.0317038335447, -105.43317859568342, 9636.731104461087, 6456.547255104453, -0.042, 0.9480000000000001, 0.372, 192.0, 0.0, 0.0, 0.0, 0.0, 0.0, 0.0, 0.0, 0.0, 0.0, 1.652779597592804E9, 0.0, 2022-05-17 11:26:37.592
105.0, 14059.940166466256, 27464.795406436373, -30626.06967998382, -13573.007413507392, 3371.671244105249, -165.08998454689797, 9600.387167976758, 6406.613457991298, -0.042, 0.9480000000000001, 0.372, 192.0, 0.0, 0.0, 0.0, 0.0, 0.0, 0.0, 0.0, 0.0, 0.0, 1.6527795975928097E9, 0.0, 2022-05-17 11:26:37.592
106.0, 14007.10064257391, 27418.28142622488, -30639.59248537928, -13597.616684152687, 3323.0114964260456, -229.70887776719067, 9575.509676398002, 6338.954727525083, -0.042, 0.9480000000000001, 0.372, 192.0, 0.0, 0.0, 0.0, 0.0, 0.0, 0.0, 0.0, 0.0, 0.0, 1.6527795975928147E9, 0.0, 2022-05-17 11:26:37.592
107.0, 14000.48452621514, 27430.91016184213, -30586.730609742477, -13544.196014904503, 3329.4040953402637, -203.98201989913224, 9588.428984693168, 6343.045096760404, -0.04, 0.9580000000000001, 0.372, 192.0, 254.0, 192.0, 29.0, 240.0, 11.0, 160.0, 0.0, 0.0, 0.0, 1.6527795975928204E9, 0.0, 2022-05-17 11:26:37.592
108.0, 14054.016954185601, 27494.858502728763, -30539.456670219504, -13483.175752541514, 3394.6711891497603, -109.38943736427277, 9648.979860422596, 6434.664897282708, -0.04, 0.9580000000000001, 0.372, 192.0, 0.0, 0.0, 0.0, 0.0, 0.0, 0.0, 0.0, 0.0, 0.0, 1.6527795975928257E9, 0.0, 2022-05-17 11:26:37.592
109.0, 14097.714614595727, 27519.378366396235, -30563.551850742326, -13497.391462015088, 3425.2707273090755, -81.06977713939871, 9665.430744341702, 6460.950548762149, -0.04, 0.9580000000000001, 0.372, 192.0, 0.0, 0.0, 0.0, 0.0, 0.0, 0.0, 0.0, 0.0, 0.0, 1.6527795975928311E9, 0.0, 2022-05-17 11:26:37.592
110.0, 14080.615530087416, 27473.780807707408, -30619.34180490277, -13560.937471501527, 3387.742148368615, -152.37184195182826, 9614.178194305683, 6384.865210636283, -0.04, 0.9580000000000001, 0.372, 192.0, 0.0, 0.0, 0.0, 0.0, 0.0, 0.0, 0.0, 0.0, 0.0, 1.6527795975928364E9, 0.0, 2022-05-17 11:26:37.592
111.0, 14009.022892597068, 27420.896580326153, -30635.569171377323, -13589.145373004125, 3336.7354675216043, -231.42996209024932, 9586.551438158922, 6330.662230332164, -0.04, 0.9580000000000001, 0.372, 192.0, 0.0, 0.0, 0.0, 0.0, 0.0, 0.0, 0.0, 0.0, 0.0, 1.6527795975928445E9, 0.0, 2022-05-17 11:26:37.592
112.0, 13997.131764546844, 27435.358158988736, -30586.48474055347, -13538.608078790676, 3327.8618249728474, -208.47472053464898, 9617.240383296059, 6360.501809179999, -0.04, 0.9580000000000001, 0.372, 192.0, 0.0, 0.0, 0.0, 0.0, 0.0, 0.0, 0.0, 0.0, 0.0, 1.6527795975928504E9, 0.0, 2022-05-17 11:26:37.592
113.0, 14069.663175304315, 27507.35312787928, -30533.645216661123, -13468.870636090118, 3391.5642966704727, -115.5361670894822, 9654.165465136226, 6407.418120791688, -0.04, 0.9580000000000001, 0.372, 192.0, 0.0, 0.0, 0.0, 0.0, 0.0, 0.0, 0.0, 0.0, 0.0, 1.652779597592856E9, 0.0, 2022-05-17 11:26:37.592
114.0, 14110.589219401983, 27525.905075777184, -30559.394426273637, -13483.086345563692, 3428.8917099108353, -88.15528013173106, 9644.95654642064, 6448.746496289551, -0.04, 0.9580000000000001, 0.372, 192.0, 0.0, 0.0, 0.0, 0.0, 0.0, 0.0, 0.0, 0.0, 0.0, 1.6527795975928612E9, 0.0, 2022-05-17 11:26:37.592
115.0, 14071.183093927277, 27465.667124470132, -30628.573075362812, -13558.903462756094, 3382.511840166073, -155.61284489784776, 9604.589295934355, 6410.659123737708, -0.04, 0.9580000000000001, 0.372, 192.0, 0.0, 0.0, 0.0, 0.0, 0.0, 0.0, 0.0, 0.0, 0.0, 1.6527795975928664E9, 0.0, 2022-05-17 11:26:37.592
116.0, 14026.770177694581, 27422.349443715746, -30632.104650986752, -13574.706146085997, 3333.203891897666, -218.73417123963492, 9586.216161992093, 6351.270538719958, -0.032, 0.962, 0.37, 192.0, 255.0, 0.0, 30.0, 16.0, 11.0, 144.0, 0.0, 0.0, 0.0, 1.6527795975928724E9, 0.0, 2022-05-17 11:26:37.592
117.0, 14017.941238634736, 27439.582638690787, -30580.025086405887, -13521.10666288217, 3334.969679709635, -196.58359248442562, 9627.745703190054, 6359.719498124064, -0.032, 0.962, 0.37, 192.0, 0.0, 0.0, 0.0, 0.0, 0.0, 0.0, 0.0, 0.0, 0.0, 1.6527795975928795E9, 0.0, 2022-05-17 11:26:37.592
118.0, 14068.210311914721, 27498.47948533052, -30541.580085942758, -13471.485790191387, 3395.833479861436, -113.70332404414702, 9667.218883898126, 6434.597842049342, -0.032, 0.962, 0.37, 192.0, 0.0, 0.0, 0.0, 0.0, 0.0, 0.0, 0.0, 0.0, 0.0, 1.6527795975928853E9, 0.0, 2022-05-17 11:26:37.592
119.0, 14091.50082963715, 27518.283130917924, -30573.788949702855, -13494.128107324614, 3423.214366819187, -82.16501261770877, 9658.43464832719, 6470.51709538902, -0.032, 0.962, 0.37, 192.0, 0.0, 0.0, 0.0, 0.0, 0.0, 0.0, 0.0, 0.0, 0.0, 1.6527795975928915E9, 0.0, 2022-05-17 11:26:37.592
120.0, 14075.094649206954, 27476.977107164515, -30624.661520083133, -13547.459369594977, 3388.613866402372, -138.6255191118144, 9620.771958919997, 6412.290801082945, -0.032, 0.962, 0.37, 192.0, 0.0, 0.0, 0.0, 0.0, 0.0, 0.0, 0.0, 0.0, 0.0, 1.6527795975928988E9, 0.0, 2022-05-17 11:26:37.592
121.0, 14018.67884620176, 27426.730385628987, -30643.92872380361, -13570.63812859513, 3335.483769832107, -212.07335139195342, 9584.070394524384, 6332.271555932946, -0.032, 0.962, 0.37, 192.0, 0.0, 0.0, 0.0, 0.0, 0.0, 0.0, 0.0, 0.0, 0.0, 1.6527795975929043E9, 0.0, 2022-05-17 11:26:37.592
