%OpenBCI Raw EEG Data
%Number of channels = 8
%Sample Rate = 250 Hz
%Board = OpenBCI_GUI$BoardCytonSerial
Sample Index, EXG Channel 0, EXG Channel 1, EXG Channel 2, EXG Channel 3, EXG Channel 4, EXG Channel 5, EXG Channel 6, EXG Channel 7, Accel Channel 0, Accel Channel 1, Accel Channel 2, Other, Other, Other, Other, Other, Other, Other, Analog Channel 0, Analog Channel 1, Analog Channel 2, Timestamp, Other, Timestamp (Formatted)
0.0, 0.0, 0.0, 0.0, 0.0, 0.0, 0.0, 0.0, 0.0, 0.0, 0.0, 0.0, 192.0, 0.0, 0.0, 0.0, 0.0, 0.0, 0.0, 0.0, 0.0, 0.0, 1.653923606874245E9, 0.0, 2022-05-30 17:13:26.874
1.0, -5430.624536350315, -13475.509104193343, -59714.96519028726, -38128.76798257446, -24934.443823628884, -30579.935679428065, -18011.28155127544, -36426.570883580556, -0.02, 1.024, 0.064, 192.0, 255.0, 96.0, 32.0, 0.0, 2.0, 0.0, 0.0, 0.0, 0.0, 1.65392360689049E9, 0.0, 2022-05-30 17:13:26.890
2.0, -5378.723785725091, -13476.671394905019, -59814.89983974694, -38214.53162604948, -24458.753998131036, -30131.850258332524, -17757.432789496517, -36386.87418542793, -0.02, 1.024, 0.064, 192.0, 0.0, 0.0, 0.0, 0.0, 0.0, 0.0, 0.0, 0.0, 0.0, 1.6539236073693197E9, 0.0, 2022-05-30 17:13:27.369
3.0, -5427.942327015678, -13519.050302392281, -59821.44890087234, -38230.289605890466, -24713.13920177689, -30395.511435927325, -17958.911414016657, -36487.0100005877, -0.02, 1.024, 0.064, 192.0, 0.0, 0.0, 0.0, 0.0, 0.0, 0.0, 0.0, 0.0, 0.0, 1.653923607369511E9, 0.0, 2022-05-30 17:13:27.369
4.0, -5542.785590027045, -13547.481721339433, -59695.943855755795, -38120.74370631501, -25424.818745233864, -31110.09670616349, -18380.979404566217, -36587.0340570252, -0.02, 1.024, 0.064, 192.0, 0.0, 0.0, 0.0, 0.0, 0.0, 0.0, 0.0, 0.0, 0.0, 1.6539236073695235E9, 0.0, 2022-05-30 17:13:27.369
5.0, -5521.640839772325, -13501.593589972686, -59641.49500626267, -38060.10342360776, -25481.838045339355, -31086.67207797433, -18355.319601931526, -36529.50066679724, -0.02, 1.024, 0.064, 192.0, 0.0, 0.0, 0.0, 0.0, 0.0, 0.0, 0.0, 0.0, 0.0, 1.6539236073695304E9, 0.0, 2022-05-30 17:13:27.369
6.0, -5436.547748630971, -13480.784115884795, -59712.10416699698, -38122.73301157153, -24941.70814057686, -30582.640240507157, -18009.26989427446, -36424.40276436839, -0.02, 1.024, 0.064, 192.0, 0.0, 0.0, 0.0, 0.0, 0.0, 0.0, 0.0, 0.0, 0.0, 1.653923607369538E9, 0.0, 2022-05-30 17:13:27.369
7.0, -5381.405995059728, -13483.511028708343, -59814.27399090219, -38215.31393710541, -24462.620849921805, -30131.9620170548, -17749.788492892803, -36385.935412160805, -0.02, 1.024, 0.064, 192.0, 0.0, 0.0, 0.0, 0.0, 0.0, 0.0, 0.0, 0.0, 0.0, 1.6539236073695445E9, 0.0, 2022-05-30 17:13:27.369
8.0, -5439.386420176795, -13522.559526271765, -59811.52472633419, -38226.512161077524, -24706.70189937376, -30390.616403891614, -17949.21075692305, -36486.22768953177, -0.01, 1.026, 0.054, 192.0, 255.0, 176.0, 32.0, 16.0, 1.0, 176.0, 0.0, 0.0, 0.0, 1.6539236073695512E9, 0.0, 2022-05-30 17:13:27.369
9.0, -5552.709764565202, -13557.785875533329, -59684.00802421666, -38115.8933777682, -25409.26193109297, -31096.551549023578, -18366.406067181357, -36573.19832720737, -0.01, 1.026, 0.054, 192.0, 0.0, 0.0, 0.0, 0.0, 0.0, 0.0, 0.0, 0.0, 0.0, 1.6539236073695583E9, 0.0, 2022-05-30 17:13:27.369
10.0, -5531.944993966222, -13523.990037916905, -59640.13154985089, -38064.484365521, -25481.145141261237, -31086.15798785186, -18355.230194953703, -36518.99534690325, -0.01, 1.026, 0.054, 192.0, 0.0, 0.0, 0.0, 0.0, 0.0, 0.0, 0.0, 0.0, 0.0, 1.6539236073695655E9, 0.0, 2022-05-30 17:13:27.369
11.0, -5451.143437760286, -13498.553752726764, -59715.501632154184, -38132.32190994286, -24950.35826568106, -30603.136790172673, -18024.08910084833, -36448.74381408022, -0.01, 1.026, 0.054, 192.0, 0.0, 0.0, 0.0, 0.0, 0.0, 0.0, 0.0, 0.0, 0.0, 1.6539236073695726E9, 0.0, 2022-05-30 17:13:27.369
12.0, -5403.109538925832, -13501.392424272588, -59825.87454627449, -38228.43441110068, -24459.89393709826, -30148.189383529352, -17754.549414461784, -36414.07625843004, -0.01, 1.026, 0.054, 192.0, 0.0, 0.0, 0.0, 0.0, 0.0, 0.0, 0.0, 0.0, 0.0, 1.6539236073695805E9, 0.0, 2022-05-30 17:13:27.369
13.0, -5443.074458011921, -13533.288363610312, -59831.32837192159, -38239.63263507278, -24696.017765524124, -30387.800084090246, -17942.102902186263, -36491.79327390114, -0.01, 1.026, 0.054, 192.0, 0.0, 0.0, 0.0, 0.0, 0.0, 0.0, 0.0, 0.0, 0.0, 1.6539236073695958E9, 0.0, 2022-05-30 17:13:27.369
14.0, -5533.263746889084, -13568.06767798277, -59714.048768764595, -38134.445325666115, -25400.947082155595, -31093.2881943331, -18354.693753086776, -36568.37035040502, -0.01, 1.026, 0.054, 192.0, 0.0, 0.0, 0.0, 0.0, 0.0, 0.0, 0.0, 0.0, 0.0, 1.6539236073696032E9, 0.0, 2022-05-30 17:13:27.369
15.0, -5516.678752503247, -13529.443863564, -59659.24229136018, -38074.78851971489, -25482.240376739548, -31090.58363325401, -18347.138863460885, -36502.835035662065, -0.01, 1.026, 0.054, 192.0, 0.0, 0.0, 0.0, 0.0, 0.0, 0.0, 0.0, 0.0, 0.0, 1.6539236073696103E9, 0.0, 2022-05-30 17:13:27.369
16.0, -5441.174559733219, -13502.867639406639, -59723.39179794691, -38133.05951750988, -24954.426283171928, -30601.035726193873, -18016.22128680006, -36416.624357297944, -0.01, 1.026, 0.054, 192.0, 0.0, 0.0, 0.0, 0.0, 0.0, 0.0, 0.0, 0.0, 0.0, 1.6539236073696177E9, 0.0, 2022-05-30 17:13:27.369
17.0, -5398.527431312494, -13511.763633699851, -59827.12624396399, -38224.85813198783, -24468.856986624836, -30148.1670317849, -17758.483321485917, -36395.45725529877, -0.01, 1.026, 0.054, 192.0, 0.0, 0.0, 0.0, 0.0, 0.0, 0.0, 0.0, 0.0, 0.0, 1.6539236073696237E9, 0.0, 2022-05-30 17:13:27.369
18.0, -5451.724583116124, -13548.77812251784, -59833.60824985603, -38239.99026298407, -24693.8272945675, -30380.312249697716, -17942.21466090854, -36498.632907704465, -0.002, 1.026, 0.05, 192.0, 255.0, 240.0, 32.0, 16.0, 1.0, 144.0, 0.0, 0.0, 0.0, 1.653923607369629E9, 0.0, 2022-05-30 17:13:27.369
19.0, -5561.091668735942, -13582.059870011792, -59715.25576296518, -38139.183895490634, -25399.36010829927, -31094.09285713349, -18358.828825811008, -36589.49274891529, -0.002, 1.026, 0.05, 192.0, 0.0, 0.0, 0.0, 0.0, 0.0, 0.0, 0.0, 0.0, 0.0, 1.6539236073696344E9, 0.0, 2022-05-30 17:13:27.369
20.0, -5536.795322513023, -13536.708180511974, -59653.38613431289, -38072.151013869174, -25490.33170823237, -31095.277499589625, -18359.54408163358, -36515.39671604594, -0.002, 1.026, 0.05, 192.0, 0.0, 0.0, 0.0, 0.0, 0.0, 0.0, 0.0, 0.0, 0.0, 1.6539236073696396E9, 0.0, 2022-05-30 17:13:27.369
21.0, -5443.521492901027, -13506.510973752855, -59713.66878910885, -38128.20918896308, -24963.411684442963, -30601.5721680608, -18023.48560374804, -36417.85370324298, -0.002, 1.026, 0.05, 192.0, 0.0, 0.0, 0.0, 0.0, 0.0, 0.0, 0.0, 0.0, 0.0, 1.653923607369645E9, 0.0, 2022-05-30 17:13:27.369
22.0, -5393.386530087773, -13510.355473799167, -59819.34783689355, -38226.936844222175, -24465.347762745354, -30144.210773016308, -17754.862338884155, -36392.10449363047, -0.002, 1.026, 0.05, 192.0, 0.0, 0.0, 0.0, 0.0, 0.0, 0.0, 0.0, 0.0, 0.0, 1.6539236073696597E9, 0.0, 2022-05-30 17:13:27.369
23.0, -5445.644908624281, -13539.032761935327, -59819.54900259364, -38240.16907693972, -24683.45608514024, -30374.791368817256, -17939.42069285163, -36490.42981748936, -0.002, 1.026, 0.05, 192.0, 0.0, 0.0, 0.0, 0.0, 0.0, 0.0, 0.0, 0.0, 0.0, 1.653923607369665E9, 0.0, 2022-05-30 17:13:27.369
24.0, -5560.756392569112, -13570.906349528594, -59699.09545172399, -38136.43463092263, -25396.96847164255, -31090.67304023183, -18370.92111956133, -36587.414036680944, -0.002, 1.026, 0.05, 192.0, 0.0, 0.0, 0.0, 0.0, 0.0, 0.0, 0.0, 0.0, 0.0, 1.6539236073696702E9, 0.0, 2022-05-30 17:13:27.369
25.0, -5535.923604479266, -13531.544927542798, -59641.38324754039, -38071.70397898006, -25495.919644346195, -31103.212368871256, -18374.49739867418, -36523.376288816486, -0.002, 1.026, 0.05, 192.0, 0.0, 0.0, 0.0, 0.0, 0.0, 0.0, 0.0, 0.0, 0.0, 1.6539236073696756E9, 0.0, 2022-05-30 17:13:27.369
26.0, -5439.520530643526, -13502.711177195451, -59703.38698665941, -38124.63290985023, -24971.011277557765, -30611.094011198762, -18038.260106832997, -36432.717613305766, -0.002, 1.026, 0.05, 192.0, 0.0, 0.0, 0.0, 0.0, 0.0, 0.0, 0.0, 0.0, 0.0, 1.6539236073696823E9, 0.0, 2022-05-30 17:13:27.369
27.0, -5386.792765473458, -13502.442956261988, -59814.430453113375, -38219.78428599647, -24468.275841269, -30147.20590677332, -17759.913833131057, -36406.16374089286, -0.002, 1.026, 0.05, 192.0, 0.0, 0.0, 31.0, 240.0, 1.0, 128.0, 0.0, 0.0, 0.0, 1.6539236073696938E9, 0.0, 2022-05-30 17:13:27.369
28.0, -5436.078361997409, -13533.221308376946, -59823.77348229569, -38236.88337050479, -24675.387105391874, -30370.700999581935, -17934.816233493835, -36506.63483221946, -0.002, 1.026, 0.05, 192.0, 0.0, 0.0, 0.0, 0.0, 0.0, 0.0, 0.0, 0.0, 0.0, 1.653923607369702E9, 0.0, 2022-05-30 17:13:27.369
29.0, -5552.396840142827, -13571.889826284627, -59702.89524828139, -38132.277206453946, -25387.200759315583, -31085.889766918393, -18360.326392689516, -36583.4354261679, -0.002, 1.026, 0.05, 192.0, 0.0, 0.0, 0.0, 0.0, 0.0, 0.0, 0.0, 0.0, 0.0, 1.6539236073697095E9, 0.0, 2022-05-30 17:13:27.369
30.0, -5539.589290569937, -13536.931697956526, -59644.22191908621, -38068.19475510058, -25495.67377515719, -31106.565130539555, -18370.608195138957, -36518.66007073642, -0.002, 1.026, 0.05, 192.0, 0.0, 0.0, 0.0, 0.0, 0.0, 0.0, 0.0, 0.0, 0.0, 1.6539236073697171E9, 0.0, 2022-05-30 17:13:27.369
31.0, -5457.290167485496, -13516.85983143566, -59716.50746065468, -38133.84182856582, -24977.873263105546, -30624.415650894127, -18037.14251961023, -36433.45522087279, -0.002, 1.026, 0.05, 192.0, 0.0, 0.0, 0.0, 0.0, 0.0, 0.0, 0.0, 0.0, 0.0, 1.6539236073697248E9, 0.0, 2022-05-30 17:13:27.369
32.0, -5403.109538925832, -13524.526479783832, -59824.80166254064, -38230.647233801756, -24477.775332662506, -30162.896831380946, -17760.785551164812, -36404.15208389188, -0.002, 1.026, 0.05, 192.0, 0.0, 0.0, 0.0, 0.0, 0.0, 0.0, 0.0, 0.0, 0.0, 1.653923607369733E9, 0.0, 2022-05-30 17:13:27.369
33.0, -5439.207606221153, -13557.2494336664, -59831.5742411106, -38244.86294327533, -24675.029477480588, -30368.10819722512, -17929.45181482456, -36494.83311114706, -0.002, 1.026, 0.05, 192.0, 0.0, 0.0, 0.0, 0.0, 0.0, 0.0, 0.0, 0.0, 0.0, 1.6539236073697433E9, 0.0, 2022-05-30 17:13:27.369
34.0, -5538.851683002911, -13591.939341061037, -59705.68921633831, -38136.56874138937, -25387.245462804494, -31085.86741517394, -18359.320564189027, -36590.02919078222, -0.002, 1.026, 0.05, 192.0, 0.0, 0.0, 0.0, 0.0, 0.0, 0.0, 0.0, 0.0, 0.0, 1.653923607369753E9, 0.0, 2022-05-30 17:13:27.369
35.0, -5517.729284492646, -13560.043401723315, -59642.21026208524, -38072.709807480554, -25502.04402232695, -31115.282310877123, -18373.625680640424, -36530.50649529773, -0.002, 1.026, 0.05, 192.0, 0.0, 0.0, 0.0, 0.0, 0.0, 0.0, 0.0, 0.0, 0.0, 1.653923607369759E9, 0.0, 2022-05-30 17:13:27.369
36.0, -5430.64688809477, -13537.53519505682, -59705.15277447138, -38132.5007238985, -24978.879091606035, -30624.929741016596, -18035.935525409644, -36430.951825493794, -0.002, 1.026, 0.05, 192.0, 0.0, 0.0, 0.0, 0.0, 0.0, 0.0, 0.0, 0.0, 0.0, 1.6539236073697643E9, 0.0, 2022-05-30 17:13:27.369
37.0, -5378.343806069352, -13546.185320161025, -59812.30703739012, -38228.27794888949, -24469.259318025033, -30156.280715022174, -17756.04698134029, -36392.30565933057, 0.002, 1.024, 0.042, 192.0, 0.0, 16.0, 32.0, 0.0, 1.0, 80.0, 0.0, 0.0, 0.0, 1.65392360736977E9, 0.0, 2022-05-30 17:13:27.369
38.0, -5424.0754752249095, -13579.645881610619, -59821.560659594616, -38243.4771351191, -24663.004238963633, -30354.361874385104, -17923.372140332718, -36481.48911970724, 0.002, 1.024, 0.042, 192.0, 0.0, 0.0, 0.0, 0.0, 0.0, 0.0, 0.0, 0.0, 0.0, 1.6539236073697765E9, 0.0, 2022-05-30 17:13:27.369
39.0, -5533.397857355816, -13618.157937307113, -59704.392815159896, -38141.79904959191, -25374.683782420612, -31072.4340167563, -18345.44013088228, -36576.90871678695, 0.002, 1.024, 0.042, 192.0, 0.0, 0.0, 0.0, 0.0, 0.0, 0.0, 0.0, 0.0, 0.0, 1.653923607369782E9, 0.0, 2022-05-30 17:13:27.369
40.0, -5519.785644982534, -13586.664329369585, -59647.66408773233, -38079.147109883685, -25501.842856626852, -31112.756563753675, -18366.942509048284, -36523.53275102768, 0.002, 1.024, 0.042, 192.0, 0.0, 0.0, 0.0, 0.0, 0.0, 0.0, 0.0, 0.0, 0.0, 1.6539236073697877E9, 0.0, 2022-05-30 17:13:27.369
41.0, -5429.506949127549, -13562.367983146667, -59712.662960608366, -38136.63579662273, -24988.467989977362, -30634.20571496555, -18043.758635969, -36439.71370932028, 0.002, 1.024, 0.042, 192.0, 0.0, 0.0, 0.0, 0.0, 0.0, 0.0, 0.0, 0.0, 0.0, 1.6539236073697932E9, 0.0, 2022-05-30 17:13:27.369
42.0, -5367.659672219715, -13557.428247622043, -59811.65883680092, -38226.75803026653, -24480.88222514179, -30167.791863416656, -17770.776780936336, -36407.124865904436, 0.002, 1.024, 0.042, 192.0, 0.0, 0.0, 0.0, 0.0, 0.0, 0.0, 0.0, 0.0, 0.0, 1.6539236073697987E9, 0.0, 2022-05-30 17:13:27.369
43.0, -5412.229050663597, -13584.92089330207, -59824.48873811826, -38248.43922238818, -24653.460044081217, -30351.456147605917, -17919.192364119575, -36493.29084077964, 0.002, 1.024, 0.042, 192.0, 0.0, 0.0, 0.0, 0.0, 0.0, 0.0, 0.0, 0.0, 0.0, 1.6539236073698075E9, 0.0, 2022-05-30 17:13:27.369
44.0, -5521.685543261236, -13627.948001378538, -59705.46569889376, -38144.95064556011, -25367.6876864061, -31071.607002211455, -18346.736532060688, -36578.94272553238, 0.002, 1.024, 0.042, 192.0, 0.0, 0.0, 0.0, 0.0, 0.0, 0.0, 0.0, 0.0, 0.0, 1.6539236073698127E9, 0.0, 2022-05-30 17:13:27.369
45.0, -5499.736130206124, -13593.571018406275, -59637.494044005165, -38071.97219991353, -25506.76024040702, -31123.328938881034, -18379.86181734345, -36519.44238179235, 0.002, 1.024, 0.042, 192.0, 0.0, 0.0, 0.0, 0.0, 0.0, 0.0, 0.0, 0.0, 0.0, 1.653923607369818E9, 0.0, 2022-05-30 17:13:27.369
46.0, -5424.3660479028285, -13578.416535665578, -59701.26357093616, -38133.17127623216, -24994.592367958114, -30640.30774120185, -18047.826653459866, -36427.35319463649, 0.002, 1.024, 0.042, 192.0, 0.0, 0.0, 0.0, 0.0, 0.0, 0.0, 0.0, 0.0, 0.0, 1.6539236073698235E9, 0.0, 2022-05-30 17:13:27.369
47.0, -5371.9512071551335, -13586.485515413942, -59806.09325243154, -38230.46841984611, -24476.434227995185, -30168.887098894967, -17757.32103077424, -36393.04326689759, 0.002, 1.024, 0.042, 192.0, 0.0, 0.0, 32.0, 0.0, 1.0, 48.0, 0.0, 0.0, 0.0, 1.6539236073698287E9, 0.0, 2022-05-30 17:13:27.369
48.0, -5410.30680064044, -13617.040350084348, -59822.611191584016, -38257.67049284822, -24642.619448020396, -30343.76714751329, -17908.55293375885, -36483.79134938614, 0.002, 1.024, 0.042, 192.0, 0.0, 0.0, 0.0, 0.0, 0.0, 0.0, 0.0, 0.0, 0.0, 1.6539236073698342E9, 0.0, 2022-05-30 17:13:27.369
49.0, -5528.011086942088, -13659.79923722735, -59708.594943117496, -38156.461793954586, -25363.73142763751, -31074.177452823813, -18347.96587800573, -36589.157472748455, 0.002, 1.024, 0.042, 192.0, 0.0, 0.0, 0.0, 0.0, 0.0, 0.0, 0.0, 0.0, 0.0, 1.6539236073698397E9, 0.0, 2022-05-30 17:13:27.369
50.0, -5506.03932214252, -13620.996608852936, -59639.39394228387, -38079.974124428525, -25510.4706299866, -31132.895485507906, -18376.57611090852, -36527.60076851854, 0.002, 1.024, 0.042, 192.0, 0.0, 0.0, 0.0, 0.0, 0.0, 0.0, 0.0, 0.0, 0.0, 1.653923607369845E9, 0.0, 2022-05-30 17:13:27.369
51.0, -5414.0395419644765, -13588.92185555957, -59697.57553310103, -38126.756325573486, -25006.170571585964, -30653.852898341764, -18051.469987806082, -36429.94599699331, 0.002, 1.024, 0.042, 192.0, 0.0, 0.0, 0.0, 0.0, 0.0, 0.0, 0.0, 0.0, 0.0, 1.653923607369851E9, 0.0, 2022-05-30 17:13:27.369
52.0, -5359.8589134048125, -13595.627378896163, -59809.31190363311, -38225.05929768793, -24482.580957720395, -30170.11644484001, -17759.489149986406, -36391.67981048582, 0.002, 1.024, 0.042, 192.0, 0.0, 0.0, 0.0, 0.0, 0.0, 0.0, 0.0, 0.0, 0.0, 1.6539236073698585E9, 0.0, 2022-05-30 17:13:27.369
53.0, -5395.420538833206, -13616.83918438425, -59824.24286892926, -38247.00871074304, -24641.81478522, -30339.09563292213, -17909.35759655924, -36480.97502958477, 0.002, 1.024, 0.042, 192.0, 0.0, 0.0, 0.0, 0.0, 0.0, 0.0, 0.0, 0.0, 0.0, 1.6539236073698664E9, 0.0, 2022-05-30 17:13:27.369
54.0, -5504.1394238638195, -13652.378458068188, -59709.354902428975, -38146.87289558326, -25355.908317078152, -31064.76736840813, -18338.5781453345, -36585.38002793551, 0.002, 1.024, 0.042, 192.0, 0.0, 0.0, 0.0, 0.0, 0.0, 0.0, 0.0, 0.0, 0.0, 1.653923607369877E9, 0.0, 2022-05-30 17:13:27.369
55.0, -5490.951894635188, -13618.180289051568, -59637.40463702734, -38070.76520571294, -25510.649443942242, -31132.96254074127, -18377.291366731093, -36529.65712900843, 0.002, 1.024, 0.042, 192.0, 0.0, 0.0, 0.0, 0.0, 0.0, 0.0, 0.0, 0.0, 0.0, 1.6539236073698862E9, 0.0, 2022-05-30 17:13:27.369
56.0, -5406.26113489403, -13596.588503907742, -59701.598847102985, -38130.42201166416, -25009.456278020894, -30658.479709444015, -18053.638107018247, -36438.68552907533, 0.002, 1.024, 0.042, 192.0, 0.0, 0.0, 0.0, 0.0, 0.0, 0.0, 0.0, 0.0, 0.0, 1.6539236073698936E9, 0.0, 2022-05-30 17:13:27.369
57.0, -5353.242797046041, -13608.390224980143, -59817.49264210375, -38236.59279782687, -24492.639242725283, -30181.091151367564, -17769.9944698804, -36414.23272064122, 0.002, 1.024, 0.042, 192.0, 0.0, 0.0, 32.0, 0.0, 1.0, 112.0, 0.0, 0.0, 0.0, 1.6539236073699045E9, 0.0, 2022-05-30 17:13:27.369
58.0, -5391.620742275803, -13637.60395498323, -59834.1223399785, -38260.03977776048, -24643.222945120688, -30338.603894544114, -17913.78324196139, -36502.23153856177, 0.002, 1.024, 0.042, 192.0, 0.0, 0.0, 0.0, 0.0, 0.0, 0.0, 0.0, 0.0, 0.0, 1.65392360736991E9, 0.0, 2022-05-30 17:13:27.369
59.0, -5496.383368537828, -13677.144190924668, -59713.557030386575, -38157.91465734418, -25360.959811325054, -31068.34364752098, -18348.412912894837, -36595.12538851803, 0.002, 1.024, 0.042, 192.0, 0.0, 0.0, 0.0, 0.0, 0.0, 0.0, 0.0, 0.0, 0.0, 1.6539236073699155E9, 0.0, 2022-05-30 17:13:27.369
60.0, -5485.743938177102, -13642.878966674682, -59642.0761516185, -38082.32105759634, -25524.105194104337, -31142.886715279426, -18387.97550058073, -36534.52980929969, 0.002, 1.024, 0.042, 192.0, 0.0, 0.0, 0.0, 0.0, 0.0, 0.0, 0.0, 0.0, 0.0, 1.6539236073699207E9, 0.0, 2022-05-30 17:13:27.369
61.0, -5402.953076714644, -13612.257076770911, -59700.682425580315, -38135.2499884665, -25030.623380020068, -30672.9412881066, -18067.38442985826, -36452.49890714871, 0.002, 1.024, 0.042, 192.0, 0.0, 0.0, 0.0, 0.0, 0.0, 0.0, 0.0, 0.0, 0.0, 1.6539236073699262E9, 0.0, 2022-05-30 17:13:27.369
62.0, -5345.129113808765, -13611.966504092992, -59807.54611582114, -38231.16132392422, -24505.066812642435, -30185.941479914367, -17776.632937983624, -36408.868301971954, 0.002, 1.024, 0.042, 192.0, 0.0, 0.0, 0.0, 0.0, 0.0, 0.0, 0.0, 0.0, 0.0, 1.6539236073699317E9, 0.0, 2022-05-30 17:13:27.369
63.0, -5379.863724692313, -13639.593260239752, -59826.23217418578, -38255.65883584724, -24640.987770675158, -30322.1083071361, -17901.869762166712, -36471.296724235624, 0.002, 1.024, 0.042, 192.0, 0.0, 0.0, 0.0, 0.0, 0.0, 0.0, 0.0, 0.0, 0.0, 1.6539236073699367E9, 0.0, 2022-05-30 17:13:27.369
64.0, -5495.198726081697, -13682.41920261612, -59706.31506518306, -38150.89620958522, -25355.72950312251, -31051.53513569059, -18336.611191822434, -36574.91941153043, 0.002, 1.024, 0.042, 192.0, 0.0, 0.0, 0.0, 0.0, 0.0, 0.0, 0.0, 0.0, 0.0, 1.6539236073699453E9, 0.0, 2022-05-30 17:13:27.369
65.0, -5488.694368445203, -13648.109274877224, -59631.23555555768, -38069.289990578895, -25526.943865650162, -31138.30460766609, -18383.25928250066, -36526.95256792934, 0.002, 1.024, 0.042, 192.0, 0.0, 0.0, 0.0, 0.0, 0.0, 0.0, 0.0, 0.0, 0.0, 1.6539236073699503E9, 0.0, 2022-05-30 17:13:27.369
66.0, -5404.897678482256, -13620.348408263733, -59694.04395747709, -38125.839904050816, -25024.47665029486, -30662.25715425696, -18055.873281463777, -36438.97610175325, 0.002, 1.024, 0.042, 192.0, 0.0, 0.0, 0.0, 0.0, 0.0, 0.0, 0.0, 0.0, 0.0, 1.6539236073699555E9, 0.0, 2022-05-30 17:13:27.369
67.0, -5348.7053929216145, -13623.857632143216, -59805.757976264715, -38225.28281513248, -24496.930777660702, -30184.53332001368, -17765.56882447825, -36404.755580992176, 0.002, 1.024, 0.042, 192.0, 0.0, 0.0, 32.0, 0.0, 1.0, 128.0, 0.0, 0.0, 0.0, 1.6539236073699608E9, 0.0, 2022-05-30 17:13:27.369
68.0, -5386.412785817717, -13654.412466813621, -59825.38280789647, -38250.85321078935, -24625.78858444555, -30315.559246010693, -17895.946549886055, -36475.25298300421, 0.002, 1.024, 0.042, 192.0, 0.0, 0.0, 0.0, 0.0, 0.0, 0.0, 0.0, 0.0, 0.0, 1.653923607369966E9, 0.0, 2022-05-30 17:13:27.369
69.0, -5496.025740626543, -13693.371557399221, -59704.99631226019, -38149.64451189572, -25340.172688981616, -31042.66149314183, -18330.017427208117, -36578.741559832284, 0.002, 1.024, 0.042, 192.0, 0.0, 0.0, 0.0, 0.0, 0.0, 0.0, 0.0, 0.0, 0.0, 1.6539236073699715E9, 0.0, 2022-05-30 17:13:27.369
70.0, -5489.454327756683, -13663.979013440492, -59633.94011663677, -38076.621362760234, -25518.450202757147, -31137.58935184352, -18378.855988842963, -36532.71931799881, 0.002, 1.024, 0.042, 192.0, 0.0, 0.0, 0.0, 0.0, 0.0, 0.0, 0.0, 0.0, 0.0, 1.6539236073699768E9, 0.0, 2022-05-30 17:13:27.369
71.0, -5401.991951703067, -13636.866347416204, -59688.590131829995, -38124.56585461686, -25030.623380020068, -30670.05791307186, -18063.986964701053, -36444.76520356717, 0.002, 1.024, 0.042, 192.0, 0.0, 0.0, 0.0, 0.0, 0.0, 0.0, 0.0, 0.0, 0.0, 1.653923607369982E9, 0.0, 2022-05-30 17:13:27.369
72.0, -5348.7053929216145, -13643.70598121953, -59803.12047041899, -38225.84160874386, -24497.1319433608, -30181.40407578994, -17767.51342624586, -36404.08502865851, 0.002, 1.024, 0.042, 192.0, 0.0, 0.0, 0.0, 0.0, 0.0, 0.0, 0.0, 0.0, 0.0, 1.6539236073699875E9, 0.0, 2022-05-30 17:13:27.369
73.0, -5376.421556046195, -13671.690365277573, -59827.79679629765, -38254.20597245765, -24620.670034965282, -30308.026708129255, -17898.53935224287, -36479.56686968409, 0.002, 1.024, 0.042, 192.0, 0.0, 0.0, 0.0, 0.0, 0.0, 0.0, 0.0, 0.0, 0.0, 1.6539236073699927E9, 0.0, 2022-05-30 17:13:27.369
74.0, -5493.321179547451, -13711.677636108117, -59710.31602744055, -38155.36655847628, -25338.54101163638, -31042.057996041538, -18337.862889511933, -36591.05737102716, 0.002, 1.024, 0.042, 192.0, 0.0, 0.0, 0.0, 0.0, 0.0, 0.0, 0.0, 0.0, 0.0, 1.653923607369998E9, 0.0, 2022-05-30 17:13:27.369
75.0, -5496.562182493471, -13682.441554360576, -59642.65729697434, -38082.16459538515, -25538.18679311118, -31154.375511929455, -18399.151372808385, -36543.55991405963, 0.002, 1.024, 0.042, 192.0, 0.0, 0.0, 0.0, 0.0, 0.0, 0.0, 0.0, 0.0, 0.0, 1.653923607370004E9, 0.0, 2022-05-30 17:13:27.370
76.0, -5420.342733900873, -13652.378458068188, -59697.91080926786, -38129.59499711931, -25053.75743553131, -30690.710924948566, -18084.885845766767, -36455.78461358364, 0.002, 1.024, 0.042, 192.0, 0.0, 0.0, 0.0, 0.0, 0.0, 0.0, 0.0, 0.0, 0.0, 1.6539236073700094E9, 0.0, 2022-05-30 17:13:27.370
77.0, -5368.710204209114, -13658.27931860439, -59808.55194432163, -38225.953367466136, -24513.873399957825, -30195.46332305233, -17785.104249132186, -36410.902310717385, 0.002, 1.022, 0.052000000000000005, 192.0, 0.0, 16.0, 31.0, 240.0, 1.0, 160.0, 0.0, 0.0, 0.0, 1.653923607370015E9, 0.0, 2022-05-30 17:13:27.370
78.0, -5403.109538925832, -13689.728223053005, -59838.74915108075, -38262.40906267274, -24618.613674475393, -30306.953824395398, -17902.003872633442, -36491.145073311935, 0.002, 1.022, 0.052000000000000005, 192.0, 0.0, 0.0, 0.0, 0.0, 0.0, 0.0, 0.0, 0.0, 0.0, 1.6539236073700204E9, 0.0, 2022-05-30 17:13:27.370
79.0, -5503.647685485803, -13719.657208878662, -59711.5453733856, -38152.907866586196, -25338.697473847566, -31043.466155942224, -18346.691828571777, -36599.305164731166, 0.002, 1.022, 0.052000000000000005, 192.0, 0.0, 0.0, 0.0, 0.0, 0.0, 0.0, 0.0, 0.0, 0.0, 1.6539236073700256E9, 0.0, 2022-05-30 17:13:27.370
80.0, -5499.669074972758, -13694.958531255548, -59641.897337662864, -38078.81183371685, -25536.644522743765, -31155.15782298539, -18406.25922754517, -36553.70760604234, 0.002, 1.022, 0.052000000000000005, 192.0, 0.0, 0.0, 0.0, 0.0, 0.0, 0.0, 0.0, 0.0, 0.0, 1.653923607370031E9, 0.0, 2022-05-30 17:13:27.370
81.0, -5417.302896654952, -13669.209321643035, -59703.18582095931, -38132.32190994286, -25056.551403588226, -30698.6457942302, -18093.75948831552, -36473.330732981056, 0.002, 1.022, 0.052000000000000005, 192.0, 0.0, 0.0, 0.0, 0.0, 0.0, 0.0, 0.0, 0.0, 0.0, 1.6539236073700364E9, 0.0, 2022-05-30 17:13:27.370
82.0, -5351.365250511796, -13670.3269088658, -59814.74337753575, -38234.4246786147, -24518.366100593343, -30208.181465647398, -17792.703842246992, -36428.62724407044, 0.002, 1.022, 0.052000000000000005, 192.0, 0.0, 0.0, 0.0, 0.0, 0.0, 0.0, 0.0, 0.0, 0.0, 1.6539236073700416E9, 0.0, 2022-05-30 17:13:27.370
83.0, -5377.248570591041, -13696.344339411777, -59836.402217912946, -38263.90662955125, -24619.843020420438, -30308.965481396375, -17898.382890031684, -36499.99636411624, 0.002, 1.022, 0.052000000000000005, 192.0, 0.0, 0.0, 0.0, 0.0, 0.0, 0.0, 0.0, 0.0, 0.0, 1.6539236073700469E9, 0.0, 2022-05-30 17:13:27.370
84.0, -5497.724473205147, -13744.28883126841, -59720.329608956534, -38165.31308475889, -25337.44577615807, -31040.918057074316, -18335.67241855531, -36609.96694683635, 0.002, 1.022, 0.052000000000000005, 192.0, 0.0, 0.0, 0.0, 0.0, 0.0, 0.0, 0.0, 0.0, 0.0, 1.653923607370052E9, 0.0, 2022-05-30 17:13:27.370
85.0, -5502.03835988502, -13713.2869617089, -59639.28218356159, -38079.571793028335, -25552.00017118456, -31166.490157424232, -18410.5954659695, -36555.07106245412, 0.002, 1.022, 0.052000000000000005, 192.0, 0.0, 0.0, 0.0, 0.0, 0.0, 0.0, 0.0, 0.0, 0.0, 1.6539236073700576E9, 0.0, 2022-05-30 17:13:27.370
86.0, -5417.54876584396, -13684.073231705814, -59694.82626853303, -38128.05272675189, -25067.86138628261, -30698.17640759664, -18087.7692208015, -36453.39297692692, 0.002, 1.022, 0.052000000000000005, 192.0, 0.0, 0.0, 0.0, 0.0, 0.0, 0.0, 0.0, 0.0, 0.0, 1.6539236073700647E9, 0.0, 2022-05-30 17:13:27.370
87.0, -5357.53433198146, -13685.973129984515, -59802.204048896325, -38224.09817267635, -24525.697472774682, -30200.35835508804, -17782.95848166448, -36409.18122639433, 0.002, 1.022, 0.048, 192.0, 0.0, 16.0, 31.0, 240.0, 1.0, 128.0, 0.0, 0.0, 0.0, 1.6539236073700702E9, 0.0, 2022-05-30 17:13:27.370
88.0, -5385.071681150399, -13714.00221753147, -59829.383770153974, -38255.748242825066, -24615.506781996108, -30292.76046666628, -17889.978634116487, -36486.540613954145, 0.002, 1.022, 0.048, 192.0, 0.0, 0.0, 0.0, 0.0, 0.0, 0.0, 0.0, 0.0, 0.0, 1.6539236073700755E9, 0.0, 2022-05-30 17:13:27.370
89.0, -5506.173432609253, -13758.035154108424, -59713.51232689767, -38157.89230559973, -25322.850087028753, -31021.360280675923, -18324.094214927463, -36593.3372489616, 0.002, 1.022, 0.048, 192.0, 0.0, 0.0, 0.0, 0.0, 0.0, 0.0, 0.0, 0.0, 0.0, 1.6539236073700807E9, 0.0, 2022-05-30 17:13:27.370
90.0, -5515.561165280481, -13724.418130447642, -59629.447416001254, -38068.373569056224, -25540.936057679184, -31157.683570108842, -18399.419593741848, -36547.69498678386, 0.002, 1.022, 0.048, 192.0, 0.0, 0.0, 0.0, 0.0, 0.0, 0.0, 0.0, 0.0, 0.0, 1.653923607370086E9, 0.0, 2022-05-30 17:13:27.370
91.0, -5428.7693415605245, -13693.639778332685, -59683.40452711636, -38113.21116843357, -25062.58637459116, -30693.571948238845, -18080.124924197786, -36446.28512219014, 0.002, 1.022, 0.048, 192.0, 0.0, 0.0, 0.0, 0.0, 0.0, 0.0, 0.0, 0.0, 0.0, 1.653923607370092E9, 0.0, 2022-05-30 17:13:27.370
92.0, -5371.884151921768, -13704.815650560338, -59802.74049076325, -38219.381954596276, -24520.51186806105, -30201.140666143976, -17778.488132773415, -36409.18122639433, 0.002, 1.022, 0.048, 192.0, 0.0, 0.0, 0.0, 0.0, 0.0, 0.0, 0.0, 0.0, 0.0, 1.6539236073700972E9, 0.0, 2022-05-30 17:13:27.370
93.0, -5397.521602812005, -13729.827252605826, -59828.489700375765, -38246.33815840938, -24606.96841561418, -30288.04424858621, -17886.089430581265, -36489.37928549997, 0.002, 1.022, 0.048, 192.0, 0.0, 0.0, 0.0, 0.0, 0.0, 0.0, 0.0, 0.0, 0.0, 1.653923607370103E9, 0.0, 2022-05-30 17:13:27.370
94.0, -5501.814842440467, -13768.115790857768, -59711.76889083015, -38147.63285489474, -25321.48663061698, -31015.772344562098, -18325.882354483885, -36597.80759785266, 0.002, 1.022, 0.048, 192.0, 0.0, 0.0, 0.0, 0.0, 0.0, 0.0, 0.0, 0.0, 0.0, 1.653923607370108E9, 0.0, 2022-05-30 17:13:27.370
95.0, -5500.049054628498, -13749.809712148872, -59639.863328917425, -38074.34148482579, -25546.166365881727, -31157.482404408744, -18401.095974575994, -36549.304312384644, 0.002, 1.022, 0.048, 192.0, 0.0, 0.0, 0.0, 0.0, 0.0, 0.0, 0.0, 0.0, 0.0, 1.6539236073701155E9, 0.0, 2022-05-30 17:13:27.370
96.0, -5416.341771643373, -13718.964304800547, -59694.44628887729, -38122.57654936035, -25081.093619000152, -30710.849846702797, -18093.893598782255, -36461.104328764006, 0.002, 1.022, 0.048, 192.0, 0.0, 0.0, 0.0, 0.0, 0.0, 0.0, 0.0, 0.0, 0.0, 1.6539236073701212E9, 0.0, 2022-05-30 17:13:27.370
97.0, -5350.314718522396, -13710.76121458545, -59795.87850521547, -38211.625899270286, -24538.885002003313, -30219.245579152775, -17796.1013074042, -36417.54077882061, 0.004, 1.024, 0.05, 192.0, 0.0, 32.0, 32.0, 0.0, 1.0, 144.0, 0.0, 0.0, 0.0, 1.6539236073701265E9, 0.0, 2022-05-30 17:13:27.370
98.0, -5377.53914326896, -13739.013819576958, -59828.8696800315, -38250.02619624451, -24602.72158416767, -30286.881957874535, -17885.083602080776, -36489.267526777694, 0.004, 1.024, 0.05, 192.0, 0.0, 0.0, 0.0, 0.0, 0.0, 0.0, 0.0, 0.0, 0.0, 1.653923607370132E9, 0.0, 2022-05-30 17:13:27.370
99.0, -5499.020874383554, -13784.92430268816, -59714.898135053896, -38155.79124162093, -25318.24562767096, -31021.449687653745, -18328.63161905189, -36604.401362466975, 0.004, 1.024, 0.05, 192.0, 0.0, 0.0, 0.0, 0.0, 0.0, 0.0, 0.0, 0.0, 0.0, 1.6539236073701377E9, 0.0, 2022-05-30 17:13:27.370
100.0, -5505.771101209057, -13758.973927375548, -59634.54361373706, -38075.637886004195, -25556.49287182008, -31177.062532551594, -18418.776204440142, -36562.46948986882, 0.004, 1.024, 0.05, 192.0, 0.0, 0.0, 0.0, 0.0, 0.0, 0.0, 0.0, 0.0, 0.0, 1.6539236073701432E9, 0.0, 2022-05-30 17:13:27.370
101.0, -5419.158091444742, -13733.023552062936, -59694.84862027748, -38129.88556979723, -25086.458037669425, -30719.499971807003, -18101.739061086068, -36461.707825864294, 0.004, 1.024, 0.05, 192.0, 0.0, 0.0, 0.0, 0.0, 0.0, 0.0, 0.0, 0.0, 0.0, 1.6539236073701484E9, 0.0, 2022-05-30 17:13:27.370
102.0, -5355.857951147313, -13732.95649682957, -59802.40521459642, -38226.28864363297, -24541.500156104586, -30224.542942588683, -17799.0517376723, -36420.02182245515, 0.004, 1.024, 0.05, 192.0, 0.0, 0.0, 0.0, 0.0, 0.0, 0.0, 0.0, 0.0, 0.0, 1.653923607370154E9, 0.0, 2022-05-30 17:13:27.370
103.0, -5385.384605572773, -13760.471494254052, -59837.51980513571, -38265.42654817421, -24601.983976600644, -30283.193920039408, -17886.469410237005, -36494.96722161379, 0.004, 1.024, 0.05, 192.0, 0.0, 0.0, 0.0, 0.0, 0.0, 0.0, 0.0, 0.0, 0.0, 1.6539236073701591E9, 0.0, 2022-05-30 17:13:27.370
104.0, -5494.975208637144, -13800.324654617865, -59722.60948689097, -38166.318913259376, -25316.524543347903, -31011.056126482028, -18330.263296397126, -36605.809522367665, 0.004, 1.024, 0.05, 192.0, 0.0, 0.0, 0.0, 0.0, 0.0, 0.0, 0.0, 0.0, 0.0, 1.6539236073701646E9, 0.0, 2022-05-30 17:13:27.370
105.0, -5496.383368537828, -13773.144933360212, -59641.71852370722, -38080.01882791744, -25565.902956235765, -31170.491119681734, -18426.26403883267, -36560.39077763448, 0.004, 1.024, 0.05, 192.0, 0.0, 0.0, 0.0, 0.0, 0.0, 0.0, 0.0, 0.0, 0.0, 1.65392360737017E9, 0.0, 2022-05-30 17:13:27.370
106.0, -5408.362198872829, -13733.71645614105, -59680.588207315, -38114.03818297842, -25099.57851166469, -30718.203570628593, -18114.7254246146, -36461.64077063093, 0.004, 1.024, 0.05, 192.0, 0.0, 0.0, 0.0, 0.0, 0.0, 0.0, 0.0, 0.0, 0.0, 1.6539236073701751E9, 0.0, 2022-05-30 17:13:27.370
107.0, -5358.137829081754, -13746.009915591469, -59798.560714550105, -38219.78428599647, -24542.081301460425, -30215.445782595372, -17795.94484519301, -36418.39014510991, 0.002, 1.026, 0.048, 192.0, 0.0, 16.0, 32.0, 16.0, 1.0, 128.0, 0.0, 0.0, 0.0, 1.6539236073701828E9, 0.0, 2022-05-30 17:13:27.370
108.0, -5385.474012550594, -13778.665814240672, -59835.977534768295, -38259.72685333811, -24591.34454623992, -30264.843137841603, -17873.974785086488, -36482.94198309684, 0.002, 1.026, 0.048, 192.0, 0.0, 0.0, 0.0, 0.0, 0.0, 0.0, 0.0, 0.0, 0.0, 1.6539236073701885E9, 0.0, 2022-05-30 17:13:27.370
109.0, -5494.237601070118, -13816.194393181133, -59714.56285888706, -38156.9088288437, -25301.19124665156, -30996.371030374892, -18316.561677046022, -36595.170092006934, 0.002, 1.026, 0.048, 192.0, 0.0, 0.0, 0.0, 0.0, 0.0, 0.0, 0.0, 0.0, 0.0, 1.653923607370194E9, 0.0, 2022-05-30 17:13:27.370
110.0, -5507.179261109742, -13796.994244694024, -59638.29870680556, -38079.281220350415, -25556.179947397704, -31171.206375504302, -18412.36125378147, -36556.43451886589, 0.002, 1.026, 0.048, 192.0, 0.0, 0.0, 0.0, 0.0, 0.0, 0.0, 0.0, 0.0, 0.0, 1.6539236073701992E9, 0.0, 2022-05-30 17:13:27.370
111.0, -5424.0754752249095, -13766.350003045798, -59689.2383324192, -38121.861293537775, -25103.557122177735, -30731.32404462386, -18113.652540880747, -36465.88760207744, 0.002, 1.026, 0.048, 192.0, 0.0, 0.0, 0.0, 0.0, 0.0, 0.0, 0.0, 0.0, 0.0, 1.6539236073702047E9, 0.0, 2022-05-30 17:13:27.370
112.0, -5362.474067506083, -13763.53368324443, -59796.59376103804, -38216.36446909481, -24544.584696839418, -30225.74993678927, -17799.454069072493, -36422.32405213405, 0.002, 1.026, 0.048, 192.0, 0.0, 0.0, 0.0, 0.0, 0.0, 0.0, 0.0, 0.0, 0.0, 1.65392360737021E9, 0.0, 2022-05-30 17:13:27.370
113.0, -5383.618817760804, -13784.700785243605, -59828.065017231114, -38249.33329216639, -24587.455342704696, -30264.530213419228, -17875.69586940955, -36490.809797145106, 0.002, 1.026, 0.048, 192.0, 0.0, 0.0, 0.0, 0.0, 0.0, 0.0, 0.0, 0.0, 0.0, 1.6539236073702157E9, 0.0, 2022-05-30 17:13:27.370
114.0, -5492.002426624587, -13825.626829341272, -59721.20132699029, -38157.109994543796, -25293.904577959132, -30987.631498292867, -18309.789098476067, -36603.708458388865, 0.002, 1.026, 0.048, 192.0, 0.0, 0.0, 0.0, 0.0, 0.0, 0.0, 0.0, 0.0, 0.0, 1.653923607370221E9, 0.0, 2022-05-30 17:13:27.370
115.0, -5507.939220421222, -13806.203163409611, -59641.338544051476, -38073.693284236586, -25562.72900852311, -31171.318134226578, -18414.194096826806, -36558.7814520337, 0.002, 1.026, 0.048, 192.0, 0.0, 0.0, 0.0, 0.0, 0.0, 0.0, 0.0, 0.0, 0.0, 1.6539236073702264E9, 0.0, 2022-05-30 17:13:27.370
116.0, -5432.591489862381, -13783.024404409458, -59690.73589929771, -38116.474523124045, -25115.64941592806, -30733.55921906939, -18114.948942059153, -36463.25009623171, 0.002, 1.028, 0.044, 192.0, 0.0, 16.0, 32.0, 32.0, 1.0, 96.0, 0.0, 0.0, 0.0, 1.6539236073702316E9, 0.0, 2022-05-30 17:13:27.370
117.0, -5369.87249492079, -13791.786288235939, -59801.37703435148, -38215.78332373897, -24558.599240612893, -30228.722718801826, -17796.19071438202, -36413.80803749657, 0.002, 1.028, 0.044, 192.0, 0.0, 0.0, 0.0, 0.0, 0.0, 0.0, 0.0, 0.0, 0.0, 1.653923607370237E9, 0.0, 2022-05-30 17:13:27.370
118.0, -5381.54010552646, -13817.468442615085, -59832.84829054455, -38250.964969511624, -24587.611804915883, -30254.449576669882, -17861.25664249142, -36474.11304403699, 0.002, 1.028, 0.044, 192.0, 0.0, 0.0, 0.0, 0.0, 0.0, 0.0, 0.0, 0.0, 0.0, 1.6539236073702424E9, 0.0, 2022-05-30 17:13:27.370
119.0, -5494.818746425956, -13862.462504203619, -59726.16341425937, -38164.3072562584, -25290.127133146183, -30982.22237613468, -18301.027214649584, -36595.527719918224, 0.002, 1.028, 0.044, 192.0, 0.0, 0.0, 0.0, 0.0, 0.0, 0.0, 0.0, 0.0, 0.0, 1.653923607370248E9, 0.0, 2022-05-30 17:13:27.370
120.0, -5509.23562159963, -13835.394541668242, -59637.494044005165, -38075.77199647093, -25571.200319671672, -31184.528015199667, -18421.681931219333, -36564.481146869795, 0.002, 1.028, 0.044, 192.0, 0.0, 0.0, 0.0, 0.0, 0.0, 0.0, 0.0, 0.0, 0.0, 1.653923607370253E9, 0.0, 2022-05-30 17:13:27.370
121.0, -5430.155149716753, -13803.409195352699, -59682.21988466023, -38115.20047369009, -25123.20430555395, -30741.516440095478, -18121.6768171402, -36464.367683454475, 0.002, 1.028, 0.044, 192.0, 0.0, 0.0, 0.0, 0.0, 0.0, 0.0, 0.0, 0.0, 0.0, 1.6539236073702583E9, 0.0, 2022-05-30 17:13:27.370
122.0, -5369.090183864854, -13804.124451175268, -59790.78230747966, -38214.03988767146, -24557.57106036795, -30232.65662582596, -17796.70480450449, -36413.65157528539, 0.002, 1.028, 0.044, 192.0, 0.0, 0.0, 0.0, 0.0, 0.0, 0.0, 0.0, 0.0, 0.0, 1.653923607849824E9, 0.0, 2022-05-30 17:13:27.849
123.0, -5382.724747982592, -13815.434433869654, -59820.97951423878, -38247.09811772086, -24579.229900745144, -30256.32712320413, -17859.043819790342, -36479.72333189527, 0.002, 1.028, 0.044, 192.0, 0.0, 0.0, 0.0, 0.0, 0.0, 0.0, 0.0, 0.0, 0.0, 1.6539236078500404E9, 0.0, 2022-05-30 17:13:27.850
124.0, -5497.724473205147, -13860.249681502544, -59717.42388217734, -38162.29559925742, -25281.320545830793, -30980.143663900337, -18297.38388030337, -36591.86203382755, 0.002, 1.028, 0.044, 192.0, 0.0, 0.0, 0.0, 0.0, 0.0, 0.0, 0.0, 0.0, 0.0, 1.65392360785008E9, 0.0, 2022-05-30 17:13:27.850
125.0, -5509.0121041550765, -13832.622925355785, -59635.16946258181, -38075.28025809291, -25567.132302180806, -31181.84580586503, -18417.70332070629, -36558.42382412241, 0.002, 1.028, 0.044, 192.0, 0.0, 0.0, 0.0, 0.0, 0.0, 0.0, 0.0, 0.0, 0.0, 1.6539236078500857E9, 0.0, 2022-05-30 17:13:27.850
126.0, -5421.616783334825, -13790.82516322436, -59678.464791591745, -38109.88075850973, -25126.244142799875, -30742.723434296066, -18115.619494392813, -36462.60189564251, 0.004, 1.024, 0.042, 192.0, 0.0, 32.0, 32.0, 0.0, 1.0, 80.0, 0.0, 0.0, 0.0, 1.6539236078500917E9, 0.0, 2022-05-30 17:13:27.850
127.0, -5362.094087850343, -13793.105041158802, -59793.598627281026, -38212.56467253741, -24559.00157201309, -30233.93067525991, -17790.80394396829, -36418.61366255447, 0.004, 1.024, 0.042, 192.0, 0.0, 0.0, 0.0, 0.0, 0.0, 0.0, 0.0, 0.0, 0.0, 1.653923607850098E9, 0.0, 2022-05-30 17:13:27.850
128.0, -5371.995910644044, -13805.711425031594, -59830.434302143374, -38252.015501501024, -24571.13856925232, -30247.766405077746, -17846.035104517356, -36474.448320203825, 0.004, 1.024, 0.042, 192.0, 0.0, 0.0, 0.0, 0.0, 0.0, 0.0, 0.0, 0.0, 0.0, 1.653923607850112E9, 0.0, 2022-05-30 17:13:27.850
129.0, -5484.648702698792, -13848.045629029946, -59719.413187433864, -38161.33447424584, -25273.452731782527, -30969.772454473074, -18284.777496430575, -36588.30810645915, 0.004, 1.024, 0.042, 192.0, 0.0, 0.0, 0.0, 0.0, 0.0, 0.0, 0.0, 0.0, 0.0, 1.653923607850118E9, 0.0, 2022-05-30 17:13:27.850
130.0, -5501.077234873443, -13823.391654895742, -59628.66510494532, -38068.12769986722, -25564.360685868345, -31178.31423024109, -18408.717919435254, -36555.58515257658, 0.004, 1.024, 0.042, 192.0, 0.0, 0.0, 0.0, 0.0, 0.0, 0.0, 0.0, 0.0, 0.0, 1.6539236078501232E9, 0.0, 2022-05-30 17:13:27.850
131.0, -5411.73731228558, -13786.44422131112, -59668.16063739784, -38097.49789208149, -25127.428785256005, -30744.310408152392, -18118.838145594378, -36459.85263107451, 0.004, 1.024, 0.042, 192.0, 0.0, 0.0, 0.0, 0.0, 0.0, 0.0, 0.0, 0.0, 0.0, 1.6539236078501294E9, 0.0, 2022-05-30 17:13:27.850
132.0, -5346.313756264896, -13783.694956743117, -59776.544246261634, -38195.689105473655, -24559.225089457643, -30229.326215902118, -17798.33648184973, -36407.95188044928, 0.004, 1.024, 0.042, 192.0, 0.0, 0.0, 0.0, 0.0, 0.0, 0.0, 0.0, 0.0, 0.0, 1.6539236078501348E9, 0.0, 2022-05-30 17:13:27.850
133.0, -5373.1805531001755, -13802.626884296762, -59817.2691246592, -38239.11854495032, -24560.789711569516, -30226.152268189464, -17850.930136553066, -36471.31907598008, 0.004, 1.024, 0.042, 192.0, 0.0, 0.0, 0.0, 0.0, 0.0, 0.0, 0.0, 0.0, 0.0, 1.65392360785014E9, 0.0, 2022-05-30 17:13:27.850
134.0, -5497.076272615943, -13858.88622509077, -59713.22175421975, -38155.36655847628, -25259.505243242413, -30949.36531178538, -18289.583121488467, -36593.5384146617, 0.004, 1.024, 0.042, 192.0, 0.0, 0.0, 0.0, 0.0, 0.0, 0.0, 0.0, 0.0, 0.0, 1.6539236078501456E9, 0.0, 2022-05-30 17:13:27.850
135.0, -5515.628220513848, -13841.161291737712, -59628.24042180067, -38067.50185102247, -25566.01471495804, -31177.330753485057, -18419.55851549608, -36565.822251537116, 0.004, 1.024, 0.042, 192.0, 0.0, 0.0, 0.0, 0.0, 0.0, 0.0, 0.0, 0.0, 0.0, 1.6539236078501513E9, 0.0, 2022-05-30 17:13:27.850
136.0, -5431.987992762089, -13811.500526845519, -59673.25683513366, -38106.30447939688, -25140.370445295626, -30752.33468441185, -18127.24240150957, -36474.78359637065, -0.006, 1.024, 0.048, 192.0, 255.0, 208.0, 32.0, 0.0, 1.0, 128.0, 0.0, 0.0, 0.0, 1.6539236078501563E9, 0.0, 2022-05-30 17:13:27.850
137.0, -5372.018262388499, -13820.374169394276, -59784.63557775445, -38208.16137887971, -24567.472883161652, -30238.89276252899, -17800.1022696617, -36422.79343876761, -0.006, 1.024, 0.048, 192.0, 0.0, 0.0, 0.0, 0.0, 0.0, 0.0, 0.0, 0.0, 0.0, 1.653923607850162E9, 0.0, 2022-05-30 17:13:27.850
138.0, -5391.598390531349, -13848.537367407962, -59834.144691722955, -38257.268161448024, -24558.3980749128, -30232.70132931487, -17846.459787662006, -36486.5629656986, -0.006, 1.024, 0.048, 192.0, 0.0, 0.0, 0.0, 0.0, 0.0, 0.0, 0.0, 0.0, 0.0, 1.653923607850168E9, 0.0, 2022-05-30 17:13:27.850
139.0, -5503.357112807884, -13894.246684819065, -59727.258649737676, -38167.727073160066, -25256.398350763127, -30955.646151977322, -18289.784287188566, -36606.368315979045, -0.006, 1.024, 0.048, 192.0, 0.0, 0.0, 0.0, 0.0, 0.0, 0.0, 0.0, 0.0, 0.0, 1.6539236078501747E9, 0.0, 2022-05-30 17:13:27.850
140.0, -5522.177281639252, -13875.31475726542, -59638.76809343912, -38077.180156371614, -25565.72414228012, -31182.65046866542, -18420.60904748548, -36575.813481308636, -0.006, 1.024, 0.048, 192.0, 0.0, 0.0, 0.0, 0.0, 0.0, 0.0, 0.0, 0.0, 0.0, 1.6539236078501801E9, 0.0, 2022-05-30 17:13:27.850
141.0, -5441.353373688862, -13848.69382961915, -59682.19753291578, -38114.306403911876, -25143.454986030458, -30759.375483915268, -18131.645695167266, -36469.64269514593, -0.006, 1.024, 0.048, 192.0, 0.0, 0.0, 0.0, 0.0, 0.0, 0.0, 0.0, 0.0, 0.0, 1.6539236078501856E9, 0.0, 2022-05-30 17:13:27.850
142.0, -5374.342843811852, -13849.051457530435, -59787.362490578, -38208.3178410909, -24573.418447186763, -30247.40877716646, -17808.23830464343, -36419.977118966235, -0.006, 1.024, 0.048, 192.0, 0.0, 0.0, 0.0, 0.0, 0.0, 0.0, 0.0, 0.0, 0.0, 1.6539236078501923E9, 0.0, 2022-05-30 17:13:27.850
143.0, -5391.106652153332, -13870.017393829512, -59828.065017231114, -38250.89791427826, -24552.00547599858, -30225.571122833626, -17845.8115870728, -36479.209241772805, -0.006, 1.024, 0.048, 192.0, 0.0, 0.0, 0.0, 0.0, 0.0, 0.0, 0.0, 0.0, 0.0, 1.653923607850202E9, 0.0, 2022-05-30 17:13:27.850
144.0, -5506.575764009448, -13916.79959497447, -59724.732902614225, -38167.145927804224, -25240.439205222036, -30939.88817213633, -18275.05448759252, -36591.45970242735, -0.006, 1.024, 0.048, 192.0, 0.0, 0.0, 0.0, 0.0, 0.0, 0.0, 0.0, 0.0, 0.0, 1.653923607850212E9, 0.0, 2022-05-30 17:13:27.850
145.0, -5527.631107286347, -13899.544048254973, -59636.68938120477, -38078.43185406111, -25559.242136388082, -31180.41529421989, -18415.870477660952, -36563.69883581386, -0.006, 1.024, 0.048, 192.0, 0.0, 0.0, 0.0, 0.0, 0.0, 0.0, 0.0, 0.0, 0.0, 1.653923607850224E9, 0.0, 2022-05-30 17:13:27.850
146.0, -5445.756667346557, -13869.972690340603, -59675.62612004592, -38110.93129049913, -25146.87480293212, -30762.862356050297, -18135.758416147044, -36471.05085504662, -0.004, 1.022, 0.05, 192.0, 255.0, 224.0, 31.0, 240.0, 1.0, 144.0, 0.0, 0.0, 0.0, 1.6539236078502321E9, 0.0, 2022-05-30 17:13:27.850
147.0, -5388.044463162954, -13874.867722376315, -59788.435374311855, -38214.26340511601, -24582.44855194671, -30255.008370281266, -17815.48026984695, -36428.35902313698, -0.004, 1.022, 0.05, 192.0, 0.0, 0.0, 0.0, 0.0, 0.0, 0.0, 0.0, 0.0, 0.0, 1.653923607850238E9, 0.0, 2022-05-30 17:13:27.850
148.0, -5401.500213325049, -13895.721899953116, -59837.45274990234, -38265.06892026293, -24553.592449854907, -30223.9841489773, -17842.77174982688, -36484.88658486445, -0.004, 1.022, 0.05, 192.0, 0.0, 0.0, 0.0, 0.0, 0.0, 0.0, 0.0, 0.0, 0.0, 1.6539236078502436E9, 0.0, 2022-05-30 17:13:27.850
149.0, -5512.655438501291, -13940.693609797194, -59738.27805975414, -38184.423826268176, -25243.18846979004, -30942.41391925978, -18275.210949803706, -36603.641403155496, -0.004, 1.022, 0.05, 192.0, 0.0, 0.0, 0.0, 0.0, 0.0, 0.0, 0.0, 0.0, 0.0, 1.6539236078502488E9, 0.0, 2022-05-30 17:13:27.850
150.0, -5531.967345710676, -13921.761682243548, -59643.26079407463, -38088.17721464363, -25579.58222384241, -31205.404544520923, -18433.30483833609, -36576.59579236458, -0.004, 1.022, 0.05, 192.0, 0.0, 0.0, 0.0, 0.0, 0.0, 0.0, 0.0, 0.0, 0.0, 1.653923607850257E9, 0.0, 2022-05-30 17:13:27.850
151.0, -5450.517588915538, -13891.542123739973, -59684.81268701705, -38124.163523216674, -25164.75619849637, -30783.917699327198, -18151.851672154866, -36474.73889288174, -0.004, 1.022, 0.05, 192.0, 0.0, 0.0, 0.0, 0.0, 0.0, 0.0, 0.0, 0.0, 0.0, 1.6539236078502624E9, 0.0, 2022-05-30 17:13:27.850
152.0, -5379.774317714491, -13886.781202170992, -59788.81535396759, -38216.25271037254, -24587.924729338258, -30266.005428553275, -17823.929229251054, -36424.22395041275, -0.004, 1.022, 0.05, 192.0, 0.0, 0.0, 0.0, 0.0, 0.0, 0.0, 0.0, 0.0, 0.0, 1.6539236078502676E9, 0.0, 2022-05-30 17:13:27.850
153.0, -5385.49636429505, -13902.427423289708, -59831.86481378852, -38257.961065526135, -24540.85195551538, -30216.45161109586, -17840.514223636892, -36472.213145758295, -0.004, 1.022, 0.05, 192.0, 0.0, 0.0, 0.0, 0.0, 0.0, 0.0, 0.0, 0.0, 0.0, 1.653923607850273E9, 0.0, 2022-05-30 17:13:27.850
154.0, -5494.148194092298, -13946.169787188745, -59735.48409169723, -38178.67942794316, -25226.670530637566, -30930.388680742824, -18274.60745270341, -36598.43344669741, -0.004, 1.022, 0.05, 192.0, 0.0, 0.0, 0.0, 0.0, 0.0, 0.0, 0.0, 0.0, 0.0, 1.6539236078502784E9, 0.0, 2022-05-30 17:13:27.850
155.0, -5512.834252456934, -13925.226202634121, -59641.80793068504, -38084.735045997506, -25568.071075447926, -31194.60865194901, -18428.566268511568, -36579.76974007723, -0.004, 1.022, 0.05, 192.0, 0.0, 0.0, 0.0, 0.0, 0.0, 0.0, 0.0, 0.0, 0.0, 1.6539236078502836E9, 0.0, 2022-05-30 17:13:27.850
156.0, -5438.157074231753, -13890.692757450672, -59678.6883090363, -38114.61932833425, -25165.002067685375, -30782.822463848886, -18149.482387242602, -36481.645581918434, -0.004, 1.02, 0.052000000000000005, 192.0, 255.0, 224.0, 31.0, 224.0, 1.0, 160.0, 0.0, 0.0, 0.0, 1.653923607850289E9, 0.0, 2022-05-30 17:13:27.850
157.0, -5377.136811868765, -13893.330263296399, -59781.95336841982, -38205.188596867156, -24584.124932780855, -30257.735283104812, -17815.726139035956, -36411.55051130659, -0.004, 1.02, 0.052000000000000005, 192.0, 0.0, 0.0, 0.0, 0.0, 0.0, 0.0, 0.0, 0.0, 0.0, 1.653923607850294E9, 0.0, 2022-05-30 17:13:27.850
158.0, -5386.926875940189, -13920.219411876133, -59838.123302236, -38259.011597515535, -24532.76062402256, -30202.437067322382, -17830.18771769854, -36468.68157013435, -0.004, 1.02, 0.052000000000000005, 192.0, 0.0, 0.0, 0.0, 0.0, 0.0, 0.0, 0.0, 0.0, 0.0, 1.6539236078502996E9, 0.0, 2022-05-30 17:13:27.850
159.0, -5493.812917925467, -13965.10171474239, -59735.439388208324, -38175.10314883031, -25227.698710882512, -30922.386756227825, -18271.455856735214, -36595.50536817376, -0.004, 1.02, 0.052000000000000005, 192.0, 0.0, 0.0, 0.0, 0.0, 0.0, 0.0, 0.0, 0.0, 0.0, 1.6539236078503056E9, 0.0, 2022-05-30 17:13:27.850
160.0, -5511.314333833973, -13940.760665030559, -59633.2248608142, -38073.000380158475, -25578.129360452815, -31191.4123524919, -18425.615838243466, -36563.69883581386, -0.004, 1.02, 0.052000000000000005, 192.0, 0.0, 0.0, 0.0, 0.0, 0.0, 0.0, 0.0, 0.0, 0.0, 1.6539236078503108E9, 0.0, 2022-05-30 17:13:27.850
161.0, -5435.363106174839, -13912.910391439247, -59677.10133517997, -38109.478427109534, -25174.635669545612, -30776.787492845953, -18143.268602284028, -36470.872041090974, -0.004, 1.02, 0.052000000000000005, 192.0, 0.0, 0.0, 0.0, 0.0, 0.0, 0.0, 0.0, 0.0, 0.0, 1.6539236078503163E9, 0.0, 2022-05-30 17:13:27.850
162.0, -5371.794744943946, -13919.03476942, -59789.79883072363, -38208.29548934645, -24592.886816607337, -30259.478719172326, -17814.0050547129, -36421.72055503375, -0.004, 1.02, 0.052000000000000005, 192.0, 0.0, 0.0, 0.0, 0.0, 0.0, 0.0, 0.0, 0.0, 0.0, 1.6539236078503215E9, 0.0, 2022-05-30 17:13:27.850
163.0, -5386.770413729002, -13944.00166797658, -59843.59947962755, -38262.520821395025, -24543.265943916555, -30206.572140046614, -17836.893241035134, -36477.28699174964, -0.004, 1.02, 0.052000000000000005, 192.0, 0.0, 0.0, 0.0, 0.0, 0.0, 0.0, 0.0, 0.0, 0.0, 1.6539236078503268E9, 0.0, 2022-05-30 17:13:27.850
164.0, -5502.016008140566, -13986.984072564135, -59742.39078073392, -38179.662904699195, -25225.977626559452, -30913.02137530105, -18273.109885824906, -36592.57728965012, -0.004, 1.02, 0.052000000000000005, 192.0, 0.0, 0.0, 0.0, 0.0, 0.0, 0.0, 0.0, 0.0, 0.0, 1.653923607850332E9, 0.0, 2022-05-30 17:13:27.850
165.0, -5521.417322327772, -13959.044391995001, -59638.812796928025, -38073.760339469954, -25580.96803199864, -31188.41721873489, -18437.708131993786, -36562.20126893536, -0.004, 1.02, 0.052000000000000005, 192.0, 0.0, 0.0, 0.0, 0.0, 0.0, 0.0, 0.0, 0.0, 0.0, 1.6539236078503375E9, 0.0, 2022-05-30 17:13:27.850
166.0, -5440.012269021544, -13922.096958410379, -59672.83215198901, -38102.839959006305, -25184.738658039412, -30779.17912950267, -18158.31132630245, -36463.38420669844, -0.002, 1.02, 0.048, 192.0, 255.0, 240.0, 31.0, 224.0, 1.0, 128.0, 0.0, 0.0, 0.0, 1.6539236078503425E9, 0.0, 2022-05-30 17:13:27.850
167.0, -5384.557591027927, -13931.417635848242, -59789.061223156605, -38211.760009737016, -24603.615653945883, -30261.333913962117, -17822.923400750566, -36413.428057840836, -0.002, 1.02, 0.048, 192.0, 0.0, 0.0, 0.0, 0.0, 0.0, 0.0, 0.0, 0.0, 0.0, 1.653923607850348E9, 0.0, 2022-05-30 17:13:27.850
168.0, -5388.379739329785, -13940.850072008381, -59835.754017323736, -38259.033949259996, -24536.13573743531, -30194.524549785205, -17833.562831111292, -36467.96631431178, -0.002, 1.02, 0.048, 192.0, 0.0, 0.0, 0.0, 0.0, 0.0, 0.0, 0.0, 0.0, 0.0, 1.6539236078503537E9, 0.0, 2022-05-30 17:13:27.850
169.0, -5502.798319196501, -13988.302825486999, -59738.63568766543, -38179.819366910386, -25207.202161216996, -30895.72112509264, -18255.13908328284, -36589.71626635984, -0.002, 1.02, 0.048, 192.0, 0.0, 0.0, 0.0, 0.0, 0.0, 0.0, 0.0, 0.0, 0.0, 1.6539236078503587E9, 0.0, 2022-05-30 17:13:27.850
170.0, -5535.409514356794, -13976.009366036578, -59643.5290150081, -38085.40559833117, -25572.67553480572, -31191.255890280714, -18426.018169643663, -36565.50932711474, -0.002, 1.02, 0.048, 192.0, 0.0, 0.0, 0.0, 0.0, 0.0, 0.0, 0.0, 0.0, 0.0, 1.653923607850364E9, 0.0, 2022-05-30 17:13:27.850
171.0, -5454.451495939672, -13934.256307394066, -59672.83215198901, -38107.91380499766, -25191.22066393145, -30794.132446543274, -18160.92648040372, -36469.24036374573, -0.002, 1.02, 0.048, 192.0, 0.0, 0.0, 0.0, 0.0, 0.0, 0.0, 0.0, 0.0, 0.0, 1.653923607850372E9, 0.0, 2022-05-30 17:13:27.850
172.0, -5384.736404983569, -13923.28160086651, -59779.02528989617, -38202.595794510344, -24609.672976693273, -30271.32514373364, -17823.996284484423, -36418.56895906555, -0.002, 1.02, 0.048, 192.0, 0.0, 0.0, 0.0, 0.0, 0.0, 0.0, 0.0, 0.0, 0.0, 1.6539236078503776E9, 0.0, 2022-05-30 17:13:27.850
173.0, -5390.1455271417535, -13931.887022481802, -59832.75888356673, -38253.24484744607, -24533.878211245326, -30190.210663105332, -17820.53176409385, -36466.826375344564, -0.002, 1.02, 0.048, 192.0, 0.0, 0.0, 0.0, 0.0, 0.0, 0.0, 0.0, 0.0, 0.0, 1.6539236078503828E9, 0.0, 2022-05-30 17:13:27.850
174.0, -5504.385293052828, -13974.601206135894, -59740.42382722186, -38179.19351806564, -25204.207027459983, -30890.736686079108, -18246.064275033987, -36591.05737102716, -0.002, 1.02, 0.048, 192.0, 0.0, 0.0, 0.0, 0.0, 0.0, 0.0, 0.0, 0.0, 0.0, 1.653923607850388E9, 0.0, 2022-05-30 17:13:27.850
175.0, -5533.1966916557185, -13947.846168022892, -59636.26469806012, -38077.24721160498, -25584.00786924456, -31198.94489037334, -18430.332056323536, -36567.699798071364, -0.002, 1.02, 0.048, 192.0, 0.0, 0.0, 0.0, 0.0, 0.0, 0.0, 0.0, 0.0, 0.0, 1.6539236078503935E9, 0.0, 2022-05-30 17:13:27.850
176.0, -5449.89174007079, -13889.306949294443, -59664.897282707374, -38099.129569426725, -25196.763896556367, -30793.931280843175, -18158.91482340274, -36464.01005554319, 0.004, 1.022, 0.05, 192.0, 0.0, 32.0, 31.0, 240.0, 1.0, 144.0, 0.0, 0.0, 0.0, 1.653923607850399E9, 0.0, 2022-05-30 17:13:27.850
177.0, -5380.154297370231, -13866.686983905673, -59778.04181314014, -38200.83000669837, -24605.82847664696, -30268.531175676726, -17816.575505325258, -36415.97615670874, 0.004, 1.022, 0.05, 192.0, 0.0, 0.0, 0.0, 0.0, 0.0, 0.0, 0.0, 0.0, 0.0, 1.6539236078504045E9, 0.0, 2022-05-30 17:13:27.850
178.0, -5390.480803308583, -13868.341012995365, -59837.720970835806, -38264.30896095144, -24524.602237296374, -30192.334078828586, -17817.871906503668, -36472.99545681423, 0.004, 1.022, 0.05, 192.0, 0.0, 0.0, 0.0, 0.0, 0.0, 0.0, 0.0, 0.0, 0.0, 1.65392360785041E9, 0.0, 2022-05-30 17:13:27.850
179.0, -5497.791528438513, -13893.866705163326, -59739.03801906562, -38188.42478852568, -25190.617166831158, -30885.551081365476, -18242.17507149876, -36584.821234324125, 0.004, 1.022, 0.05, 192.0, 0.0, 0.0, 0.0, 0.0, 0.0, 0.0, 0.0, 0.0, 0.0, 1.6539236078504174E9, 0.0, 2022-05-30 17:13:27.850
180.0, -5525.66415377428, -13851.823073842892, -59630.56500322402, -38084.10919715276, -25576.117703451837, -31197.64848919493, -18427.046349888606, -36566.11282421504, 0.004, 1.022, 0.05, 192.0, 0.0, 0.0, 0.0, 0.0, 0.0, 0.0, 0.0, 0.0, 0.0, 1.6539236078504238E9, 0.0, 2022-05-30 17:13:27.850
181.0, -5453.22214999463, -13806.247866898522, -59668.96530019824, -38115.40163939019, -25195.42279188905, -30802.961385603117, -18159.250099569574, -36478.51633769469, 0.004, 1.022, 0.05, 192.0, 0.0, 0.0, 0.0, 0.0, 0.0, 0.0, 0.0, 0.0, 0.0, 1.6539236078504295E9, 0.0, 2022-05-30 17:13:27.850
182.0, -5396.001684189044, -13799.140012161733, -59783.249769598224, -38219.9183964632, -24610.656453449305, -30287.172530552452, -17826.499679863417, -36435.377470895946, 0.004, 1.022, 0.05, 192.0, 0.0, 0.0, 0.0, 0.0, 0.0, 0.0, 0.0, 0.0, 0.0, 1.653923607850436E9, 0.0, 2022-05-30 17:13:27.850
183.0, -5394.459413821628, -13791.406308580197, -59836.96101152433, -38269.651027876265, -24512.062908656946, -30186.857901437033, -17819.727101293458, -36477.26464000519, 0.004, 1.022, 0.05, 192.0, 0.0, 0.0, 0.0, 0.0, 0.0, 0.0, 0.0, 0.0, 0.0, 1.6539236078504412E9, 0.0, 2022-05-30 17:13:27.850
184.0, -5508.632124499336, -13837.160329480212, -59748.381048247946, -38202.30522183242, -25178.770742269844, -30879.650220829277, -18244.90198432231, -36590.72209486033, 0.004, 1.022, 0.05, 192.0, 0.0, 0.0, 0.0, 0.0, 0.0, 0.0, 0.0, 0.0, 0.0, 1.653923607850447E9, 0.0, 2022-05-30 17:13:27.850
185.0, -5542.495017349126, -13817.69196005964, -59644.981878397695, -38100.11304618276, -25573.59195632839, -31210.634852723462, -18439.228050616748, -36581.35671393356, 0.004, 1.022, 0.05, 192.0, 0.0, 0.0, 0.0, 0.0, 0.0, 0.0, 0.0, 0.0, 0.0, 1.6539236078504524E9, 0.0, 2022-05-30 17:13:27.850
186.0, -5457.156057018764, -13759.756238431482, -59672.69804152227, -38115.80397079039, -25199.066126235262, -30814.986624120073, -18172.16940786474, -36484.55130869762, 0.004, 1.016, 0.048, 192.0, 0.0, 32.0, 31.0, 192.0, 1.0, 128.0, 0.0, 0.0, 0.0, 1.653923607850458E9, 0.0, 2022-05-30 17:13:27.850
187.0, -5387.172745129197, -13745.629935935729, -59776.87952242846, -38214.08459116037, -24611.885799394346, -30291.46406548787, -17833.875755533667, -36431.06358421607, 0.004, 1.016, 0.048, 192.0, 0.0, 0.0, 0.0, 0.0, 0.0, 0.0, 0.0, 0.0, 0.0, 1.6539236078504632E9, 0.0, 2022-05-30 17:13:27.850
188.0, -5386.9715794291, -13750.368505760254, -59832.37890391099, -38267.92994355321, -24505.692661487185, -30179.63828797797, -17815.547325080315, -36462.37837819796, 0.004, 1.016, 0.048, 192.0, 0.0, 0.0, 0.0, 0.0, 0.0, 0.0, 0.0, 0.0, 0.0, 1.6539236078504686E9, 0.0, 2022-05-30 17:13:27.850
189.0, -5495.08696735942, -13787.91943644517, -59737.62985916494, -38193.5656897504, -25161.001105427877, -30864.24986889957, -18232.74263533862, -36582.51900464523, 0.004, 1.016, 0.048, 192.0, 0.0, 0.0, 0.0, 0.0, 0.0, 0.0, 0.0, 0.0, 0.0, 1.653923607850474E9, 0.0, 2022-05-30 17:13:27.850
190.0, -5527.51934856407, -13767.177017590646, -59636.28704980458, -38100.0906944383, -25562.192566656184, -31201.023602607682, -18425.861707432476, -36580.99908602227, 0.004, 1.016, 0.048, 192.0, 0.0, 0.0, 0.0, 0.0, 0.0, 0.0, 0.0, 0.0, 0.0, 1.6539236078504791E9, 0.0, 2022-05-30 17:13:27.850
191.0, -5438.469998654127, -13715.902115810171, -59660.3822303274, -38109.478427109534, -25195.691012822514, -30814.226664808593, -18165.285070572507, -36476.23645976025, 0.004, 1.016, 0.048, 192.0, 0.0, 0.0, 0.0, 0.0, 0.0, 0.0, 0.0, 0.0, 0.0, 1.6539236078504844E9, 0.0, 2022-05-30 17:13:27.850
192.0, -5359.434230260162, -13702.848697048272, -59767.178865334856, -38204.47334104459, -24601.20166554471, -30277.874204859047, -17815.65908380259, -36405.31437460356, 0.004, 1.016, 0.048, 192.0, 0.0, 0.0, 0.0, 0.0, 0.0, 0.0, 0.0, 0.0, 0.0, 1.6539236078504918E9, 0.0, 2022-05-30 17:13:27.850
193.0, -5376.309797323918, -13719.657208878662, -59830.88133703248, -38268.9804755426, -24487.386582778287, -30171.144625084955, -17797.040080671322, -36452.36479668198, 0.004, 1.016, 0.048, 192.0, 0.0, 0.0, 0.0, 0.0, 0.0, 0.0, 0.0, 0.0, 0.0, 1.6539236078504972E9, 0.0, 2022-05-30 17:13:27.850
194.0, -5498.685598216724, -13767.86992166876, -59744.737713901726, -38202.8640154438, -25145.39958779807, -30859.980685708608, -18222.46083288918, -36583.30131570117, 0.004, 1.016, 0.048, 192.0, 0.0, 0.0, 0.0, 0.0, 0.0, 0.0, 0.0, 0.0, 0.0, 1.6539236078505025E9, 0.0, 2022-05-30 17:13:27.850
195.0, -5527.295831119518, -13744.020610334946, -59639.90803240634, -38097.11791242575, -25554.458863074648, -31197.73789617275, -18421.45841377478, -36567.25276318226, -0.002, 1.018, 0.048, 192.0, 255.0, 240.0, 31.0, 208.0, 1.0, 128.0, 0.0, 0.0, 0.0, 1.653923607850508E9, 0.0, 2022-05-30 17:13:27.850
196.0, -5445.868426068834, -13697.305464423354, -59664.60671002945, -38110.461903865566, -25196.74154481191, -30811.29858628495, -18164.905090916764, -36460.29966596361, -0.002, 1.018, 0.048, 192.0, 0.0, 0.0, 0.0, 0.0, 0.0, 0.0, 0.0, 0.0, 0.0, 1.6539236078505132E9, 0.0, 2022-05-30 17:13:27.850
197.0, -5386.59159977336, -13703.943932526581, -59777.527723017665, -38213.70461150463, -24611.21524706069, -30294.36979226706, -17830.567697354283, -36414.16566540786, -0.002, 1.018, 0.048, 192.0, 0.0, 0.0, 0.0, 0.0, 0.0, 0.0, 0.0, 0.0, 0.0, 1.6539236078505185E9, 0.0, 2022-05-30 17:13:27.850
198.0, -5383.2164863606085, -13713.152851242168, -59839.44205515886, -38276.26714423503, -24486.64897521126, -30175.74908444275, -17796.034252170833, -36456.92455255086, -0.002, 1.018, 0.048, 192.0, 0.0, 0.0, 0.0, 0.0, 0.0, 0.0, 0.0, 0.0, 0.0, 1.6539236078505237E9, 0.0, 2022-05-30 17:13:27.850
199.0, -5481.854734641878, -13737.091569553802, -59739.32859174354, -38193.3645240503, -25131.16152658004, -30847.39665358027, -18208.356882137883, -36578.00395226526, -0.002, 1.018, 0.048, 192.0, 0.0, 0.0, 0.0, 0.0, 0.0, 0.0, 0.0, 0.0, 0.0, 1.6539236078505297E9, 0.0, 2022-05-30 17:13:27.850
200.0, -5520.366790338372, -13721.937086813103, -59634.52126199261, -38087.2384413765, -25552.469557818124, -31196.754419416717, -18417.412748028368, -36568.83973703859, -0.002, 1.018, 0.048, 192.0, 0.0, 0.0, 0.0, 0.0, 0.0, 0.0, 0.0, 0.0, 0.0, 1.6539236078505352E9, 0.0, 2022-05-30 17:13:27.850
201.0, -5444.460266168149, -13683.313272394333, -59663.645585017875, -38106.66210730816, -25206.755126327887, -30823.524990502, -18169.375439807827, -36466.5581544111, -0.002, 1.018, 0.048, 192.0, 0.0, 0.0, 0.0, 0.0, 0.0, 0.0, 0.0, 0.0, 0.0, 1.6539236078505404E9, 0.0, 2022-05-30 17:13:27.850
202.0, -5370.431288532172, -13675.110182179234, -59768.721135702275, -38195.97967815157, -24614.098622095422, -30297.99077486882, -17825.113871707188, -36413.36100260747, -0.002, 1.018, 0.048, 192.0, 0.0, 0.0, 0.0, 0.0, 0.0, 0.0, 0.0, 0.0, 0.0, 1.6539236078505456E9, 0.0, 2022-05-30 17:13:27.850
203.0, -5366.810305930413, -13689.348243397266, -59833.31767717811, -38261.69380685018, -24479.98815536358, -30162.15922381392, -17790.021632912354, -36460.322017708066, -0.002, 1.018, 0.048, 192.0, 0.0, 0.0, 0.0, 0.0, 0.0, 0.0, 0.0, 0.0, 0.0, 1.6539236078505511E9, 0.0, 2022-05-30 17:13:27.850
204.0, -5473.070499070943, -13726.921525826638, -59741.20613827779, -38189.14004434825, -25124.992445110376, -30840.557019776945, -18213.274265918048, -36586.25174596927, -0.002, 1.018, 0.048, 192.0, 0.0, 0.0, 0.0, 0.0, 0.0, 0.0, 0.0, 0.0, 0.0, 1.6539236078505564E9, 0.0, 2022-05-30 17:13:27.850
205.0, -5516.298772847506, -13709.420109918132, -59635.70590444874, -38079.52708953942, -25548.021560671517, -31196.08386708306, -18424.31943706506, -36573.31008592965, -0.002, 1.018, 0.048, 192.0, 0.0, 0.0, 31.0, 208.0, 1.0, 112.0, 0.0, 0.0, 0.0, 1.6539236078505619E9, 0.0, 2022-05-30 17:13:27.850
206.0, -5438.0453155094765, -13662.70496400654, -59660.73985823868, -38100.06834269385, -25204.497600137904, -30827.615359737323, -18174.91867243274, -36483.43372147485, -0.002, 1.018, 0.048, 192.0, 0.0, 0.0, 0.0, 0.0, 0.0, 0.0, 0.0, 0.0, 0.0, 1.653923607850567E9, 0.0, 2022-05-30 17:13:27.850
207.0, -5367.525561752983, -13664.917786707616, -59769.481095013754, -38202.394628810245, -24610.321177282476, -30302.796399926712, -17825.33738915174, -36430.39303188241, -0.002, 1.018, 0.048, 192.0, 0.0, 0.0, 0.0, 0.0, 0.0, 0.0, 0.0, 0.0, 0.0, 1.6539236078505723E9, 0.0, 2022-05-30 17:13:27.850
208.0, -5372.733518211069, -13689.102374208258, -59838.01154351373, -38266.991170286085, -24476.143655317268, -30160.30402902413, -17791.63095851314, -36459.38324444094, -0.002, 1.018, 0.048, 192.0, 0.0, 0.0, 0.0, 0.0, 0.0, 0.0, 0.0, 0.0, 0.0, 1.653923607850578E9, 0.0, 2022-05-30 17:13:27.850
209.0, -5468.600150179881, -13726.586249659807, -59744.33538250153, -38188.53654724795, -25121.93025612, -30829.917589416218, -18213.766004296067, -36580.06031275515, -0.002, 1.018, 0.048, 192.0, 0.0, 0.0, 0.0, 0.0, 0.0, 0.0, 0.0, 0.0, 0.0, 1.6539236078505833E9, 0.0, 2022-05-30 17:13:27.850
210.0, -5508.498014032604, -13715.902115810171, -59639.41629402832, -38085.226784375525, -25556.24700263107, -31196.665012438898, -18426.576963255044, -36572.6842370849, -0.002, 1.018, 0.048, 192.0, 0.0, 0.0, 0.0, 0.0, 0.0, 0.0, 0.0, 0.0, 0.0, 1.6539236078505883E9, 0.0, 2022-05-30 17:13:27.850
211.0, -5428.389361904784, -13672.807952500338, -59658.90701519335, -38101.05181944988, -25218.84742007821, -30833.829144695897, -18178.807875967967, -36472.81664285858, -0.002, 1.018, 0.048, 192.0, 0.0, 0.0, 0.0, 0.0, 0.0, 0.0, 0.0, 0.0, 0.0, 1.653923607850594E9, 0.0, 2022-05-30 17:13:27.850
212.0, -5354.606253457815, -13663.80019948485, -59764.0049176222, -38195.15266360673, -24625.050976878523, -30307.557321495693, -17830.72415956547, -36415.663232286366, -0.002, 1.018, 0.048, 192.0, 0.0, 0.0, 0.0, 0.0, 0.0, 0.0, 0.0, 0.0, 0.0, 1.6539236078505993E9, 0.0, 2022-05-30 17:13:27.850
213.0, -5351.611119700804, -13676.495990335465, -59830.81428179912, -38260.30799869395, -24470.712181414627, -30152.10093880903, -17779.80688569628, -36448.11796523547, -0.002, 1.018, 0.048, 192.0, 0.0, 0.0, 0.0, 0.0, 0.0, 0.0, 0.0, 0.0, 0.0, 1.6539236078506052E9, 0.0, 2022-05-30 17:13:27.850
214.0, -5458.228940752619, -13721.870031579738, -59742.79311213412, -38187.21779432509, -25105.948758834453, -30817.892350899263, -18193.001233697087, -36565.19640269237, -0.002, 1.018, 0.048, 192.0, 0.0, 0.0, 0.0, 0.0, 0.0, 0.0, 0.0, 0.0, 0.0, 1.6539236078506126E9, 0.0, 2022-05-30 17:13:27.850
215.0, -5503.178298852241, -13713.37636868672, -59634.65537245934, -38080.82349071783, -25551.15080489526, -31200.42010550739, -18417.5468584951, -36568.9291440164, -0.002, 1.018, 0.058, 192.0, 255.0, 240.0, 31.0, 208.0, 1.0, 208.0, 0.0, 0.0, 0.0, 1.653923607850618E9, 0.0, 2022-05-30 17:13:27.850
216.0, -5435.9889550195885, -13675.199589157057, -59657.09652389247, -38095.66504903616, -25222.535457913335, -30839.886467443284, -18175.03043115502, -36477.06347430509, -0.002, 1.018, 0.058, 192.0, 0.0, 0.0, 0.0, 0.0, 0.0, 0.0, 0.0, 0.0, 0.0, 1.6539236078506231E9, 0.0, 2022-05-30 17:13:27.850
217.0, -5367.816134430902, -13669.946929210058, -59762.86497865498, -38195.59969849583, -24633.611695004904, -30318.040289645232, -17832.221726443975, -36421.27352014465, -0.002, 1.018, 0.058, 192.0, 0.0, 0.0, 0.0, 0.0, 0.0, 0.0, 0.0, 0.0, 0.0, 1.6539236078506289E9, 0.0, 2022-05-30 17:13:27.850
218.0, -5361.49059075005, -13685.682557306596, -59830.81428179912, -38258.09517599287, -24476.523634973008, -30155.16312779941, -17778.8457606847, -36437.23266568573, -0.002, 1.018, 0.058, 192.0, 0.0, 0.0, 0.0, 0.0, 0.0, 0.0, 0.0, 0.0, 0.0, 1.653923607850634E9, 0.0, 2022-05-30 17:13:27.850
219.0, -5458.251292497074, -13726.899174082182, -59750.16918780437, -38194.482111273064, -25105.30055824525, -30810.85155139584, -18183.188817881208, -36569.733806816796, -0.002, 1.018, 0.058, 192.0, 0.0, 0.0, 0.0, 0.0, 0.0, 0.0, 0.0, 0.0, 0.0, 1.6539236078506396E9, 0.0, 2022-05-30 17:13:27.850
220.0, -5505.614638997869, -13711.074139007824, -59641.271488818114, -38088.87011872174, -25555.710560764142, -31200.062477596104, -18414.55172473809, -36584.73182734631, -0.002, 1.018, 0.058, 192.0, 0.0, 0.0, 0.0, 0.0, 0.0, 0.0, 0.0, 0.0, 0.0, 1.6539236078506448E9, 0.0, 2022-05-30 17:13:27.850
221.0, -5426.377704903806, -13657.809931970827, -59645.607727242445, -38083.97508668603, -25227.56460041578, -30837.15955461974, -18173.845788698887, -36461.104328764006, -0.002, 1.018, 0.058, 192.0, 0.0, 0.0, 0.0, 0.0, 0.0, 0.0, 0.0, 0.0, 0.0, 1.6539236078506503E9, 0.0, 2022-05-30 17:13:27.850
222.0, -5357.020241858989, -13660.51449304992, -59755.13127507344, -38187.93305014766, -24635.77981421707, -30315.156914610496, -17829.941848509534, -36401.51457804615, -0.002, 1.018, 0.058, 192.0, 0.0, 0.0, 0.0, 0.0, 0.0, 0.0, 0.0, 0.0, 0.0, 1.6539236078506556E9, 0.0, 2022-05-30 17:13:27.850
223.0, -5352.125209823276, -13674.529036823396, -59826.61215384152, -38257.04464400347, -24472.008582593036, -30154.380816743473, -17782.198522353, -36442.95471226629, -0.002, 1.018, 0.058, 192.0, 0.0, 0.0, 0.0, 0.0, 0.0, 0.0, 0.0, 0.0, 0.0, 1.6539236078506637E9, 0.0, 2022-05-30 17:13:27.850
224.0, -5453.311556972451, -13717.243220477489, -59748.04577208111, -38196.76198920751, -25090.950738304942, -30805.867112382308, -18187.368594094347, -36568.66092308294, -0.002, 1.018, 0.058, 192.0, 0.0, 0.0, 0.0, 0.0, 0.0, 0.0, 0.0, 0.0, 0.0, 1.653923607850669E9, 0.0, 2022-05-30 17:13:27.850
225.0, -5489.588438223414, -13706.46967965003, -59642.00909638514, -38096.000325202986, -25551.262563617536, -31209.114934100504, -18416.541029994612, -36573.019513251726, -0.002, 1.018, 0.058, 192.0, 0.0, 0.0, 31.0, 240.0, 1.0, 176.0, 0.0, 0.0, 0.0, 1.6539236078506744E9, 0.0, 2022-05-30 17:13:27.850
226.0, -5414.911259998234, -13661.810894228327, -59652.98380291269, -38105.3433543853, -25234.09130979673, -30861.098272931373, -18176.751515478078, -36472.83899460304, -0.002, 1.018, 0.058, 192.0, 0.0, 0.0, 0.0, 0.0, 0.0, 0.0, 0.0, 0.0, 0.0, 1.6539236078506796E9, 0.0, 2022-05-30 17:13:27.850
227.0, -5341.619889929282, -13652.356106323732, -59750.750333160206, -38201.500559032036, -24643.334703842964, -30339.363853855593, -17832.53465086635, -36415.73028751973, -0.002, 1.018, 0.058, 192.0, 0.0, 0.0, 0.0, 0.0, 0.0, 0.0, 0.0, 0.0, 0.0, 1.653923607850685E9, 0.0, 2022-05-30 17:13:27.850
228.0, -5338.244776516531, -13666.102429163746, -59823.01352298421, -38266.790004585986, -24472.768541904516, -30165.06495059311, -17774.911853660567, -36448.00620651319, -0.002, 1.018, 0.058, 192.0, 0.0, 0.0, 0.0, 0.0, 0.0, 0.0, 0.0, 0.0, 0.0, 1.6539236078506901E9, 0.0, 2022-05-30 17:13:27.850
229.0, -5441.509835900049, -13704.279208693411, -59739.03801906562, -38196.96315490761, -25082.1217992451, -30806.492961227057, -18170.984765408608, -36569.57734460561, -0.002, 1.018, 0.058, 192.0, 0.0, 0.0, 0.0, 0.0, 0.0, 0.0, 0.0, 0.0, 0.0, 1.6539236078506956E9, 0.0, 2022-05-30 17:13:27.850
230.0, -5483.061728842465, -13695.047938233369, -59628.396884011854, -38085.80792973136, -25549.742644994574, -31211.551274246132, -18410.21548631376, -36573.75712081875, -0.002, 1.018, 0.058, 192.0, 0.0, 0.0, 0.0, 0.0, 0.0, 0.0, 0.0, 0.0, 0.0, 1.6539236078507009E9, 0.0, 2022-05-30 17:13:27.850
231.0, -5411.960829730133, -13653.093713890757, -59645.384209797885, -38097.92257522614, -25246.988266347442, -30872.430607370214, -18188.776753995033, -36480.93032609586, -0.002, 1.018, 0.058, 192.0, 0.0, 0.0, 0.0, 0.0, 0.0, 0.0, 0.0, 0.0, 0.0, 1.653923607850706E9, 0.0, 2022-05-30 17:13:27.850
232.0, -5350.649994689226, -13651.350277823243, -59752.44906573881, -38198.52777701947, -24651.850718480437, -30347.835165004155, -17838.927249780565, -36422.704031789784, -0.002, 1.018, 0.058, 192.0, 0.0, 0.0, 0.0, 0.0, 0.0, 0.0, 0.0, 0.0, 0.0, 1.6539236078507116E9, 0.0, 2022-05-30 17:13:27.850
233.0, -5339.29530850593, -13656.602937770242, -59820.95716249433, -38262.09613825037, -24466.197129034656, -30160.952229613333, -17770.732077447425, -36456.72338685076, -0.002, 1.018, 0.058, 192.0, 0.0, 0.0, 0.0, 0.0, 0.0, 0.0, 0.0, 0.0, 0.0, 1.6539236078507168E9, 0.0, 2022-05-30 17:13:27.850
234.0, -5439.9228620437225, -13697.931313268104, -59739.66386791037, -38196.27025082949, -25071.884700284565, -30793.350135487337, -18162.111122859853, -36575.41114990845, -0.002, 1.018, 0.058, 192.0, 0.0, 0.0, 0.0, 0.0, 0.0, 0.0, 0.0, 0.0, 0.0, 1.6539236078507223E9, 0.0, 2022-05-30 17:13:27.850
235.0, -5483.03937709801, -13687.13542069619, -59631.07909334649, -38091.41821758964, -25546.278124604003, -31205.292785798647, -18408.78497466862, -36574.24885919677, -0.006, 1.022, 0.05, 192.0, 255.0, 208.0, 31.0, 240.0, 1.0, 144.0, 0.0, 0.0, 0.0, 1.6539236078507297E9, 0.0, 2022-05-30 17:13:27.850
236.0, -5409.1668616732195, -13644.331830064277, -59648.111122621434, -38100.44832234959, -25252.643257694635, -30869.748398035576, -18192.956530208176, -36481.287954007144, -0.006, 1.022, 0.05, 192.0, 0.0, 0.0, 0.0, 0.0, 0.0, 0.0, 0.0, 0.0, 0.0, 1.653923607850735E9, 0.0, 2022-05-30 17:13:27.850
237.0, -5328.298250233919, -13634.385303781666, -59746.145873802416, -38191.30816356041, -24654.242355137154, -30341.040234689743, -17839.57545036977, -36417.339613120515, -0.006, 1.022, 0.05, 192.0, 0.0, 0.0, 0.0, 0.0, 0.0, 0.0, 0.0, 0.0, 0.0, 1.6539236078507404E9, 0.0, 2022-05-30 17:13:27.850
238.0, -5330.086389790344, -13647.773998710394, -59822.58883983956, -38261.91732429473, -24459.424550464697, -30147.63058991797, -17768.832179168723, -36441.993587254714, -0.006, 1.022, 0.05, 192.0, 0.0, 0.0, 0.0, 0.0, 0.0, 0.0, 0.0, 0.0, 0.0, 1.653923607850746E9, 0.0, 2022-05-30 17:13:27.850
239.0, -5445.354335946362, -13701.485240636497, -59740.44617896631, -38201.18763460966, -25061.804063535223, -30777.56980390189, -18163.228710082618, -36561.821289279615, -0.006, 1.022, 0.05, 192.0, 0.0, 0.0, 0.0, 0.0, 0.0, 0.0, 0.0, 0.0, 0.0, 1.653923607850751E9, 0.0, 2022-05-30 17:13:27.850
240.0, -5492.2259440691405, -13695.874952778215, -59624.44062524327, -38090.457092578064, -25543.260639102537, -31207.304442799625, -18416.965713139263, -36580.01560926624, -0.006, 1.022, 0.05, 192.0, 0.0, 0.0, 0.0, 0.0, 0.0, 0.0, 0.0, 0.0, 0.0, 1.6539236078507564E9, 0.0, 2022-05-30 17:13:27.850
241.0, -5410.753835529546, -13648.958641166526, -59640.913860906825, -38096.827339747826, -25248.66464718159, -30870.26248815805, -18190.006099940074, -36478.292820250135, -0.006, 1.022, 0.05, 192.0, 0.0, 0.0, 0.0, 0.0, 0.0, 0.0, 0.0, 0.0, 0.0, 1.6539236078507617E9, 0.0, 2022-05-30 17:13:27.850
242.0, -5353.48866623505, -13650.635022000673, -59751.26442328268, -38192.89513741674, -24662.17722441879, -30349.846822005133, -17846.68330510656, -36419.01599395466, -0.006, 1.022, 0.05, 192.0, 0.0, 0.0, 0.0, 0.0, 0.0, 0.0, 0.0, 0.0, 0.0, 1.653923607850767E9, 0.0, 2022-05-30 17:13:27.850
243.0, -5340.748171895525, -13647.237556843467, -59816.50916534772, -38253.982455013094, -24459.625716164795, -30141.99795031523, -17767.535777990317, -36437.187962196826, -0.006, 1.022, 0.05, 192.0, 0.0, 0.0, 0.0, 0.0, 0.0, 0.0, 0.0, 0.0, 0.0, 1.653923608330186E9, 0.0, 2022-05-30 17:13:28.330
244.0, -5433.8208358074235, -13685.839019517784, -59739.32859174354, -38201.92524217669, -25055.612630321102, -30769.56787938689, -18156.791407679488, -36567.58803934909, -0.006, 1.022, 0.05, 192.0, 0.0, 0.0, 0.0, 0.0, 0.0, 0.0, 0.0, 0.0, 0.0, 1.6539236083303127E9, 0.0, 2022-05-30 17:13:28.330
245.0, -5482.36882476435, -13678.820571758817, -59633.09075034747, -38090.52414781143, -25552.00017118456, -31208.265567811202, -18414.082338104527, -36581.46847265583, -0.002, 1.024, 0.052000000000000005, 192.0, 255.0, 240.0, 32.0, 0.0, 1.0, 160.0, 0.0, 0.0, 0.0, 1.653923608330328E9, 0.0, 2022-05-30 17:13:28.330
246.0, -5406.238783149574, -13629.892603146149, -59650.636869744885, -38090.14416815569, -25263.305039799816, -30875.49279636059, -18189.55906505097, -36478.87396560597, -0.002, 1.024, 0.052000000000000005, 192.0, 0.0, 0.0, 0.0, 0.0, 0.0, 0.0, 0.0, 0.0, 0.0, 1.6539236083303432E9, 0.0, 2022-05-30 17:13:28.330
247.0, -5333.215634014086, -13625.60106821073, -59750.79503664911, -38189.765893193, -24663.004238963633, -30348.908048738012, -17833.853403789213, -36414.9926799527, -0.002, 1.024, 0.052000000000000005, 192.0, 0.0, 0.0, 0.0, 0.0, 0.0, 0.0, 0.0, 0.0, 0.0, 1.6539236083303533E9, 0.0, 2022-05-30 17:13:28.330
248.0, -5341.0163928289885, -13648.355144066232, -59835.21757545681, -38269.025179031516, -24461.615021421316, -30147.362368984508, -17759.13152207512, -36442.97706401075, -0.002, 1.024, 0.052000000000000005, 192.0, 0.0, 0.0, 0.0, 0.0, 0.0, 0.0, 0.0, 0.0, 0.0, 1.653923608330362E9, 0.0, 2022-05-30 17:13:28.330
249.0, -5440.951042288666, -13686.66603406263, -59759.44516175332, -38212.13998939276, -25052.8633657531, -30767.511518897, -18147.44837849717, -36566.24693468177, -0.002, 1.024, 0.052000000000000005, 192.0, 0.0, 0.0, 0.0, 0.0, 0.0, 0.0, 0.0, 0.0, 0.0, 1.6539236083303747E9, 0.0, 2022-05-30 17:13:28.330
250.0, -5486.436842255216, -13676.585397313285, -59639.21512832822, -38105.38805787421, -25556.91755496473, -31209.718431200796, -18414.507021249177, -36592.84551058358, -0.002, 1.024, 0.052000000000000005, 192.0, 0.0, 0.0, 0.0, 0.0, 0.0, 0.0, 0.0, 0.0, 0.0, 1.653923608330387E9, 0.0, 2022-05-30 17:13:28.330
251.0, -5409.055102950943, -13624.997571110436, -59643.21609058572, -38097.743761270496, -25272.692772471044, -30882.01950574154, -18191.235445885115, -36472.771939369675, -0.002, 1.024, 0.052000000000000005, 192.0, 0.0, 0.0, 0.0, 0.0, 0.0, 0.0, 0.0, 0.0, 0.0, 1.6539236083303957E9, 0.0, 2022-05-30 17:13:28.330
252.0, -5345.173817297676, -13622.672989687086, -59745.87765286895, -38185.69787570213, -24676.571747848007, -30351.567906328193, -17833.473424133474, -36392.19390060829, -0.002, 1.024, 0.052000000000000005, 192.0, 0.0, 0.0, 0.0, 0.0, 0.0, 0.0, 0.0, 0.0, 0.0, 1.6539236083304043E9, 0.0, 2022-05-30 17:13:28.330
253.0, -5344.682078919659, -13630.764321179906, -59827.68503757537, -38256.932885281196, -24460.005695820535, -30135.180668256366, -17744.200556778975, -36422.368755622956, -0.002, 1.024, 0.052000000000000005, 192.0, 0.0, 0.0, 0.0, 0.0, 0.0, 0.0, 0.0, 0.0, 0.0, 1.653923608330413E9, 0.0, 2022-05-30 17:13:28.330
254.0, -5447.097772013876, -13683.357975883244, -59754.55012971761, -38208.45195155763, -25043.788557504246, -30747.216134931583, -18131.913916100733, -36553.08175719759, -0.002, 1.024, 0.052000000000000005, 192.0, 0.0, 0.0, 0.0, 0.0, 0.0, 0.0, 0.0, 0.0, 0.0, 1.6539236083304405E9, 0.0, 2022-05-30 17:13:28.330
255.0, -5489.834307412423, -13668.739935009473, -59635.817663171016, -38094.12277866874, -25545.272296103514, -31197.872006639485, -18391.507076204667, -36566.939838759885, -0.002, 1.024, 0.052000000000000005, 192.0, 0.0, 0.0, 31.0, 240.0, 1.0, 160.0, 0.0, 0.0, 0.0, 1.6539236083304515E9, 0.0, 2022-05-30 17:13:28.330
0.0, -5420.655658323248, -13628.17151882309, -59648.73697146618, -38099.710714782566, -25283.801589465333, -30887.36157266636, -18186.183951638217, -36486.540613954145, -0.002, 1.024, 0.052000000000000005, 192.0, 0.0, 0.0, 0.0, 0.0, 0.0, 0.0, 0.0, 0.0, 0.0, 1.6539236083304925E9, 0.0, 2022-05-30 17:13:28.330
1.0, -5348.526578965972, -13622.963562365005, -59748.6045656925, -38187.709532703106, -24693.044983511565, -30358.787519787256, -17843.889337049644, -36414.07625843004, -0.002, 1.024, 0.052000000000000005, 192.0, 0.0, 0.0, 0.0, 0.0, 0.0, 0.0, 0.0, 0.0, 0.0, 1.6539236083305E9, 0.0, 2022-05-30 17:13:28.330
2.0, -5329.572299667871, -13627.970353122993, -59822.29826716164, -38256.776423070005, -24465.83950112337, -30136.141793267943, -17755.264670284352, -36434.170476695355, -0.002, 1.024, 0.052000000000000005, 192.0, 0.0, 0.0, 0.0, 0.0, 0.0, 0.0, 0.0, 0.0, 0.0, 1.6539236083305094E9, 0.0, 2022-05-30 17:13:28.330
3.0, -5428.0093822490435, -13667.287071619878, -59756.002993107206, -38207.96021317961, -25037.463013823395, -30742.119937195774, -18131.243363767073, -36560.10020495656, -0.002, 1.024, 0.052000000000000005, 192.0, 0.0, 0.0, 0.0, 0.0, 0.0, 0.0, 0.0, 0.0, 0.0, 1.6539236083305156E9, 0.0, 2022-05-30 17:13:28.330
4.0, -5482.257066042074, -13662.101466906246, -59640.73504695119, -38099.77777001593, -25548.379188582803, -31205.628061965475, -18403.286445532616, -36584.553013390665, -0.002, 1.024, 0.052000000000000005, 192.0, 0.0, 0.0, 0.0, 0.0, 0.0, 0.0, 0.0, 0.0, 0.0, 1.6539236083305225E9, 0.0, 2022-05-30 17:13:28.330
5.0, -5407.043445949966, -13617.308571017811, -59642.590241740974, -38091.12764491173, -25279.688868485555, -30889.753209323077, -18196.823381998944, -36479.27629700617, -0.002, 1.024, 0.052000000000000005, 192.0, 0.0, 0.0, 0.0, 0.0, 0.0, 0.0, 0.0, 0.0, 0.0, 1.6539236083305292E9, 0.0, 2022-05-30 17:13:28.330
6.0, -5350.873512133779, -13623.589411209752, -59754.930109373345, -38194.146835106236, -24689.98279452119, -30364.800139045736, -17845.67747660607, -36417.674889287344, -0.002, 1.024, 0.052000000000000005, 192.0, 0.0, 0.0, 0.0, 0.0, 0.0, 0.0, 0.0, 0.0, 0.0, 1.6539236083305373E9, 0.0, 2022-05-30 17:13:28.330
7.0, -5338.311831749897, -13631.03254211337, -59833.31767717811, -38283.86673734984, -24463.537271444475, -30141.57326717058, -17751.353115004673, -36448.363834424475, -0.002, 1.024, 0.052000000000000005, 192.0, 0.0, 0.0, 0.0, 0.0, 0.0, 0.0, 0.0, 0.0, 0.0, 1.653923608330544E9, 0.0, 2022-05-30 17:13:28.330
8.0, -5424.231937436097, -13661.475618061499, -59748.04577208111, -38208.22843411308, -25028.52231604127, -30738.968341227574, -18129.25405851055, -36558.49087935578, -0.002, 1.024, 0.052000000000000005, 192.0, 0.0, 0.0, 0.0, 0.0, 0.0, 0.0, 0.0, 0.0, 0.0, 1.653923608330552E9, 0.0, 2022-05-30 17:13:28.330
9.0, -5485.542772477004, -13665.476580318998, -59635.527090493095, -38093.139301912706, -25553.8330142299, -31206.70094569933, -18406.63920720091, -36580.4849958998, -0.002, 1.022, 0.05, 192.0, 255.0, 240.0, 31.0, 240.0, 1.0, 144.0, 0.0, 0.0, 0.0, 1.6539236083305583E9, 0.0, 2022-05-30 17:13:28.330
10.0, -5420.655658323248, -13626.964524622505, -59647.61938424342, -38098.436665348614, -25289.881263957177, -30898.4927414051, -18197.471582588147, -36480.2597737622, -0.002, 1.022, 0.05, 192.0, 0.0, 0.0, 0.0, 0.0, 0.0, 0.0, 0.0, 0.0, 0.0, 1.653923608330567E9, 0.0, 2022-05-30 17:13:28.330
11.0, -5346.626680687271, -13623.969390865494, -59755.95828961829, -38201.053524142924, -24699.772858592616, -30373.87494729459, -17850.326639452775, -36403.772104236145, -0.002, 1.022, 0.05, 192.0, 0.0, 0.0, 0.0, 0.0, 0.0, 0.0, 0.0, 0.0, 0.0, 1.6539236083305736E9, 0.0, 2022-05-30 17:13:28.330
12.0, -5322.553851908905, -13635.100559604236, -59834.3235056786, -38267.99699878657, -24455.580050418386, -30133.72780486677, -17746.435731224505, -36427.55436033659, -0.002, 1.022, 0.05, 192.0, 0.0, 0.0, 0.0, 0.0, 0.0, 0.0, 0.0, 0.0, 0.0, 1.6539236083305805E9, 0.0, 2022-05-30 17:13:28.330
13.0, -5414.1513006867535, -13677.94885372506, -59763.11084784399, -38208.89898644674, -25021.325054326662, -30726.473716077056, -18124.58254391939, -36553.9758269758, -0.002, 1.022, 0.05, 192.0, 0.0, 0.0, 0.0, 0.0, 0.0, 0.0, 0.0, 0.0, 0.0, 1.653923608330587E9, 0.0, 2022-05-30 17:13:28.330
14.0, -5473.785754893513, -13667.890568720171, -59630.22972705719, -38085.04797041988, -25550.368493839323, -31204.64458520944, -18403.55466646608, -36573.9806382633, -0.002, 1.022, 0.05, 192.0, 0.0, 0.0, 0.0, 0.0, 0.0, 0.0, 0.0, 0.0, 0.0, 1.6539236083305936E9, 0.0, 2022-05-30 17:13:28.330
15.0, -5414.061893708932, -13621.331885019767, -59634.767131181616, -38083.81862447484, -25295.178627393085, -30898.090410004905, -18200.779640767534, -36474.64948590392, -0.002, 1.022, 0.05, 192.0, 0.0, 0.0, 0.0, 0.0, 0.0, 0.0, 0.0, 0.0, 0.0, 1.6539236083305993E9, 0.0, 2022-05-30 17:13:28.330
16.0, -5344.190340541642, -13617.532088462363, -59742.3013737561, -38179.64055295474, -24705.65136738436, -30376.132473484573, -17854.461712177006, -36412.01989794015, -0.002, 1.022, 0.05, 192.0, 0.0, 0.0, 0.0, 0.0, 0.0, 0.0, 0.0, 0.0, 0.0, 1.6539236083306077E9, 0.0, 2022-05-30 17:13:28.330
17.0, -5331.539253179938, -13638.900356161637, -59830.94839226585, -38271.90855406625, -24448.98628580407, -30125.278845462664, -17737.383274720105, -36430.25892141568, -0.002, 1.022, 0.05, 192.0, 0.0, 0.0, 0.0, 0.0, 0.0, 0.0, 0.0, 0.0, 0.0, 1.6539236083306155E9, 0.0, 2022-05-30 17:13:28.330
18.0, -5421.840300779379, -13683.223865416512, -59771.984490392744, -38221.50537031953, -25015.96063565739, -30717.8012392284, -18117.519392671515, -36557.641513066475, -0.002, 1.022, 0.05, 192.0, 0.0, 0.0, 0.0, 0.0, 0.0, 0.0, 0.0, 0.0, 0.0, 1.6539236083306236E9, 0.0, 2022-05-30 17:13:28.330
19.0, -5484.805164909979, -13685.414336373131, -59652.96145116824, -38114.32875565634, -25556.314057864438, -31207.93029164437, -18410.707224691778, -36583.12250174552, -0.002, 1.024, 0.058, 192.0, 255.0, 240.0, 32.0, 0.0, 1.0, 208.0, 0.0, 0.0, 0.0, 1.6539236083306308E9, 0.0, 2022-05-30 17:13:28.330
20.0, -5421.706190312647, -13628.909126390115, -59654.61548025793, -38101.722371783544, -25318.06681371532, -30915.033032302028, -18219.443347387714, -36490.49687272273, -0.002, 1.024, 0.058, 192.0, 0.0, 0.0, 0.0, 0.0, 0.0, 0.0, 0.0, 0.0, 0.0, 1.653923608330638E9, 0.0, 2022-05-30 17:13:28.330
21.0, -5345.509093464505, -13617.97912335147, -59755.01951635117, -38194.70562871762, -24721.386995480898, -30388.20241549044, -17861.122532024685, -36427.174380680844, -0.002, 1.024, 0.058, 192.0, 0.0, 0.0, 0.0, 0.0, 0.0, 0.0, 0.0, 0.0, 0.0, 1.6539236083306463E9, 0.0, 2022-05-30 17:13:28.330
22.0, -5326.018372299478, -13622.874155387182, -59831.5742411106, -38266.45472841916, -24465.772445890005, -30136.05238629012, -17750.168472548543, -36436.07037497406, -0.002, 1.024, 0.058, 192.0, 0.0, 0.0, 0.0, 0.0, 0.0, 0.0, 0.0, 0.0, 0.0, 1.6539236083306787E9, 0.0, 2022-05-30 17:13:28.330
23.0, -5414.128948942298, -13659.195740127057, -59761.43446700984, -38211.692954503655, -25010.81973443267, -30705.954814667086, -18113.71959611411, -36539.76011750223, -0.002, 1.024, 0.058, 192.0, 0.0, 0.0, 0.0, 0.0, 0.0, 0.0, 0.0, 0.0, 0.0, 1.6539236083306885E9, 0.0, 2022-05-30 17:13:28.330
24.0, -5470.634158925314, -13659.955699438537, -59639.79627368406, -38090.14416815569, -25550.614363028333, -31199.70484968482, -18399.464297230756, -36567.208059693345, -0.002, 1.024, 0.058, 192.0, 0.0, 0.0, 0.0, 0.0, 0.0, 0.0, 0.0, 0.0, 0.0, 1.6539236083306973E9, 0.0, 2022-05-30 17:13:28.330
25.0, -5412.340809385873, -13618.001475095925, -59637.15876783834, -38085.293839608894, -25312.9259124906, -30901.465523417657, -18193.560027308467, -36459.38324444094, -0.002, 1.024, 0.058, 192.0, 0.0, 0.0, 0.0, 0.0, 0.0, 0.0, 0.0, 0.0, 0.0, 1.653923608330704E9, 0.0, 2022-05-30 17:13:28.330
26.0, -5348.459523732606, -13605.97623657897, -59750.52681571565, -38192.9174891612, -24726.41613798334, -30381.407485176027, -17838.279049191362, -36395.166682620846, -0.002, 1.024, 0.058, 192.0, 0.0, 0.0, 0.0, 0.0, 0.0, 0.0, 0.0, 0.0, 0.0, 1.6539236083307168E9, 0.0, 2022-05-30 17:13:28.330
27.0, -5328.499415934017, -13616.615666939697, -59838.615040614015, -38264.331312695904, -24465.146597045255, -30128.38573794195, -17726.341512959185, -36426.95086323629, -0.002, 1.024, 0.058, 192.0, 0.0, 0.0, 0.0, 0.0, 0.0, 0.0, 0.0, 0.0, 0.0, 1.6539236083307304E9, 0.0, 2022-05-30 17:13:28.330
28.0, -5420.655658323248, -13652.423161557099, -59772.632690981955, -38206.75321897903, -25008.673966964958, -30697.908186663175, -18093.558322615423, -36547.985559461784, -0.002, 1.024, 0.058, 192.0, 0.0, 0.0, 32.0, 0.0, 2.0, 0.0, 0.0, 0.0, 0.0, 1.6539236083307388E9, 0.0, 2022-05-30 17:13:28.330
29.0, -5489.633141712326, -13647.550481265842, -59652.69323023477, -38092.04406643439, -25556.73874100909, -31192.35112575902, -18390.031861070616, -36562.737710802285, -0.002, 1.024, 0.058, 192.0, 0.0, 0.0, 0.0, 0.0, 0.0, 0.0, 0.0, 0.0, 0.0, 1.653923608330748E9, 0.0, 2022-05-30 17:13:28.330
30.0, -5428.031733993499, -13602.444660955032, -59650.23453834469, -38089.92065071114, -25330.24851444346, -30914.362479968368, -18202.03133845703, -36482.04791331862, -0.002, 1.024, 0.058, 192.0, 0.0, 0.0, 0.0, 0.0, 0.0, 0.0, 0.0, 0.0, 0.0, 1.6539236083307576E9, 0.0, 2022-05-30 17:13:28.330
31.0, -5360.082430849366, -13604.03163481136, -59755.48890298473, -38199.399495053236, -24741.66002770186, -30397.12076152811, -17849.030238274365, -36418.1442759209, -0.002, 1.024, 0.058, 192.0, 0.0, 0.0, 0.0, 0.0, 0.0, 0.0, 0.0, 0.0, 0.0, 1.6539236083307652E9, 0.0, 2022-05-30 17:13:28.330
32.0, -5339.742343395036, -13607.540858690842, -59841.498415648755, -38251.747280567564, -24468.454655224643, -30125.63647337395, -17729.716626371937, -36419.64184279941, -0.002, 1.024, 0.058, 192.0, 0.0, 0.0, 0.0, 0.0, 0.0, 0.0, 0.0, 0.0, 0.0, 1.653923608330773E9, 0.0, 2022-05-30 17:13:28.330
33.0, -5432.010344506543, -13655.015963913915, -59783.473287042776, -38214.30810860492, -24997.699260437403, -30680.764398665953, -18090.9208167697, -36537.569646545606, -0.002, 1.024, 0.058, 192.0, 0.0, 0.0, 0.0, 0.0, 0.0, 0.0, 0.0, 0.0, 0.0, 1.6539236083307827E9, 0.0, 2022-05-30 17:13:28.330
34.0, -5489.521382990049, -13639.772074195394, -59655.82247445852, -38096.84969149229, -25556.761092753542, -31199.816608407094, -18398.749041408188, -36567.40922539344, -0.002, 1.024, 0.058, 192.0, 0.0, 0.0, 0.0, 0.0, 0.0, 0.0, 0.0, 0.0, 0.0, 1.6539236083307977E9, 0.0, 2022-05-30 17:13:28.330
35.0, -5423.449626380161, -13588.005434036904, -59640.69034346227, -38078.521261038935, -25332.01430225543, -30924.35370973989, -18213.967169996165, -36469.352122468015, -0.002, 1.024, 0.058, 192.0, 0.0, 0.0, 0.0, 0.0, 0.0, 0.0, 0.0, 0.0, 0.0, 1.6539236083308074E9, 0.0, 2022-05-30 17:13:28.330
36.0, -5346.112590564799, -13581.523428144865, -59735.75231263069, -38167.70472141561, -24735.222725298732, -30400.16059877403, -17859.58026165727, -36412.154008406884, -0.002, 1.024, 0.058, 192.0, 0.0, 0.0, 0.0, 0.0, 0.0, 0.0, 0.0, 0.0, 0.0, 1.6539236083308167E9, 0.0, 2022-05-30 17:13:28.330
37.0, -5344.212692286097, -13604.590428422742, -59830.36724691001, -38261.537344638986, -24455.98238181858, -30131.805554843613, -17732.622353151128, -36431.33180514954, -0.002, 1.024, 0.058, 192.0, 0.0, 0.0, 0.0, 0.0, 0.0, 0.0, 0.0, 0.0, 0.0, 1.653923608330825E9, 0.0, 2022-05-30 17:13:28.330
38.0, -5435.385457919295, -13641.739027707461, -59766.128333345456, -38222.734716264575, -24980.17549278444, -30687.224052813537, -18087.858627779322, -36547.31500712812, -0.006, 1.024, 0.06, 192.0, 255.0, 208.0, 32.0, 0.0, 1.0, 224.0, 0.0, 0.0, 0.0, 1.653923608330835E9, 0.0, 2022-05-30 17:13:28.330
39.0, -5493.052958613987, -13638.74389395045, -59642.54553825207, -38108.80787477588, -25540.131394878794, -31202.297652041634, -18397.430288485324, -36578.42863540991, -0.006, 1.024, 0.06, 192.0, 0.0, 0.0, 0.0, 0.0, 0.0, 0.0, 0.0, 0.0, 0.0, 1.6539236083308847E9, 0.0, 2022-05-30 17:13:28.330
40.0, -5430.0657427389315, -13591.31349221629, -59640.69034346227, -38090.457092578064, -25330.740252821477, -30941.96688437067, -18226.685312591235, -36490.60863144501, -0.006, 1.024, 0.06, 192.0, 0.0, 0.0, 0.0, 0.0, 0.0, 0.0, 0.0, 0.0, 0.0, 1.653923608330896E9, 0.0, 2022-05-30 17:13:28.330
41.0, -5352.371079012284, -13583.69154735703, -59733.852414352, -38177.02539885347, -24738.59783871148, -30415.315081514727, -17871.82901761878, -36411.70697351777, -0.006, 1.024, 0.06, 192.0, 0.0, 0.0, 0.0, 0.0, 0.0, 0.0, 0.0, 0.0, 0.0, 1.6539236083309069E9, 0.0, 2022-05-30 17:13:28.330
42.0, -5337.708334649603, -13593.101631772714, -59828.66851433141, -38267.10292900836, -24452.607268405827, -30131.872610076978, -17732.443539195483, -36428.73900279272, -0.006, 1.024, 0.06, 192.0, 0.0, 0.0, 0.0, 0.0, 0.0, 0.0, 0.0, 0.0, 0.0, 1.6539236083309343E9, 0.0, 2022-05-30 17:13:28.330
43.0, -5438.157074231753, -13637.112216605214, -59774.3090718161, -38232.167152424714, -24972.598251414092, -30678.573927709334, -18081.711898054113, -36550.06427169612, -0.006, 1.024, 0.06, 192.0, 0.0, 0.0, 0.0, 0.0, 0.0, 0.0, 0.0, 0.0, 0.0, 1.653923608330966E9, 0.0, 2022-05-30 17:13:28.330
44.0, -5511.0684646449645, -13640.59908874024, -59658.459980304244, -38113.322927155845, -25546.747511237565, -31202.476465997275, -18396.893846618397, -36585.469434913335, -0.006, 1.024, 0.06, 192.0, 0.0, 0.0, 0.0, 0.0, 0.0, 0.0, 0.0, 0.0, 0.0, 1.653923608330982E9, 0.0, 2022-05-30 17:13:28.330
45.0, -5447.433048180706, -13595.940303318537, -59646.25592783165, -38093.742799012995, -25345.268886717426, -30954.573268243465, -18229.99337077062, -36498.58820421555, -0.006, 1.024, 0.06, 192.0, 0.0, 0.0, 0.0, 0.0, 0.0, 0.0, 0.0, 0.0, 0.0, 1.6539236083309941E9, 0.0, 2022-05-30 17:13:28.330
46.0, -5365.715070452103, -13578.55064613231, -59735.707609141784, -38176.57836396436, -24754.199356341287, -30432.0341863673, -17880.076811322786, -36433.4999243617, -0.006, 1.024, 0.06, 192.0, 0.0, 0.0, 0.0, 0.0, 0.0, 0.0, 0.0, 0.0, 0.0, 1.6539236083310065E9, 0.0, 2022-05-30 17:13:28.331
47.0, -5349.1747795551755, -13596.297931229823, -59835.5752033681, -38265.09127200738, -24453.41193120622, -30138.332264224562, -17734.41049270755, -36448.02855825765, -0.006, 1.024, 0.06, 192.0, 0.0, 0.0, 0.0, 0.0, 0.0, 0.0, 0.0, 0.0, 0.0, 1.6539236083310232E9, 0.0, 2022-05-30 17:13:28.331
48.0, -5435.184292219197, -13641.001420140437, -59777.57242650657, -38239.74439379507, -24967.434998444918, -30679.55740446537, -18088.931511513176, -36558.826155522605, -0.006, 1.024, 0.058, 192.0, 255.0, 208.0, 32.0, 0.0, 1.0, 208.0, 0.0, 0.0, 0.0, 1.6539236083310385E9, 0.0, 2022-05-30 17:13:28.331
49.0, -5495.221077826152, -13646.544652765353, -59657.61061401494, -38126.57751161784, -25546.81456647093, -31216.78158244867, -18410.5954659695, -36588.263402970246, -0.006, 1.024, 0.058, 192.0, 0.0, 0.0, 0.0, 0.0, 0.0, 0.0, 0.0, 0.0, 0.0, 1.6539236083310523E9, 0.0, 2022-05-30 17:13:28.331
50.0, -5433.105579984854, -13594.778012606861, -59642.50083476315, -38087.39490358769, -25343.078415760807, -30951.667541464278, -18233.12261499436, -36486.45120697632, -0.006, 1.024, 0.058, 192.0, 0.0, 0.0, 0.0, 0.0, 0.0, 0.0, 0.0, 0.0, 0.0, 1.653923608331063E9, 0.0, 2022-05-30 17:13:28.331
51.0, -5364.373965784785, -13583.199808979012, -59741.72022840026, -38176.533660475456, -24748.857289416468, -30417.39379374907, -17869.951471084532, -36406.45431357078, -0.006, 1.024, 0.058, 192.0, 0.0, 0.0, 0.0, 0.0, 0.0, 0.0, 0.0, 0.0, 0.0, 1.6539236083310723E9, 0.0, 2022-05-30 17:13:28.331
52.0, -5343.989174841545, -13587.625454381163, -59832.58006961108, -38252.06020498994, -24448.919230570704, -30121.30023494962, -17730.655399639058, -36416.4455433423, -0.006, 1.024, 0.058, 192.0, 0.0, 0.0, 0.0, 0.0, 0.0, 0.0, 0.0, 0.0, 0.0, 1.6539236083310883E9, 0.0, 2022-05-30 17:13:28.331
53.0, -5442.336850444895, -13636.17344333809, -59782.46745854228, -38222.533550564476, -24956.862623317556, -30656.7362733765, -18078.33678464136, -36545.70568152734, -0.006, 1.024, 0.058, 192.0, 0.0, 0.0, 0.0, 0.0, 0.0, 0.0, 0.0, 0.0, 0.0, 1.6539236083311045E9, 0.0, 2022-05-30 17:13:28.331
54.0, -5520.053865915998, -13641.895489918648, -59662.103314650456, -38109.478427109534, -25542.4783280466, -31196.50855022771, -18399.77722165313, -36581.62493486702, -0.006, 1.024, 0.058, 192.0, 0.0, 0.0, 0.0, 0.0, 0.0, 0.0, 0.0, 0.0, 0.0, 1.653923608331123E9, 0.0, 2022-05-30 17:13:28.331
55.0, -5460.575873920426, -13613.084091315759, -59654.95075642476, -38110.528959098934, -25359.842224102285, -30949.767643185576, -18237.41414992978, -36484.17132904188, -0.006, 1.024, 0.058, 192.0, 0.0, 0.0, 0.0, 0.0, 0.0, 0.0, 0.0, 0.0, 0.0, 1.6539236083311388E9, 0.0, 2022-05-30 17:13:28.331
56.0, -5375.572189756893, -13582.573960134265, -59737.182824275835, -38175.952515119614, -24759.072036632544, -30425.01573860833, -17872.186645530062, -36408.06363917156, -0.006, 1.024, 0.058, 192.0, 0.0, 0.0, 0.0, 0.0, 0.0, 0.0, 0.0, 0.0, 0.0, 1.653923608331149E9, 0.0, 2022-05-30 17:13:28.331
57.0, -5351.834637145357, -13582.372794434166, -59833.76471206722, -38251.9260945232, -24448.114567770313, -30123.513057650693, -17718.65251286656, -36419.06069744357, -0.006, 1.024, 0.058, 192.0, 0.0, 0.0, 0.0, 0.0, 0.0, 0.0, 0.0, 0.0, 0.0, 1.6539236083311584E9, 0.0, 2022-05-30 17:13:28.331
58.0, -5443.812065578945, -13621.51069897541, -59782.17688586437, -38232.48007684709, -24948.70423659137, -30649.96369480654, -18061.28240362196, -36541.28003612519, -0.002, 1.022, 0.064, 192.0, 255.0, 240.0, 31.0, 240.0, 2.0, 0.0, 0.0, 0.0, 0.0, 1.6539236083311725E9, 0.0, 2022-05-30 17:13:28.331
59.0, -5533.3084503779955, -13635.07820785978, -59664.830227474005, -38116.608633590775, -25538.700883233654, -31202.297652041634, -18385.673270901832, -36588.889251814995, -0.002, 1.022, 0.064, 192.0, 0.0, 0.0, 0.0, 0.0, 0.0, 0.0, 0.0, 0.0, 0.0, 1.6539236083311868E9, 0.0, 2022-05-30 17:13:28.331
60.0, -5468.84601936889, -13590.464125926987, -59647.217052843225, -38093.87690947973, -25361.898584592174, -30959.356541556903, -18230.79803357101, -36498.99053561575, -0.002, 1.022, 0.064, 192.0, 0.0, 0.0, 0.0, 0.0, 0.0, 0.0, 0.0, 0.0, 0.0, 1.653923608331198E9, 0.0, 2022-05-30 17:13:28.331
61.0, -5393.498288810049, -13577.20954146499, -59744.06716156807, -38183.28388730096, -24777.847501975, -30437.890343414587, -17881.77554390139, -36419.01599395466, -0.002, 1.022, 0.064, 192.0, 0.0, 0.0, 0.0, 0.0, 0.0, 0.0, 0.0, 0.0, 0.0, 1.6539236083312116E9, 0.0, 2022-05-30 17:13:28.331
62.0, -5359.702451193625, -13585.703204358007, -59835.41874115691, -38266.231210974605, -24462.03970456597, -30131.179705998864, -17735.438672952496, -36431.26474991617, -0.002, 1.022, 0.064, 192.0, 0.0, 0.0, 0.0, 0.0, 0.0, 0.0, 0.0, 0.0, 0.0, 1.6539236083312209E9, 0.0, 2022-05-30 17:13:28.331
63.0, -5452.372783705328, -13642.007248640926, -59796.92903720487, -38240.88433276228, -24945.88791679, -30643.057005769853, -18065.14925541273, -36548.79022226217, -0.002, 1.022, 0.064, 192.0, 0.0, 0.0, 0.0, 0.0, 0.0, 0.0, 0.0, 0.0, 0.0, 1.6539236083312316E9, 0.0, 2022-05-30 17:13:28.331
64.0, -5534.269575389573, -13653.65250750214, -59673.14507641138, -38134.646491366206, -25544.132357136295, -31205.918634643393, -18392.6917186608, -36581.691990100386, -0.002, 1.022, 0.064, 192.0, 0.0, 0.0, 0.0, 0.0, 0.0, 0.0, 0.0, 0.0, 0.0, 1.6539236083312573E9, 0.0, 2022-05-30 17:13:28.331
65.0, -5469.069536813443, -13593.995701550926, -59646.010058642634, -38106.93032824163, -25368.313535250847, -30968.69957073922, -18235.42484467326, -36485.17715754237, -0.002, 1.022, 0.064, 192.0, 0.0, 0.0, 0.0, 0.0, 0.0, 0.0, 0.0, 0.0, 0.0, 1.653923608331264E9, 0.0, 2022-05-30 17:13:28.331
66.0, -5387.552724784938, -13577.008375764892, -59739.708571399286, -38186.83781466935, -24780.61911828746, -30445.84756444068, -17879.518017711405, -36414.76916250815, -0.002, 1.022, 0.064, 192.0, 0.0, 0.0, 0.0, 0.0, 0.0, 0.0, 0.0, 0.0, 0.0, 1.6539236083312716E9, 0.0, 2022-05-30 17:13:28.331
67.0, -5359.188361071153, -13589.033614281847, -59838.972668525304, -38270.85802207685, -24454.306000984434, -30133.34782521103, -17721.17825999001, -36424.514523090664, -0.002, 1.022, 0.064, 192.0, 0.0, 0.0, 0.0, 0.0, 0.0, 0.0, 0.0, 0.0, 0.0, 1.6539236083312812E9, 0.0, 2022-05-30 17:13:28.331
68.0, -5440.79458007748, -13626.763358922406, -59782.40040330892, -38228.00972795603, -24940.27762893172, -30649.74017736199, -18062.198825144627, -36543.69402452636, -0.006, 1.016, 0.062, 192.0, 255.0, 208.0, 31.0, 192.0, 1.0, 240.0, 0.0, 0.0, 0.0, 1.6539236083312912E9, 0.0, 2022-05-30 17:13:28.331
69.0, -5521.909060705789, -13640.4202747846, -59671.44634383277, -38131.31608144237, -25533.33646456438, -31209.204341078323, -18385.58386392401, -36589.55980414865, -0.006, 1.016, 0.062, 192.0, 0.0, 0.0, 0.0, 0.0, 0.0, 0.0, 0.0, 0.0, 0.0, 1.6539236083312984E9, 0.0, 2022-05-30 17:13:28.331
70.0, -5472.958740348666, -13610.066605814292, -59668.02652693111, -38116.474523124045, -25375.22022428754, -30993.152379173327, -18236.833004573942, -36508.80295143163, -0.006, 1.016, 0.062, 192.0, 0.0, 0.0, 0.0, 0.0, 0.0, 0.0, 0.0, 0.0, 0.0, 1.6539236083313055E9, 0.0, 2022-05-30 17:13:28.331
71.0, -5395.889925466768, -13582.01516652288, -59744.46949296827, -38194.12448336178, -24788.844560247013, -30462.164337893053, -17879.76388690041, -36411.37169735094, -0.006, 1.016, 0.062, 192.0, 0.0, 0.0, 0.0, 0.0, 0.0, 0.0, 0.0, 0.0, 0.0, 1.653923608331314E9, 0.0, 2022-05-30 17:13:28.331
72.0, -5357.243759303541, -13579.757640332895, -59831.149557965946, -38258.67632134871, -24445.87939332478, -30125.16708674039, -17710.158849973544, -36410.902310717385, -0.006, 1.016, 0.062, 192.0, 0.0, 0.0, 0.0, 0.0, 0.0, 0.0, 0.0, 0.0, 0.0, 1.6539236083313231E9, 0.0, 2022-05-30 17:13:28.331
73.0, -5442.31449870044, -13624.88581238816, -59792.23517086926, -38229.239073901066, -24926.106622947053, -30627.388432906682, -18047.67019124868, -36547.69498678386, -0.006, 1.016, 0.062, 192.0, 0.0, 0.0, 0.0, 0.0, 0.0, 0.0, 0.0, 0.0, 0.0, 1.6539236083313315E9, 0.0, 2022-05-30 17:13:28.331
74.0, -5510.576726266948, -13622.181251309068, -59659.75638148265, -38107.936156742115, -25537.024502399505, -31200.59891946303, -18389.383660481413, -36591.191481493894, -0.006, 1.016, 0.062, 192.0, 0.0, 0.0, 0.0, 0.0, 0.0, 0.0, 0.0, 0.0, 0.0, 1.653923608331342E9, 0.0, 2022-05-30 17:13:28.331
75.0, -5455.904359329267, -13586.530218902853, -59658.83995995998, -38097.609650803766, -25375.421389987638, -30974.443969064236, -18231.42388241576, -36497.04593384814, -0.006, 1.016, 0.062, 192.0, 0.0, 0.0, 0.0, 0.0, 0.0, 0.0, 0.0, 0.0, 0.0, 1.65392360833135E9, 0.0, 2022-05-30 17:13:28.331
76.0, -5383.507059038528, -13584.384451435144, -59748.090475570025, -38184.82615766837, -24796.779429528648, -30458.02926516882, -17884.323642769294, -36412.48928457371, -0.006, 1.016, 0.062, 192.0, 0.0, 0.0, 0.0, 0.0, 0.0, 0.0, 0.0, 0.0, 0.0, 1.6539236083313603E9, 0.0, 2022-05-30 17:13:28.331
77.0, -5358.62956745977, -13588.273654970368, -59843.82299707211, -38277.72000762463, -24453.613096906316, -30123.91538905089, -17717.043187265775, -36410.81290373956, -0.006, 1.016, 0.062, 192.0, 0.0, 0.0, 0.0, 0.0, 0.0, 0.0, 0.0, 0.0, 0.0, 1.6539236083313687E9, 0.0, 2022-05-30 17:13:28.331
78.0, -5434.469036396627, -13623.924687376582, -59796.14672614894, -38241.73369905158, -24917.79177400968, -30619.654729325146, -18046.820824959377, -36535.11095465552, -0.002, 1.018, 0.07200000000000001, 192.0, 255.0, 240.0, 31.0, 208.0, 2.0, 64.0, 0.0, 0.0, 0.0, 1.6539236083313775E9, 0.0, 2022-05-30 17:13:28.331
79.0, -5516.164662380775, -13640.956716651526, -59669.859369976446, -38127.449229651604, -25528.799060439953, -31203.63875670895, -18395.150410550883, -36589.135121004, -0.002, 1.018, 0.07200000000000001, 192.0, 0.0, 0.0, 0.0, 0.0, 0.0, 0.0, 0.0, 0.0, 0.0, 1.6539236083313894E9, 0.0, 2022-05-30 17:13:28.331
80.0, -5453.691536628192, -13593.079280028258, -59645.96535515373, -38094.189833902106, -25380.182311556615, -30988.972602960184, -18249.841719846932, -36495.99540185874, -0.002, 1.018, 0.07200000000000001, 192.0, 0.0, 0.0, 0.0, 0.0, 0.0, 0.0, 0.0, 0.0, 0.0, 1.653923608331398E9, 0.0, 2022-05-30 17:13:28.331
81.0, -5372.107669366321, -13582.395146178622, -59748.49280697022, -38179.886422143754, -24797.76290628468, -30467.193480395497, -17888.235198048973, -36409.58355779452, -0.002, 1.018, 0.07200000000000001, 192.0, 0.0, 0.0, 0.0, 0.0, 0.0, 0.0, 0.0, 0.0, 0.0, 1.6539236083314056E9, 0.0, 2022-05-30 17:13:28.331
82.0, -5340.859930617801, -13587.491343914431, -59836.93865977987, -38266.81235633044, -24444.582992146374, -30126.57524664107, -17707.588399361182, -36412.10930491797, -0.002, 1.018, 0.07200000000000001, 192.0, 0.0, 0.0, 0.0, 0.0, 0.0, 0.0, 0.0, 0.0, 0.0, 1.6539236083314147E9, 0.0, 2022-05-30 17:13:28.331
83.0, -5439.833455065901, -13630.339638035255, -59782.93684517585, -38237.75508853854, -24909.991015194777, -30617.128982201695, -18041.009371400996, -36541.45885008083, -0.002, 1.018, 0.07200000000000001, 192.0, 0.0, 0.0, 0.0, 0.0, 0.0, 0.0, 0.0, 0.0, 0.0, 1.653923608331422E9, 0.0, 2022-05-30 17:13:28.331
84.0, -5530.2015578987075, -13641.470806773998, -59665.76900074113, -38127.96331977407, -25523.56875223741, -31202.923500886383, -18381.806419111064, -36589.157472748455, -0.002, 1.018, 0.07200000000000001, 192.0, 0.0, 0.0, 0.0, 0.0, 0.0, 0.0, 0.0, 0.0, 0.0, 1.6539236083314304E9, 0.0, 2022-05-30 17:13:28.331
85.0, -5476.467964228149, -13594.64390214013, -59647.44057028778, -38102.32586888383, -25390.508817494967, -31004.46236186771, -18250.288754736037, -36498.54350072664, -0.002, 1.018, 0.07200000000000001, 192.0, 0.0, 0.0, 0.0, 0.0, 0.0, 0.0, 0.0, 0.0, 0.0, 1.6539236083314369E9, 0.0, 2022-05-30 17:13:28.331
86.0, -5397.678065023192, -13585.323224702266, -59740.2003097773, -38189.63178272626, -24809.16229595689, -30489.70168706199, -17891.58795971727, -36423.70986029028, -0.002, 1.018, 0.07200000000000001, 192.0, 0.0, 0.0, 0.0, 0.0, 0.0, 0.0, 0.0, 0.0, 0.0, 1.653923608331456E9, 0.0, 2022-05-30 17:13:28.331
87.0, -5359.166009326698, -13585.569093891276, -59828.93673526487, -38262.453766161656, -24457.681114397183, -30149.843412619048, -17717.46787041043, -36425.90033124689, -0.002, 1.018, 0.07200000000000001, 192.0, 0.0, 0.0, 0.0, 0.0, 0.0, 0.0, 0.0, 0.0, 0.0, 1.6539236083314652E9, 0.0, 2022-05-30 17:13:28.331
88.0, -5445.577853390915, -13629.400864768133, -59790.82701096857, -38239.2750071615, -24899.530398789695, -30614.089144955775, -18030.548754995914, -36534.66391976642, -0.006, 1.022, 0.068, 192.0, 255.0, 208.0, 31.0, 240.0, 2.0, 32.0, 0.0, 0.0, 0.0, 1.6539236083314712E9, 0.0, 2022-05-30 17:13:28.331
89.0, -5542.606776071403, -13647.751646965939, -59676.363727612945, -38138.11101175678, -25527.86028717283, -31212.914730657903, -18389.271901759137, -36593.069028028134, -0.006, 1.022, 0.068, 192.0, 0.0, 0.0, 0.0, 0.0, 0.0, 0.0, 0.0, 0.0, 0.0, 1.65392360833148E9, 0.0, 2022-05-30 17:13:28.331
90.0, -5482.637045697814, -13591.40289919411, -59648.42404704381, -38093.42987459062, -25399.717736210554, -31014.453591639234, -18255.608469916402, -36500.75632342772, -0.006, 1.022, 0.068, 192.0, 0.0, 0.0, 0.0, 0.0, 0.0, 0.0, 0.0, 0.0, 0.0, 1.6539236083314905E9, 0.0, 2022-05-30 17:13:28.331
91.0, -5388.804422474435, -13577.634224609641, -59727.52687067114, -38173.40441625171, -24810.01166224619, -30488.51704460586, -17892.72789868449, -36420.80413351108, -0.006, 1.022, 0.068, 192.0, 0.0, 0.0, 0.0, 0.0, 0.0, 0.0, 0.0, 0.0, 0.0, 1.6539236083315E9, 0.0, 2022-05-30 17:13:28.331
92.0, -5363.815172173402, -13592.185210250045, -59832.80358705564, -38262.69963535066, -24448.293381725955, -30140.00864505871, -17707.99073076138, -36415.35030786399, -0.006, 1.022, 0.068, 192.0, 0.0, 0.0, 0.0, 0.0, 0.0, 0.0, 0.0, 0.0, 0.0, 1.6539236083315077E9, 0.0, 2022-05-30 17:13:28.331
93.0, -5445.667260368737, -13625.243440299446, -59786.13314463296, -38235.69872804865, -24892.333137075086, -30599.96284246002, -18022.166850825175, -36517.9671666583, -0.006, 1.022, 0.068, 192.0, 0.0, 0.0, 0.0, 0.0, 0.0, 0.0, 0.0, 0.0, 0.0, 1.6539236083315148E9, 0.0, 2022-05-30 17:13:28.331
94.0, -5541.8244650154675, -13642.633097485674, -59668.71943100923, -38135.36174718878, -25515.589179466868, -31194.966279860295, -18377.470180686734, -36578.20511796536, -0.006, 1.022, 0.068, 192.0, 0.0, 0.0, 0.0, 0.0, 0.0, 0.0, 0.0, 0.0, 0.0, 1.6539236083315244E9, 0.0, 2022-05-30 17:13:28.331
95.0, -5489.119051589853, -13598.063719041791, -59646.14416910937, -38104.73985728501, -25400.7459164555, -31007.256329924625, -18260.570557185478, -36501.22571006128, -0.006, 1.022, 0.068, 192.0, 0.0, 0.0, 0.0, 0.0, 0.0, 0.0, 0.0, 0.0, 0.0, 1.653923608331537E9, 0.0, 2022-05-30 17:13:28.331
96.0, -5415.805329776446, -13596.02971029636, -59737.316934742565, -38178.65707619871, -24820.91931354038, -30485.83483527122, -17901.44507902206, -36419.50773233268, -0.006, 1.022, 0.068, 192.0, 0.0, 0.0, 0.0, 0.0, 0.0, 0.0, 0.0, 0.0, 0.0, 1.653923608331545E9, 0.0, 2022-05-30 17:13:28.331
97.0, -5377.516791524505, -13598.488402186442, -59823.41585438441, -38267.46055691964, -24452.629620150285, -30132.029072288165, -17709.30948368424, -36408.95770894977, -0.006, 1.022, 0.068, 192.0, 0.0, 0.0, 0.0, 0.0, 0.0, 0.0, 0.0, 0.0, 0.0, 1.6539236083315535E9, 0.0, 2022-05-30 17:13:28.331
98.0, -5458.474809941627, -13632.641867714152, -59797.376072093975, -38247.63455958779, -24882.028982881187, -30577.991077660452, -18009.493411719013, -36517.20720734682, -0.004, 1.024, 0.058, 192.0, 255.0, 224.0, 32.0, 0.0, 1.0, 208.0, 0.0, 0.0, 0.0, 1.6539236083315606E9, 0.0, 2022-05-30 17:13:28.331
99.0, -5542.785590027045, -13649.338620822266, -59668.115933908935, -38127.15865697368, -25523.926380148696, -31191.099428069527, -18385.315642990547, -36582.317838945135, -0.004, 1.024, 0.058, 192.0, 0.0, 0.0, 0.0, 0.0, 0.0, 0.0, 0.0, 0.0, 0.0, 1.6539236083315675E9, 0.0, 2022-05-30 17:13:28.331
100.0, -5489.521382990049, -13592.74400386143, -59643.46195977473, -38102.3929241172, -25406.177390358138, -31004.350603145434, -18260.168225785284, -36488.97695409977, -0.004, 1.024, 0.058, 192.0, 0.0, 0.0, 0.0, 0.0, 0.0, 0.0, 0.0, 0.0, 0.0, 1.6539236083315763E9, 0.0, 2022-05-30 17:13:28.331
101.0, -5408.093977939365, -13579.377660677155, -59731.930164328835, -38175.550183719424, -24829.032996777656, -30497.211873198972, -17903.16616334512, -36415.10443867498, -0.004, 1.024, 0.058, 192.0, 0.0, 0.0, 0.0, 0.0, 0.0, 0.0, 0.0, 0.0, 0.0, 1.653923608331586E9, 0.0, 2022-05-30 17:13:28.331
102.0, -5378.813192702913, -13591.916989316582, -59833.4741393893, -38261.537344638986, -24457.63641090827, -30135.91827582339, -17711.321140685217, -36409.06946767205, -0.004, 1.024, 0.058, 192.0, 0.0, 0.0, 0.0, 0.0, 0.0, 0.0, 0.0, 0.0, 0.0, 1.6539236083315933E9, 0.0, 2022-05-30 17:13:28.331
103.0, -5448.818856336935, -13625.913992633104, -59794.35858659251, -38239.34206239487, -24878.810331679622, -30575.53238577037, -18009.94044660812, -36525.07502139509, -0.004, 1.024, 0.058, 192.0, 0.0, 0.0, 0.0, 0.0, 0.0, 0.0, 0.0, 0.0, 0.0, 1.6539236083316011E9, 0.0, 2022-05-30 17:13:28.331
104.0, -5533.934299222744, -13642.096655618747, -59665.70194550776, -38124.27528193895, -25516.99733936755, -31191.904090869917, -18379.839465598998, -36588.55397564817, -0.004, 1.024, 0.058, 192.0, 0.0, 0.0, 0.0, 0.0, 0.0, 0.0, 0.0, 0.0, 0.0, 1.653923608331617E9, 0.0, 2022-05-30 17:13:28.331
105.0, -5492.5165167470595, -13604.232800511456, -59653.654355246355, -38101.70002003908, -25414.581646273335, -31024.46717315521, -18267.90192936682, -36517.65424223593, -0.004, 1.024, 0.058, 192.0, 0.0, 0.0, 0.0, 0.0, 0.0, 0.0, 0.0, 0.0, 0.0, 1.653923608331627E9, 0.0, 2022-05-30 17:13:28.331
106.0, -5408.161033172731, -13590.330015460255, -59737.42869346484, -38180.33345703286, -24844.790976618646, -30509.99707102741, -17916.64426525167, -36429.074278959546, -0.004, 1.024, 0.058, 192.0, 0.0, 0.0, 0.0, 0.0, 0.0, 0.0, 0.0, 0.0, 0.0, 1.653923608331637E9, 0.0, 2022-05-30 17:13:28.331
107.0, -5374.186381600664, -13591.961692805493, -59827.10389221954, -38267.16998424172, -24461.480910954586, -30133.325473466575, -17719.680693111502, -36407.57190079354, -0.002, 1.026, 0.062, 192.0, 255.0, 240.0, 32.0, 16.0, 1.0, 240.0, 0.0, 0.0, 0.0, 1.6539236088095355E9, 0.0, 2022-05-30 17:13:28.809
108.0, -5456.038469795999, -13634.161786337112, -59796.482002315766, -38264.77834758501, -24874.67525895539, -30578.169891616097, -18018.858792645788, -36535.55798954463, -0.002, 1.026, 0.062, 192.0, 0.0, 0.0, 0.0, 0.0, 0.0, 0.0, 0.0, 0.0, 0.0, 1.6539236088097255E9, 0.0, 2022-05-30 17:13:28.809
109.0, -5542.249148160118, -13640.688495718063, -59669.12176240943, -38122.82241854935, -25510.649443942242, -31190.205358291314, -18373.513921918147, -36578.69685634338, -0.002, 1.026, 0.062, 192.0, 0.0, 0.0, 0.0, 0.0, 0.0, 0.0, 0.0, 0.0, 0.0, 1.653923608809732E9, 0.0, 2022-05-30 17:13:28.809
110.0, -5499.400854039294, -13599.047195797826, -59646.434741787285, -38090.14416815569, -25411.877085194243, -31009.938539259263, -18257.75423738411, -36481.19854702932, -0.002, 1.026, 0.062, 192.0, 0.0, 0.0, 0.0, 0.0, 0.0, 0.0, 0.0, 0.0, 0.0, 1.6539236088097384E9, 0.0, 2022-05-30 17:13:28.809
111.0, -5428.054085737955, -13597.706091130507, -59736.22169926426, -38184.06619835689, -24839.650075393925, -30502.196312212505, -17908.485878525484, -36408.644784527394, -0.002, 1.026, 0.062, 192.0, 0.0, 0.0, 0.0, 0.0, 0.0, 0.0, 0.0, 0.0, 0.0, 1.653923608809744E9, 0.0, 2022-05-30 17:13:28.809
112.0, -5393.028902176488, -13603.361082477699, -59830.7695783102, -38265.11362375184, -24455.960030074126, -30136.67823513487, -17714.11510874213, -36409.02476418314, -0.002, 1.026, 0.062, 192.0, 0.0, 0.0, 0.0, 0.0, 0.0, 0.0, 0.0, 0.0, 0.0, 1.6539236088097508E9, 0.0, 2022-05-30 17:13:28.809
113.0, -5473.338720004406, -13652.400809812643, -59803.34398786354, -38264.57718188491, -24861.420674493394, -30558.27683905087, -18005.35833899478, -36528.38307957448, -0.002, 1.026, 0.062, 192.0, 0.0, 0.0, 0.0, 0.0, 0.0, 0.0, 0.0, 0.0, 0.0, 1.6539236088097572E9, 0.0, 2022-05-30 17:13:28.809
114.0, -5565.383203671361, -13673.053821689347, -59684.544466083586, -38152.125555530256, -25514.13631607727, -31183.566890188085, -18380.599424910477, -36586.922298302925, -0.002, 1.026, 0.062, 192.0, 0.0, 0.0, 0.0, 0.0, 0.0, 0.0, 0.0, 0.0, 0.0, 1.6539236088097632E9, 0.0, 2022-05-30 17:13:28.809
115.0, -5509.392083810817, -13619.677855930073, -59655.77777096961, -38099.01781070445, -25433.468870338067, -31025.942388289262, -18278.38489751636, -36503.34912578453, -0.002, 1.026, 0.062, 192.0, 0.0, 0.0, 0.0, 0.0, 0.0, 0.0, 0.0, 0.0, 0.0, 1.653923608809769E9, 0.0, 2022-05-30 17:13:28.809
116.0, -5412.206698919142, -13605.193925523035, -59736.08758879753, -38183.95443963462, -24850.82594762158, -30507.47132390396, -17916.487803040483, -36420.960595722274, -0.002, 1.026, 0.062, 192.0, 0.0, 0.0, 0.0, 0.0, 0.0, 0.0, 0.0, 0.0, 0.0, 1.6539236088097749E9, 0.0, 2022-05-30 17:13:28.809
117.0, -5383.551762527438, -13604.858649356205, -59830.07667423209, -38271.23800173259, -24463.760788889027, -30137.72876712427, -17717.64668436607, -36406.25314787068, -0.004, 1.022, 0.062, 192.0, 255.0, 224.0, 31.0, 240.0, 1.0, 240.0, 0.0, 0.0, 0.0, 1.6539236088097806E9, 0.0, 2022-05-30 17:13:28.809
118.0, -5467.281397257018, -13647.326963821288, -59807.38965360996, -38260.28564694949, -24862.471206482795, -30557.47217625048, -17999.546885436404, -36525.58911151756, -0.004, 1.022, 0.062, 192.0, 0.0, 0.0, 0.0, 0.0, 0.0, 0.0, 0.0, 0.0, 0.0, 1.653923608809786E9, 0.0, 2022-05-30 17:13:28.809
119.0, -5560.935206524755, -13670.013984443425, -59687.85252426297, -38157.46762245508, -25522.518220248014, -31200.576567718577, -18382.34286097799, -36605.25072875628, -0.004, 1.022, 0.062, 192.0, 0.0, 0.0, 0.0, 0.0, 0.0, 0.0, 0.0, 0.0, 0.0, 1.653923608809792E9, 0.0, 2022-05-30 17:13:28.809
120.0, -5498.260915072074, -13610.804213381316, -59650.45805578924, -38108.13732244221, -25437.827460506855, -31038.839344839973, -18277.5131794826, -36512.669803222394, -0.004, 1.022, 0.062, 192.0, 0.0, 0.0, 0.0, 0.0, 0.0, 0.0, 0.0, 0.0, 0.0, 1.6539236088097975E9, 0.0, 2022-05-30 17:13:28.809
121.0, -5412.1619954302305, -13583.915064801582, -59726.699856126295, -38170.655151683706, -24858.0679128251, -30515.026213529854, -17914.8784774397, -36426.99556672521, -0.004, 1.022, 0.062, 192.0, 0.0, 0.0, 0.0, 0.0, 0.0, 0.0, 0.0, 0.0, 0.0, 1.6539236088098032E9, 0.0, 2022-05-30 17:13:28.809
122.0, -5382.009492160022, -13588.49717241492, -59827.59563059755, -38262.87844930631, -24465.07954181189, -30135.58299965656, -17709.376538917608, -36410.49997931719, -0.004, 1.022, 0.062, 192.0, 0.0, 0.0, 0.0, 0.0, 0.0, 0.0, 0.0, 0.0, 0.0, 1.6539236088098092E9, 0.0, 2022-05-30 17:13:28.809
123.0, -5462.118144287842, -13640.666143973607, -59805.04272044215, -38261.470289405624, -24853.575212189582, -30543.636446432647, -17990.449725443093, -36520.2693963372, -0.004, 1.022, 0.062, 192.0, 0.0, 0.0, 0.0, 0.0, 0.0, 0.0, 0.0, 0.0, 0.0, 1.6539236088098147E9, 0.0, 2022-05-30 17:13:28.809
124.0, -5553.29090992104, -13661.18504538358, -59683.65039630538, -38149.823325851365, -25522.093537103363, -31197.670840939387, -18384.22040751224, -36593.56076640615, -0.004, 1.022, 0.062, 192.0, 0.0, 0.0, 0.0, 0.0, 0.0, 0.0, 0.0, 0.0, 0.0, 1.6539236088098204E9, 0.0, 2022-05-30 17:13:28.809
125.0, -5500.920772662255, -13610.558344192308, -59656.783599470094, -38110.35014514329, -25452.69137056963, -31054.217345025227, -18285.313938297502, -36513.519169511696, -0.004, 1.022, 0.062, 192.0, 0.0, 0.0, 0.0, 0.0, 0.0, 0.0, 0.0, 0.0, 0.0, 1.6539236088098261E9, 0.0, 2022-05-30 17:13:28.809
126.0, -5417.012323977033, -13591.78287884985, -59726.699856126295, -38176.28779128645, -24878.050372368143, -30534.76280388389, -17925.428500822603, -36423.061659701074, -0.004, 1.022, 0.062, 192.0, 0.0, 0.0, 0.0, 0.0, 0.0, 0.0, 0.0, 0.0, 0.0, 1.653923608809832E9, 0.0, 2022-05-30 17:13:28.809
127.0, -5390.413748075217, -13603.02580631087, -59840.51493889272, -38273.204955244655, -24467.806454635436, -30145.149546283432, -17709.64475985107, -36414.523293319144, -0.002, 1.024, 0.064, 192.0, 255.0, 240.0, 32.0, 0.0, 2.0, 0.0, 0.0, 0.0, 0.0, 1.6539236088098376E9, 0.0, 2022-05-30 17:13:28.809
128.0, -5461.849923354379, -13648.13162662168, -59820.28661016066, -38266.074748763414, -24850.133043543465, -30551.303094780815, -17992.640196399712, -36536.876742467495, -0.002, 1.024, 0.064, 192.0, 0.0, 0.0, 0.0, 0.0, 0.0, 0.0, 0.0, 0.0, 0.0, 1.6539236088098533E9, 0.0, 2022-05-30 17:13:28.809
129.0, -5545.020764472576, -13661.632080272686, -59682.13047768241, -38139.206247235095, -25509.733022419576, -31182.225785520768, -18369.714125360744, -36584.687123857395, -0.002, 1.024, 0.064, 192.0, 0.0, 0.0, 0.0, 0.0, 0.0, 0.0, 0.0, 0.0, 0.0, 1.653923608809859E9, 0.0, 2022-05-30 17:13:28.809
130.0, -5505.011141897577, -13617.777957651373, -59652.112084878936, -38108.852578264785, -25451.88670776924, -31041.6780163858, -18274.920377125785, -36503.729105440274, -0.002, 1.024, 0.064, 192.0, 0.0, 0.0, 0.0, 0.0, 0.0, 0.0, 0.0, 0.0, 0.0, 1.6539236088098643E9, 0.0, 2022-05-30 17:13:28.809
131.0, -5427.607050848848, -13609.351349991723, -59742.25667026719, -38196.20319559613, -24885.493503271762, -30537.199144029517, -17928.334227601794, -36436.31624416307, -0.002, 1.024, 0.064, 192.0, 0.0, 0.0, 0.0, 0.0, 0.0, 0.0, 0.0, 0.0, 0.0, 1.6539236088098695E9, 0.0, 2022-05-30 17:13:28.809
132.0, -5379.282579336475, -13606.669140657084, -59831.618944599504, -38247.85807703234, -24465.1242453008, -30134.57717115607, -17706.13553597159, -36406.3425548485, -0.002, 1.024, 0.064, 192.0, 0.0, 0.0, 0.0, 0.0, 0.0, 0.0, 0.0, 0.0, 0.0, 1.6539236088098748E9, 0.0, 2022-05-30 17:13:28.809
133.0, -5444.683783612702, -13644.4212370421, -59807.68022628787, -38240.57140833991, -24830.083528767056, -30522.782268855844, -17976.211664225062, -36510.12170435449, -0.002, 1.024, 0.064, 192.0, 0.0, 0.0, 0.0, 0.0, 0.0, 0.0, 0.0, 0.0, 0.0, 1.6539236088098805E9, 0.0, 2022-05-30 17:13:28.809
134.0, -5542.629127815858, -13675.579568812796, -59694.71450981075, -38147.05170953891, -25504.994452595052, -31181.331715742555, -18367.68011661531, -36594.45483618436, -0.002, 1.024, 0.064, 192.0, 0.0, 0.0, 0.0, 0.0, 0.0, 0.0, 0.0, 0.0, 0.0, 1.6539236088098857E9, 0.0, 2022-05-30 17:13:28.809
135.0, -5498.417377283261, -13633.60299272573, -59651.195663356266, -38107.28795615291, -25456.04413223793, -31045.254295498646, -18277.848455649433, -36497.62707920397, -0.002, 1.024, 0.064, 192.0, 0.0, 0.0, 0.0, 0.0, 0.0, 0.0, 0.0, 0.0, 0.0, 1.6539236088098912E9, 0.0, 2022-05-30 17:13:28.809
136.0, -5415.939440243178, -13615.520431461387, -59734.67942889684, -38178.88059364326, -24888.980375406787, -30533.064071305285, -17929.45181482456, -36410.79055199511, -0.002, 1.024, 0.064, 192.0, 0.0, 0.0, 0.0, 0.0, 0.0, 0.0, 0.0, 0.0, 0.0, 1.6539236088098965E9, 0.0, 2022-05-30 17:13:28.809
137.0, -5380.556628770427, -13624.617591454697, -59839.79968307015, -38273.137900011294, -24470.823940136903, -30139.047520047134, -17717.80314657726, -36416.51259857567, -0.002, 1.024, 0.064, 192.0, 0.0, 0.0, 31.0, 240.0, 1.0, 224.0, 0.0, 0.0, 0.0, 1.6539236088099017E9, 0.0, 2022-05-30 17:13:28.809
138.0, -5442.225091722619, -13660.961527939025, -59808.50724083272, -38256.642312603275, -24830.30704621161, -30522.536399666835, -17989.153324264684, -36528.67365225239, -0.002, 1.024, 0.064, 192.0, 0.0, 0.0, 0.0, 0.0, 0.0, 0.0, 0.0, 0.0, 0.0, 1.6539236088099067E9, 0.0, 2022-05-30 17:13:28.809
139.0, -5538.00231671361, -13690.801106786861, -59684.94679748378, -38144.41420369318, -25505.262673528516, -31176.79431161813, -18374.050363785074, -36588.95630704836, -0.002, 1.024, 0.064, 192.0, 0.0, 0.0, 0.0, 0.0, 0.0, 0.0, 0.0, 0.0, 0.0, 1.6539236088099122E9, 0.0, 2022-05-30 17:13:28.809
140.0, -5504.675865730746, -13659.955699438537, -59657.409448314844, -38110.48425561002, -25469.74575158903, -31059.3805979944, -18298.456764037226, -36516.29078582416, -0.002, 1.024, 0.064, 192.0, 0.0, 0.0, 0.0, 0.0, 0.0, 0.0, 0.0, 0.0, 0.0, 1.6539236088099177E9, 0.0, 2022-05-30 17:13:28.809
141.0, -5420.163919945231, -13641.157882351623, -59728.800920105095, -38178.277096542966, -24898.97160517831, -30541.155402798107, -17947.333210388806, -36429.566017337565, -0.002, 1.024, 0.064, 192.0, 0.0, 0.0, 0.0, 0.0, 0.0, 0.0, 0.0, 0.0, 0.0, 1.6539236088099227E9, 0.0, 2022-05-30 17:13:28.809
142.0, -5390.413748075217, -13662.749667495451, -59838.65974410293, -38283.710275138656, -24474.377867505296, -30147.29531375114, -17721.51353615684, -36417.339613120515, -0.002, 1.024, 0.064, 192.0, 0.0, 0.0, 0.0, 0.0, 0.0, 0.0, 0.0, 0.0, 0.0, 1.653923608809928E9, 0.0, 2022-05-30 17:13:28.809
143.0, -5449.8470365818785, -13692.701005065563, -59810.83182225607, -38262.47611790611, -24824.1603164864, -30524.302187478806, -17977.351603192285, -36532.20522787634, -0.002, 1.024, 0.064, 192.0, 0.0, 0.0, 0.0, 0.0, 0.0, 0.0, 0.0, 0.0, 0.0, 1.6539236088099332E9, 0.0, 2022-05-30 17:13:28.809
144.0, -5539.030496958554, -13723.05467403587, -59687.36078588496, -38151.54441017442, -25495.494961201544, -31178.470692452276, -18366.316660203538, -36602.61322291055, -0.002, 1.024, 0.064, 192.0, 0.0, 0.0, 0.0, 0.0, 0.0, 0.0, 0.0, 0.0, 0.0, 1.6539236088099387E9, 0.0, 2022-05-30 17:13:28.809
145.0, -5494.75169119259, -13692.18691494309, -59651.01684940063, -38117.45799988008, -25470.95274578962, -31075.42915051331, -18304.894066440353, -36522.057535893626, -0.002, 1.024, 0.064, 192.0, 0.0, 0.0, 0.0, 0.0, 0.0, 0.0, 0.0, 0.0, 0.0, 1.653923608809944E9, 0.0, 2022-05-30 17:13:28.809
146.0, -5409.993876218066, -13683.223865416512, -59732.46660619576, -38184.22266056808, -24909.543980305672, -30562.724836197478, -17952.518815102438, -36420.58061606653, -0.002, 1.024, 0.064, 192.0, 0.0, 0.0, 0.0, 0.0, 0.0, 0.0, 0.0, 0.0, 0.0, 1.6539236088099492E9, 0.0, 2022-05-30 17:13:28.809
147.0, -5370.654805976726, -13692.924522510115, -59831.39542715495, -38270.36628369884, -24481.239853053077, -30147.384720728962, -17719.926562300512, -36398.07240940004, 0.002, 1.024, 0.06, 192.0, 0.0, 16.0, 32.0, 0.0, 1.0, 224.0, 0.0, 0.0, 0.0, 1.6539236088099544E9, 0.0, 2022-05-30 17:13:28.809
