%OpenBCI Raw EEG Data
%Number of channels = 8
%Sample Rate = 250 Hz
%Board = OpenBCI_GUI$BoardCytonSerial
Sample Index, EXG Channel 0, EXG Channel 1, EXG Channel 2, EXG Channel 3, EXG Channel 4, EXG Channel 5, EXG Channel 6, EXG Channel 7, Accel Channel 0, Accel Channel 1, Accel Channel 2, Other, Other, Other, Other, Other, Other, Other, Analog Channel 0, Analog Channel 1, Analog Channel 2, Timestamp, Other, Timestamp (Formatted)
0.0, 0.0, 0.0, 0.0, 0.0, 0.0, 0.0, 0.0, 0.0, 0.0, 0.0, 0.0, 192.0, 0.0, 0.0, 0.0, 0.0, 0.0, 0.0, 0.0, 0.0, 0.0, 1.654156408966768E9, 0.0, 2022-06-02 09:53:28.966
1.0, 24342.256706029977, 1624.569490500628, -77110.85851321918, -52790.32770279977, -37503.165007014875, -37929.03279412184, -6258.913130630628, -45274.486574469396, 0.024, 0.796, 0.642, 192.0, 0.0, 192.0, 24.0, 224.0, 20.0, 16.0, 0.0, 0.0, 0.0, 1.6541564094516697E9, 0.0, 2022-06-02 09:53:29.451
2.0, 24350.035113100424, 1635.1865691168987, -77108.44452481801, -52778.99536836093, -37508.060039050586, -37927.13289584314, -6297.20166888257, -45307.18717660751, 0.024, 0.796, 0.642, 192.0, 0.0, 0.0, 0.0, 0.0, 0.0, 0.0, 0.0, 0.0, 0.0, 1.654156409451677E9, 0.0, 2022-06-02 09:53:29.451
3.0, 24341.787319396415, 1618.109836353044, -77141.77097580087, -52810.2654588539, -37538.27959755416, -37961.28636137085, -6331.511596621465, -45357.09862197621, 0.024, 0.796, 0.642, 192.0, 0.0, 0.0, 0.0, 0.0, 0.0, 0.0, 0.0, 0.0, 0.0, 1.6541564094516828E9, 0.0, 2022-06-02 09:53:29.451
4.0, 24350.325685778345, 1622.1555020994547, -77132.02561521836, -52807.04680765233, -37526.857856137496, -37964.61677129469, -6307.3717126097345, -45331.05883968578, 0.024, 0.796, 0.642, 192.0, 0.0, 0.0, 0.0, 0.0, 0.0, 0.0, 0.0, 0.0, 0.0, 1.6541564094516883E9, 0.0, 2022-06-02 09:53:29.451
5.0, 24359.132273093735, 1636.9970604177786, -77100.37554506965, -52786.68436845355, -37503.67909713735, -37948.03177690885, -6293.24541011398, -45310.31642083126, 0.024, 0.796, 0.642, 192.0, 0.0, 0.0, 0.0, 0.0, 0.0, 0.0, 0.0, 0.0, 0.0, 1.654156409451694E9, 0.0, 2022-06-02 09:53:29.451
6.0, 24343.798976397393, 1634.4936650387842, -77097.447466546, -52788.49485975443, -37505.42253320486, -37952.122146144175, -6271.81008718134, -45324.08509541573, 0.024, 0.796, 0.642, 192.0, 0.0, 0.0, 0.0, 0.0, 0.0, 0.0, 0.0, 0.0, 0.0, 1.6541564094516997E9, 0.0, 2022-06-02 09:53:29.451
7.0, 24334.075967559336, 1624.6588974784493, -77114.99358594342, -52798.30727557031, -37525.874379381465, -37963.56623930529, -6316.15594818067, -45362.574799367765, 0.024, 0.796, 0.642, 192.0, 0.0, 0.0, 0.0, 0.0, 0.0, 0.0, 0.0, 0.0, 0.0, 1.6541564094517055E9, 0.0, 2022-06-02 09:53:29.451
8.0, 24340.133290306723, 1612.410141516941, -77145.50371712491, -52822.13423515967, -37542.43702202285, -37980.84413776924, -6354.9138730661725, -45377.326950708266, 0.022, 0.794, 0.636, 192.0, 0.0, 176.0, 24.0, 208.0, 19.0, 224.0, 0.0, 0.0, 0.0, 1.6541564094517107E9, 0.0, 2022-06-02 09:53:29.451
9.0, 24332.53369719192, 1598.216783787821, -77157.64071436414, -52833.37716262069, -37549.70133897082, -37991.64003034116, -6329.6787535761305, -45350.03547072834, 0.022, 0.794, 0.636, 192.0, 0.0, 0.0, 0.0, 0.0, 0.0, 0.0, 0.0, 0.0, 0.0, 1.6541564094517164E9, 0.0, 2022-06-02 09:53:29.451
10.0, 24324.62117965474, 1601.4130832449298, -77138.17234494357, -52817.574479290786, -37533.071641096074, -37975.814995266795, -6301.493203817989, -45312.43983655451, 0.022, 0.794, 0.636, 192.0, 0.0, 0.0, 0.0, 0.0, 0.0, 0.0, 0.0, 0.0, 0.0, 1.654156409451722E9, 0.0, 2022-06-02 09:53:29.451
11.0, 24337.62989492773, 1628.9727841583235, -77104.10828639368, -52784.67271145257, -37498.672306379354, -37939.538114015835, -6279.521439018422, -45282.82377515123, 0.022, 0.794, 0.636, 192.0, 0.0, 0.0, 0.0, 0.0, 0.0, 0.0, 0.0, 0.0, 0.0, 1.6541564094517276E9, 0.0, 2022-06-02 09:53:29.451
12.0, 24342.97196185255, 1635.2983278391753, -77108.08689690672, -52783.219848062974, -37497.62177438996, -37937.21353259248, -6290.5855525237985, -45309.712923730964, 0.022, 0.794, 0.636, 192.0, 0.0, 0.0, 0.0, 0.0, 0.0, 0.0, 0.0, 0.0, 0.0, 1.654156409451733E9, 0.0, 2022-06-02 09:53:29.451
13.0, 24329.046825056892, 1606.8222054031141, -77162.37928418866, -52830.560842819315, -37541.8111731781, -37982.20759418102, -6330.103436720781, -45368.94504653753, 0.022, 0.794, 0.636, 192.0, 0.0, 0.0, 0.0, 0.0, 0.0, 0.0, 0.0, 0.0, 0.0, 1.6541564094517384E9, 0.0, 2022-06-02 09:53:29.451
14.0, 24333.33835999231, 1606.3304670250973, -77163.29570571134, -52832.88542424267, -37546.90737091391, -37994.1657774646, -6334.797303056396, -45366.1063749917, 0.022, 0.794, 0.636, 192.0, 0.0, 0.0, 0.0, 0.0, 0.0, 0.0, 0.0, 0.0, 0.0, 1.654156409451744E9, 0.0, 2022-06-02 09:53:29.451
15.0, 24326.163450022155, 1608.9009176374577, -77148.54355437083, -52818.08856941326, -37541.85587666701, -37979.65949531311, -6326.549509352388, -45346.1015637042, 0.022, 0.794, 0.636, 192.0, 0.0, 0.0, 0.0, 0.0, 0.0, 0.0, 0.0, 0.0, 0.0, 1.6541564094517496E9, 0.0, 2022-06-02 09:53:29.451
16.0, 24329.96324657956, 1626.603499246061, -77122.14614416912, -52793.6134092347, -37516.26312926568, -37957.352454346714, -6291.4349188131, -45318.474807557446, 0.022, 0.794, 0.636, 192.0, 0.0, 0.0, 0.0, 0.0, 0.0, 0.0, 0.0, 0.0, 0.0, 1.6541564094517553E9, 0.0, 2022-06-02 09:53:29.451
17.0, 24329.538563434908, 1626.1564643569548, -77124.6048360592, -52790.21594407749, -37522.92394911336, -37957.643027024635, -6301.493203817989, -45335.46213334348, 0.022, 0.794, 0.636, 192.0, 0.0, 0.0, 0.0, 0.0, 0.0, 0.0, 0.0, 0.0, 0.0, 1.654156409451761E9, 0.0, 2022-06-02 09:53:29.451
18.0, 24329.985598324016, 1608.7444554262706, -77155.07026375178, -52816.94863044604, -37549.4107662929, -37984.15219594863, -6343.603890371787, -45387.1617182686, 0.022, 0.794, 0.634, 192.0, 0.0, 176.0, 24.0, 208.0, 19.0, 208.0, 0.0, 0.0, 0.0, 1.6541564094517665E9, 0.0, 2022-06-02 09:53:29.451
19.0, 24337.786357138917, 1607.1574815699437, -77153.39388291763, -52821.195461892545, -37550.215429093296, -37993.20465245302, -6346.911948551172, -45380.36678795419, 0.022, 0.794, 0.634, 192.0, 0.0, 0.0, 0.0, 0.0, 0.0, 0.0, 0.0, 0.0, 0.0, 1.6541564094517725E9, 0.0, 2022-06-02 09:53:29.451
20.0, 24328.868011101247, 1605.056417591145, -77137.18886818754, -52809.05846465331, -37539.307777799106, -37979.65949531311, -6317.25118365898, -45332.48935133092, 0.022, 0.794, 0.634, 192.0, 0.0, 0.0, 0.0, 0.0, 0.0, 0.0, 0.0, 0.0, 0.0, 1.654156409451778E9, 0.0, 2022-06-02 09:53:29.451
21.0, 24317.96035980706, 1605.5481559691616, -77125.83418200424, -52801.95060991652, -37527.59546370452, -37966.47196608448, -6308.7798725104185, -45316.01611566736, 0.022, 0.794, 0.634, 192.0, 0.0, 0.0, 0.0, 0.0, 0.0, 0.0, 0.0, 0.0, 0.0, 1.6541564094517837E9, 0.0, 2022-06-02 09:53:29.451
22.0, 24310.070194014337, 1601.9718768563125, -77137.2559234209, -52816.50159555693, -37538.816039421086, -37973.69157954354, -6332.092741977303, -45345.56512183727, 0.022, 0.794, 0.634, 192.0, 0.0, 0.0, 0.0, 0.0, 0.0, 0.0, 0.0, 0.0, 0.0, 1.6541564094518E9, 0.0, 2022-06-02 09:53:29.451
23.0, 24297.553217119363, 1583.4199289584076, -77182.49585419844, -52857.047659998854, -37574.80234799413, -38004.42522816959, -6361.015899302471, -45388.592229913746, 0.022, 0.794, 0.634, 192.0, 0.0, 0.0, 0.0, 0.0, 0.0, 0.0, 0.0, 0.0, 0.0, 1.654156409451806E9, 0.0, 2022-06-02 09:53:29.451
24.0, 24308.729089347016, 1588.247905760754, -77179.65718265262, -52856.89119778767, -37575.584659050066, -38011.17545499509, -6362.4911144365215, -45389.17337526958, 0.022, 0.794, 0.634, 192.0, 0.0, 0.0, 0.0, 0.0, 0.0, 0.0, 0.0, 0.0, 0.0, 1.6541564094518132E9, 0.0, 2022-06-02 09:53:29.451
25.0, 24331.14788903569, 1612.2536793057538, -77145.07903398026, -52824.347057860745, -37544.15810634591, -37986.27561167188, -6338.105361235781, -45369.8614680602, 0.022, 0.794, 0.634, 192.0, 0.0, 0.0, 0.0, 0.0, 0.0, 0.0, 0.0, 0.0, 0.0, 1.6541564094518187E9, 0.0, 2022-06-02 09:53:29.451
26.0, 24333.450118714587, 1625.2400428342871, -77125.02951920385, -52804.6104675067, -37524.823847392065, -37964.92969571706, -6322.034456972416, -45357.813877798784, 0.022, 0.794, 0.634, 192.0, 0.0, 0.0, 0.0, 0.0, 0.0, 0.0, 0.0, 0.0, 0.0, 1.654156409451824E9, 0.0, 2022-06-02 09:53:29.451
27.0, 24328.39862446769, 1621.8202259326251, -77131.13154544015, -52808.611429764205, -37531.417612006386, -37966.20374515102, -6332.0256867439375, -45363.11124123469, 0.02, 0.8, 0.636, 192.0, 0.0, 160.0, 25.0, 0.0, 19.0, 224.0, 0.0, 0.0, 0.0, 1.6541564094518292E9, 0.0, 2022-06-02 09:53:29.451
28.0, 24333.24895301449, 1613.5277287397062, -77158.17715623108, -52831.87959574218, -37555.445737295835, -37981.537041847354, -6366.380317971745, -45386.200593257025, 0.02, 0.8, 0.636, 192.0, 0.0, 0.0, 0.0, 0.0, 0.0, 0.0, 0.0, 0.0, 0.0, 1.6541564094518344E9, 0.0, 2022-06-02 09:53:29.451
29.0, 24327.996293067492, 1596.9650860983238, -77168.43660693605, -52843.010764480925, -37571.807214237124, -38004.08995200276, -6375.4551262206, -45391.386197970656, 0.02, 0.8, 0.636, 192.0, 0.0, 0.0, 0.0, 0.0, 0.0, 0.0, 0.0, 0.0, 0.0, 1.65415640945184E9, 0.0, 2022-06-02 09:53:29.451
30.0, 24333.695987903597, 1611.4490165053626, -77131.71269079599, -52812.232412365964, -37534.03276610765, -37970.5623353198, -6312.602020812276, -45329.427162340544, 0.02, 0.8, 0.636, 192.0, 0.0, 0.0, 0.0, 0.0, 0.0, 0.0, 0.0, 0.0, 0.0, 1.6541564094518452E9, 0.0, 2022-06-02 09:53:29.451
31.0, 24326.990464567003, 1621.3061358101531, -77115.55237955479, -52800.18482210456, -37519.81705663408, -37958.87237296967, -6315.664209802653, -45345.63217707064, 0.02, 0.8, 0.636, 192.0, 0.0, 0.0, 0.0, 0.0, 0.0, 0.0, 0.0, 0.0, 0.0, 1.6541564094518504E9, 0.0, 2022-06-02 09:53:29.451
32.0, 24319.86025808576, 1617.6404497194828, -77126.14710642661, -52801.0118366494, -37529.00362360521, -37964.37090210568, -6309.092796932793, -45349.6554910726, 0.02, 0.8, 0.636, 192.0, 0.0, 0.0, 0.0, 0.0, 0.0, 0.0, 0.0, 0.0, 0.0, 1.6541564094518554E9, 0.0, 2022-06-02 09:53:29.451
33.0, 24333.517173947952, 1613.3489147840637, -77149.90701078261, -52818.15562464662, -37548.71786221479, -37963.923867216574, -6313.071407445837, -45324.44272332701, 0.02, 0.8, 0.636, 192.0, 0.0, 0.0, 0.0, 0.0, 0.0, 0.0, 0.0, 0.0, 0.0, 1.6541564094518607E9, 0.0, 2022-06-02 09:53:29.451
34.0, 24340.222697284546, 1618.758036942248, -77144.63199909116, -52814.86991821169, -37545.36510054649, -37966.248448639926, -6297.693407260586, -45315.233804611424, 0.02, 0.8, 0.636, 192.0, 0.0, 0.0, 0.0, 0.0, 0.0, 0.0, 0.0, 0.0, 0.0, 1.654156409451866E9, 0.0, 2022-06-02 09:53:29.451
35.0, 24334.321836748342, 1625.0612288786447, -77133.43377511905, -52801.79414770534, -37532.28933004014, -37957.486564813444, -6302.34257010729, -45317.133702890125, 0.02, 0.8, 0.636, 192.0, 0.0, 0.0, 0.0, 0.0, 0.0, 0.0, 0.0, 0.0, 0.0, 1.6541564094518712E9, 0.0, 2022-06-02 09:53:29.451
36.0, 24343.262534530466, 1642.8308657206137, -77106.85755096168, -52778.70479568301, -37504.59551866001, -37937.928788415054, -6283.455346042556, -45302.40390329408, 0.02, 0.8, 0.636, 192.0, 0.0, 0.0, 0.0, 0.0, 0.0, 0.0, 0.0, 0.0, 0.0, 1.6541564094518764E9, 0.0, 2022-06-02 09:53:29.451
37.0, 24345.542412464907, 1645.5130750552507, -77102.9012921931, -52777.698967182514, -37490.37980918644, -37933.27962556835, -6217.115368499204, -45299.20760383697, 0.014, 0.786, 0.638, 192.0, 0.0, 112.0, 24.0, 144.0, 19.0, 240.0, 0.0, 0.0, 0.0, 1.6541564094518814E9, 0.0, 2022-06-02 09:53:29.451
38.0, 24335.752348393482, 1624.2118625893431, -77153.23742070644, -52815.58517403426, -37520.73347815675, -37962.47100382698, -6283.321235575823, -45342.39117412462, 0.014, 0.786, 0.638, 192.0, 0.0, 0.0, 0.0, 0.0, 0.0, 0.0, 0.0, 0.0, 0.0, 1.654156409451887E9, 0.0, 2022-06-02 09:53:29.451
39.0, 24345.162432809168, 1627.8104934466473, -77155.13731898514, -52814.35582808922, -37533.8092486631, -37969.109471930205, -6320.939221494105, -45341.40769736859, 0.014, 0.786, 0.638, 192.0, 0.0, 0.0, 0.0, 0.0, 0.0, 0.0, 0.0, 0.0, 0.0, 1.654156409451892E9, 0.0, 2022-06-02 09:53:29.451
40.0, 24365.413113285675, 1652.8667989810467, -77114.92653071006, -52774.68148168105, -37506.875396594456, -37933.95017790201, -6295.145308392681, -45304.482615528425, 0.014, 0.786, 0.638, 192.0, 0.0, 0.0, 0.0, 0.0, 0.0, 0.0, 0.0, 0.0, 0.0, 1.6541564094518971E9, 0.0, 2022-06-02 09:53:29.451
41.0, 24345.87768863174, 1642.406182575963, -77113.60777778718, -52776.91665612658, -37509.19997801781, -37936.095945369714, -6293.8712589587285, -45307.567156263256, 0.014, 0.786, 0.638, 192.0, 0.0, 0.0, 0.0, 0.0, 0.0, 0.0, 0.0, 0.0, 0.0, 1.6541564094519022E9, 0.0, 2022-06-02 09:53:29.451
42.0, 24330.834964613317, 1631.923214426424, -77127.93524598304, -52789.83596442175, -37524.89090262543, -37946.48950654143, -6302.119052662737, -45320.37470583615, 0.014, 0.786, 0.638, 192.0, 0.0, 0.0, 0.0, 0.0, 0.0, 0.0, 0.0, 0.0, 0.0, 1.6541564094519072E9, 0.0, 2022-06-02 09:53:29.451
43.0, 24340.513269962463, 1629.531577769706, -77151.29281893883, -52807.44913905253, -37546.88501916946, -37956.57014329078, -6336.7195530795525, -45339.7536682789, 0.014, 0.786, 0.638, 192.0, 0.0, 0.0, 0.0, 0.0, 0.0, 0.0, 0.0, 0.0, 0.0, 1.6541564094519153E9, 0.0, 2022-06-02 09:53:29.451
44.0, 24345.497708975996, 1627.2293480908095, -77160.6581998656, -52817.574479290786, -37553.992873906245, -37972.17166092058, -6340.496997892499, -45349.07434571676, 0.014, 0.786, 0.638, 192.0, 0.0, 0.0, 0.0, 0.0, 0.0, 0.0, 0.0, 0.0, 0.0, 1.6541564094519205E9, 0.0, 2022-06-02 09:53:29.451
45.0, 24351.644438701205, 1644.3954878324853, -77128.51639133888, -52790.6629789666, -37521.828713635055, -37957.41950958008, -6307.237602143002, -45322.92280470405, 0.014, 0.786, 0.638, 192.0, 0.0, 0.0, 0.0, 0.0, 0.0, 0.0, 0.0, 0.0, 0.0, 1.6541564094519255E9, 0.0, 2022-06-02 09:53:29.451
46.0, 24333.830098370327, 1640.6850982529043, -77112.08785916422, -52780.87291489517, -37506.18249251634, -37947.584742019746, -6277.353319806257, -45304.50496727288, 0.014, 0.786, 0.638, 192.0, 0.0, 0.0, 0.0, 0.0, 0.0, 0.0, 0.0, 0.0, 0.0, 1.654156409451931E9, 0.0, 2022-06-02 09:53:29.451
47.0, 24318.92148481864, 1628.1234178690218, -77126.3482721267, -52792.85344992321, -37518.27478626666, -37959.85584972571, -6286.562238521843, -45327.86254022867, 0.024, 0.786, 0.642, 192.0, 0.0, 192.0, 24.0, 144.0, 20.0, 16.0, 0.0, 0.0, 0.0, 1.6541564094519365E9, 0.0, 2022-06-02 09:53:29.451
48.0, 24314.071156271835, 1606.4645774918292, -77168.83893833625, -52832.61720330921, -37549.18724884835, -37991.416512896605, -6332.338611166312, -45390.335665981256, 0.024, 0.786, 0.642, 192.0, 0.0, 0.0, 0.0, 0.0, 0.0, 0.0, 0.0, 0.0, 0.0, 1.6541564094519415E9, 0.0, 2022-06-02 09:53:29.451
49.0, 24321.67074938664, 1598.3955977434634, -77175.49975818393, -52843.48015111448, -37563.62647576648, -38015.69050737507, -6374.426945975655, -45420.89050065166, 0.024, 0.786, 0.642, 192.0, 0.0, 0.0, 0.0, 0.0, 0.0, 0.0, 0.0, 0.0, 0.0, 1.6541564094519467E9, 0.0, 2022-06-02 09:53:29.451
50.0, 24325.4928976885, 1608.7891589151811, -77149.21410670449, -52818.960287447015, -37554.23874309525, -37983.302829659326, -6360.4347539466335, -45356.07044173127, 0.024, 0.786, 0.642, 192.0, 0.0, 0.0, 0.0, 0.0, 0.0, 0.0, 0.0, 0.0, 0.0, 1.654156409451952E9, 0.0, 2022-06-02 09:53:29.451
51.0, 24318.317987718343, 1612.0748653501112, -77132.45029836301, -52802.822327950285, -37531.752888173214, -37957.352454346714, -6308.19872715458, -45304.34850506169, 0.024, 0.786, 0.642, 192.0, 0.0, 0.0, 0.0, 0.0, 0.0, 0.0, 0.0, 0.0, 0.0, 1.6541564094519572E9, 0.0, 2022-06-02 09:53:29.451
52.0, 24332.131365791724, 1627.050534135167, -77116.35704235519, -52792.07113886728, -37513.06682980857, -37941.57212276127, -6277.800354695363, -45284.544859474285, 0.024, 0.786, 0.642, 192.0, 0.0, 0.0, 0.0, 0.0, 0.0, 0.0, 0.0, 0.0, 0.0, 1.6541564094519625E9, 0.0, 2022-06-02 09:53:29.451
53.0, 24331.10318554678, 1613.1924525728766, -77152.87979279517, -52823.94472646055, -37540.89475165543, -37968.70714053001, -6302.767253251941, -45322.54282504831, 0.024, 0.786, 0.642, 192.0, 0.0, 0.0, 0.0, 0.0, 0.0, 0.0, 0.0, 0.0, 0.0, 1.6541564094519677E9, 0.0, 2022-06-02 09:53:29.451
54.0, 24349.319857277856, 1616.4558072633515, -77156.4113684191, -52827.38689510666, -37551.84710643853, -37986.49912911643, -6331.891576277206, -45352.76238355188, 0.024, 0.786, 0.642, 192.0, 0.0, 0.0, 0.0, 0.0, 0.0, 0.0, 0.0, 0.0, 0.0, 1.6541564094519727E9, 0.0, 2022-06-02 09:53:29.451
55.0, 24361.233337072532, 1638.2487581072758, -77122.39201335813, -52796.809708691806, -37528.51188522719, -37967.05311144032, -6314.7701400244405, -45333.83045599824, 0.024, 0.786, 0.642, 192.0, 0.0, 0.0, 0.0, 0.0, 0.0, 0.0, 0.0, 0.0, 0.0, 1.654156409451978E9, 0.0, 2022-06-02 09:53:29.451
56.0, 24342.39081649671, 1637.46644705134, -77117.51933306687, -52787.17610683157, -37523.9074258694, -37956.525439801866, -6305.985904453505, -45326.230862883436, 0.024, 0.786, 0.642, 192.0, 0.0, 0.0, 0.0, 0.0, 0.0, 0.0, 0.0, 0.0, 0.0, 1.654156409451983E9, 0.0, 2022-06-02 09:53:29.451
57.0, 24336.57936293833, 1630.313888825642, -77121.92262672457, -52789.97007488848, -37527.908388126896, -37955.98899793494, -6284.327064076312, -45328.48838907342, 0.02, 0.784, 0.638, 192.0, 0.0, 160.0, 24.0, 128.0, 19.0, 240.0, 0.0, 0.0, 0.0, 1.6541564094519885E9, 0.0, 2022-06-02 09:53:29.451
58.0, 24331.01377856896, 1611.8289961611029, -77160.36762718769, -52823.587098549266, -37560.34076933155, -37983.369884892694, -6351.1587799976805, -45363.84884880172, 0.02, 0.784, 0.638, 192.0, 0.0, 0.0, 0.0, 0.0, 0.0, 0.0, 0.0, 0.0, 0.0, 1.6541564094519937E9, 0.0, 2022-06-02 09:53:29.451
59.0, 24329.091528545803, 1596.2721820202091, -77181.51237744241, -52839.88152025718, -37586.425255110895, -38003.508806646925, -6375.87980936525, -45369.39208142663, 0.02, 0.784, 0.638, 192.0, 0.0, 0.0, 0.0, 0.0, 0.0, 0.0, 0.0, 0.0, 0.0, 1.6541564094519987E9, 0.0, 2022-06-02 09:53:29.451
60.0, 24339.23922052851, 1614.3323915400972, -77151.20341196102, -52812.455929810516, -37569.48263281377, -37990.23187044047, -6368.16845752817, -45360.92077027807, 0.02, 0.784, 0.638, 192.0, 0.0, 0.0, 0.0, 0.0, 0.0, 0.0, 0.0, 0.0, 0.0, 1.6541564094520042E9, 0.0, 2022-06-02 09:53:29.452
61.0, 24338.076929816834, 1629.822150447625, -77121.98968195793, -52789.99242663293, -37541.56530398909, -37965.48848932845, -6332.159797210669, -45334.948043221004, 0.02, 0.784, 0.638, 192.0, 0.0, 0.0, 0.0, 0.0, 0.0, 0.0, 0.0, 0.0, 0.0, 1.6541564094520094E9, 0.0, 2022-06-02 09:53:29.452
62.0, 24350.19157531161, 1642.048554664678, -77108.01984167336, -52775.195571803524, -37523.59450144703, -37952.882105455654, -6309.830404499818, -45330.611804796674, 0.02, 0.784, 0.638, 192.0, 0.0, 0.0, 0.0, 0.0, 0.0, 0.0, 0.0, 0.0, 0.0, 1.6541564094520144E9, 0.0, 2022-06-02 09:53:29.452
63.0, 24351.040941600913, 1633.3537260715636, -77142.5085833679, -52803.69404598404, -37548.38258604796, -37972.886916743155, -6330.058733231871, -45368.18508722605, 0.02, 0.784, 0.638, 192.0, 0.0, 0.0, 0.0, 0.0, 0.0, 0.0, 0.0, 0.0, 0.0, 1.6541564094520197E9, 0.0, 2022-06-02 09:53:29.452
64.0, 24331.550220435885, 1611.98545837229, -77176.25971749541, -52839.792113279356, -37582.53605157567, -38009.34261194976, -6368.995472073016, -45404.216099288, 0.02, 0.784, 0.638, 192.0, 0.0, 0.0, 0.0, 0.0, 0.0, 0.0, 0.0, 0.0, 0.0, 1.6541564094520273E9, 0.0, 2022-06-02 09:53:29.452
65.0, 24345.81063339837, 1625.5306155122062, -77143.22383919047, -52813.864089711205, -37557.122118129984, -37992.176472208084, -6358.646614390209, -45377.79633734183, 0.02, 0.784, 0.638, 192.0, 0.0, 0.0, 0.0, 0.0, 0.0, 0.0, 0.0, 0.0, 0.0, 1.6541564094520328E9, 0.0, 2022-06-02 09:53:29.452
66.0, 24334.858278615273, 1627.7210864688261, -77127.57761807175, -52794.17220284608, -37537.38552777595, -37962.51570731589, -6332.7856460554185, -45330.5000460744, 0.02, 0.784, 0.638, 192.0, 0.0, 0.0, 0.0, 0.0, 0.0, 0.0, 0.0, 0.0, 0.0, 1.6541564094520385E9, 0.0, 2022-06-02 09:53:29.452
67.0, 24331.639627413708, 1629.308060325153, -77124.87305699266, -52793.47929876796, -37530.30002478362, -37951.831573466254, -6323.0402854729045, -45328.71190651797, 0.018000000000000002, 0.796, 0.646, 192.0, 0.0, 144.0, 24.0, 224.0, 20.0, 48.0, 0.0, 0.0, 0.0, 1.6541564094520442E9, 0.0, 2022-06-02 09:53:29.452
68.0, 24322.900095331683, 1612.6560107059493, -77163.966258045, -52828.72799977398, -37549.924856415375, -37974.071559199285, -6326.236584930013, -45358.14915396561, 0.018000000000000002, 0.796, 0.646, 192.0, 0.0, 0.0, 0.0, 0.0, 0.0, 0.0, 0.0, 0.0, 0.0, 1.6541564094520495E9, 0.0, 2022-06-02 09:53:29.452
69.0, 24313.512362660455, 1593.5899726855723, -77185.96037458902, -52855.46068614253, -37565.70518800082, -38005.09578050325, -6344.565015383365, -45383.674846133574, 0.018000000000000002, 0.796, 0.646, 192.0, 0.0, 0.0, 0.0, 0.0, 0.0, 0.0, 0.0, 0.0, 0.0, 1.6541564094520547E9, 0.0, 2022-06-02 09:53:29.452
70.0, 24342.72609266354, 1630.0009644032675, -77131.46682160698, -52813.12648214418, -37517.42541997736, -37962.22513463797, -6307.796395754385, -45334.2998426318, 0.018000000000000002, 0.796, 0.646, 192.0, 0.0, 0.0, 0.0, 0.0, 0.0, 0.0, 0.0, 0.0, 0.0, 1.6541564094520602E9, 0.0, 2022-06-02 09:53:29.452
71.0, 24336.311142004866, 1632.213787104343, -77111.81963823077, -52790.73003419996, -37498.02410579015, -37939.33694831574, -6268.077345857304, -45293.88788865661, 0.018000000000000002, 0.796, 0.646, 192.0, 0.0, 0.0, 0.0, 0.0, 0.0, 0.0, 0.0, 0.0, 0.0, 1.6541564094520652E9, 0.0, 2022-06-02 09:53:29.452
72.0, 24335.77470013794, 1635.2312726058094, -77110.63499577463, -52783.17514457407, -37496.593594145015, -37939.56046576029, -6251.984089849483, -45294.37962703462, 0.018000000000000002, 0.796, 0.646, 192.0, 0.0, 0.0, 0.0, 0.0, 0.0, 0.0, 0.0, 0.0, 0.0, 1.6541564094520707E9, 0.0, 2022-06-02 09:53:29.452
73.0, 24335.037092570914, 1628.2798800802088, -77129.41046111709, -52807.40443556362, -37517.358364743995, -37959.98996019244, -6280.6613779856425, -45329.62832804064, 0.018000000000000002, 0.796, 0.646, 192.0, 0.0, 0.0, 0.0, 0.0, 0.0, 0.0, 0.0, 0.0, 0.0, 1.6541564094520755E9, 0.0, 2022-06-02 09:53:29.452
74.0, 24326.38696746671, 1608.4091792594409, -77157.23838296394, -52835.657040555125, -37550.215429093296, -38000.40191416763, -6328.717628564552, -45370.755537838406, 0.018000000000000002, 0.796, 0.646, 192.0, 0.0, 0.0, 0.0, 0.0, 0.0, 0.0, 0.0, 0.0, 0.0, 1.6541564094520812E9, 0.0, 2022-06-02 09:53:29.452
75.0, 24354.192537569113, 1637.824074962625, -77118.48045807844, -52797.03322613636, -37523.929777613856, -37975.122091188685, -6313.451387101578, -45346.86152301569, 0.018000000000000002, 0.796, 0.646, 192.0, 0.0, 0.0, 0.0, 0.0, 0.0, 0.0, 0.0, 0.0, 0.0, 1.6541564094520862E9, 0.0, 2022-06-02 09:53:29.452
76.0, 24366.731866208538, 1661.6510345519823, -77089.06556237525, -52759.57170242926, -37497.62177438996, -37939.20283784901, -6267.563255734833, -45314.80912146677, 0.018000000000000002, 0.796, 0.646, 192.0, 0.0, 0.0, 0.0, 0.0, 0.0, 0.0, 0.0, 0.0, 0.0, 1.6541564094520915E9, 0.0, 2022-06-02 09:53:29.452
77.0, 24364.317877807367, 1664.9143892424572, -77092.32891706574, -52759.616405918176, -37497.66647787887, -37931.44678252301, -6287.411604811145, -45320.151188391595, 0.018000000000000002, 0.792, 0.634, 192.0, 0.0, 144.0, 24.0, 192.0, 19.0, 208.0, 0.0, 0.0, 0.0, 1.6541564094520965E9, 0.0, 2022-06-02 09:53:29.452
78.0, 24369.279965076443, 1657.6500722944825, -77115.79824874381, -52787.73490044295, -37516.46429496578, -37947.361224575194, -6317.63116331472, -45346.54859859331, 0.018000000000000002, 0.792, 0.634, 192.0, 0.0, 0.0, 0.0, 0.0, 0.0, 0.0, 0.0, 0.0, 0.0, 1.6541564094521022E9, 0.0, 2022-06-02 09:53:29.452
79.0, 24359.132273093735, 1640.573339530628, -77143.82733629076, -52815.85339496773, -37546.43798428035, -37981.67115231409, -6351.315242208868, -45370.1073372492, 0.018000000000000002, 0.792, 0.634, 192.0, 0.0, 0.0, 0.0, 0.0, 0.0, 0.0, 0.0, 0.0, 0.0, 1.6541564094521077E9, 0.0, 2022-06-02 09:53:29.452
80.0, 24356.49476724801, 1648.3070431121641, -77117.2511121334, -52791.37823478917, -37530.72470792827, -37965.3096753728, -6351.002317786493, -45356.18220045355, 0.018000000000000002, 0.792, 0.634, 192.0, 0.0, 0.0, 0.0, 0.0, 0.0, 0.0, 0.0, 0.0, 0.0, 1.6541564094521172E9, 0.0, 2022-06-02 09:53:29.452
81.0, 24359.847528916303, 1663.3944706194964, -77087.67975421903, -52759.750516384905, -37505.84721634951, -37936.02889013635, -6309.875107988729, -45318.58656627972, 0.018000000000000002, 0.792, 0.634, 192.0, 0.0, 0.0, 0.0, 0.0, 0.0, 0.0, 0.0, 0.0, 0.0, 1.654156409452124E9, 0.0, 2022-06-02 09:53:29.452
82.0, 24371.73865696653, 1679.7559475607811, -77080.61660297116, -52752.48619943693, -37493.39729468791, -37921.991994618416, -6306.4329393426115, -45313.0433336548, 0.018000000000000002, 0.792, 0.634, 192.0, 0.0, 0.0, 0.0, 0.0, 0.0, 0.0, 0.0, 0.0, 0.0, 1.6541564094521296E9, 0.0, 2022-06-02 09:53:29.452
83.0, 24368.83293018734, 1662.5227525857392, -77112.73605975343, -52787.04199636484, -37518.878283366954, -37947.76355597538, -6341.234605459525, -45356.85275278721, 0.018000000000000002, 0.792, 0.634, 192.0, 0.0, 0.0, 0.0, 0.0, 0.0, 0.0, 0.0, 0.0, 0.0, 1.654156409452135E9, 0.0, 2022-06-02 09:53:29.452
84.0, 24363.848491173805, 1644.663708765949, -77131.19860067351, -52813.59586877774, -37540.60417897751, -37987.504957616926, -6375.321015753868, -45405.13252081067, 0.018000000000000002, 0.792, 0.634, 192.0, 0.0, 0.0, 0.0, 0.0, 0.0, 0.0, 0.0, 0.0, 0.0, 1.65415640945214E9, 0.0, 2022-06-02 09:53:29.452
85.0, 24360.115749849767, 1647.6141390340495, -77111.39495508611, -52801.10124362722, -37525.85202763701, -37968.17069866308, -6347.135465995725, -45346.52624684885, 0.018000000000000002, 0.792, 0.634, 192.0, 0.0, 0.0, 0.0, 0.0, 0.0, 0.0, 0.0, 0.0, 0.0, 1.6541564094521456E9, 0.0, 2022-06-02 09:53:29.452
86.0, 24338.30044726139, 1638.5840342741055, -77106.67873700605, -52787.86901090968, -37512.19511177482, -37951.58570427725, -6301.157927651158, -45299.3417143037, 0.018000000000000002, 0.792, 0.634, 192.0, 0.0, 0.0, 0.0, 0.0, 0.0, 0.0, 0.0, 0.0, 0.0, 1.654156409452154E9, 0.0, 2022-06-02 09:53:29.452
87.0, 24337.272267016444, 1641.6462232644826, -77102.78953347082, -52781.09643233972, -37498.6499546349, -37951.54100078833, -6280.795488452374, -45313.31155458827, 0.024, 0.79, 0.642, 192.0, 0.0, 192.0, 24.0, 176.0, 20.0, 16.0, 0.0, 0.0, 0.0, 1.6541564094521592E9, 0.0, 2022-06-02 09:53:29.452
88.0, 24338.63572342822, 1630.2021301033653, -77128.53874308334, -52805.459833796005, -37521.29227176813, -37959.878201470165, -6301.314389862346, -45330.65650828559, 0.024, 0.79, 0.642, 192.0, 0.0, 0.0, 0.0, 0.0, 0.0, 0.0, 0.0, 0.0, 0.0, 1.654156409452165E9, 0.0, 2022-06-02 09:53:29.452
89.0, 24345.274191531444, 1621.8202259326251, -77143.58146710176, -52811.07012165429, -37538.77133593218, -37978.832480768266, -6335.0208205009485, -45359.49025863293, 0.024, 0.79, 0.642, 192.0, 0.0, 0.0, 0.0, 0.0, 0.0, 0.0, 0.0, 0.0, 0.0, 1.6541564094521701E9, 0.0, 2022-06-02 09:53:29.452
90.0, 24352.940839879615, 1639.634566263505, -77113.25014987591, -52784.918580641584, -37509.06586755108, -37959.18529739205, -6304.465985830544, -45325.49325531641, 0.024, 0.79, 0.642, 192.0, 0.0, 0.0, 0.0, 0.0, 0.0, 0.0, 0.0, 0.0, 0.0, 1.6541564094521756E9, 0.0, 2022-06-02 09:53:29.452
91.0, 24353.745502680005, 1656.4654298383512, -77078.98492562592, -52760.46577220748, -37477.84048054701, -37929.5021807554, -6256.074459084804, -45278.30872277126, 0.024, 0.79, 0.642, 192.0, 0.0, 0.0, 0.0, 0.0, 0.0, 0.0, 0.0, 0.0, 0.0, 1.654156409452181E9, 0.0, 2022-06-02 09:53:29.452
92.0, 24342.97196185255, 1649.6481477794825, -77093.8935391776, -52773.16156305809, -37487.47408240725, -37941.08038438325, -6265.57395047831, -45308.193005108005, 0.024, 0.79, 0.642, 192.0, 0.0, 0.0, 0.0, 0.0, 0.0, 0.0, 0.0, 0.0, 0.0, 1.6541564094521863E9, 0.0, 2022-06-02 09:53:29.452
93.0, 24340.62502868474, 1634.4489615498737, -77134.12667919716, -52806.64447625214, -37519.101800811506, -37966.89664922913, -6311.663247545153, -45357.09862197621, 0.024, 0.79, 0.642, 192.0, 0.0, 0.0, 0.0, 0.0, 0.0, 0.0, 0.0, 0.0, 0.0, 1.6541564094521916E9, 0.0, 2022-06-02 09:53:29.452
94.0, 24345.38595025372, 1626.3799818015077, -77151.98572301694, -52825.12936891668, -37541.408841777906, -37993.025838497386, -6355.249149233002, -45394.85071836123, 0.024, 0.79, 0.642, 192.0, 0.0, 0.0, 0.0, 0.0, 0.0, 0.0, 0.0, 0.0, 0.0, 1.6541564094521987E9, 0.0, 2022-06-02 09:53:29.452
95.0, 24342.413168241164, 1632.9737464158234, -77135.49013560894, -52814.288772855856, -37534.52450448567, -37992.51174837491, -6325.923660507639, -45392.32497123778, 0.024, 0.79, 0.642, 192.0, 0.0, 0.0, 0.0, 0.0, 0.0, 0.0, 0.0, 0.0, 0.0, 1.654156409452204E9, 0.0, 2022-06-02 09:53:29.452
96.0, 24343.35194150829, 1643.4120110764518, -77114.43479233203, -52788.49485975443, -37515.23494902074, -37961.01814043739, -6319.575765082332, -45348.13557244964, 0.024, 0.79, 0.642, 192.0, 0.0, 0.0, 0.0, 0.0, 0.0, 0.0, 0.0, 0.0, 0.0, 1.6541564094522092E9, 0.0, 2022-06-02 09:53:29.452
97.0, 24363.602621984795, 1660.5781508181276, -77096.26282408986, -52767.68538566654, -37494.47017842176, -37933.5031430129, -6304.7342067640075, -45311.813987709764, 0.024, 0.794, 0.636, 192.0, 0.0, 192.0, 24.0, 208.0, 19.0, 224.0, 0.0, 0.0, 0.0, 1.6541564094522145E9, 0.0, 2022-06-02 09:53:29.452
98.0, 24356.695932948107, 1645.0436884216892, -77131.08684195124, -52796.40737729161, -37523.97448110276, -37956.14546014613, -6328.315297164357, -45351.73420330694, 0.024, 0.794, 0.636, 192.0, 0.0, 0.0, 0.0, 0.0, 0.0, 0.0, 0.0, 0.0, 0.0, 1.6541564094522195E9, 0.0, 2022-06-02 09:53:29.452
99.0, 24328.37627272323, 1610.957278127346, -77171.43174069306, -52838.56276733432, -37568.186231635365, -38002.41357116861, -6377.377376243756, -45398.53875619635, 0.024, 0.794, 0.636, 192.0, 0.0, 0.0, 0.0, 0.0, 0.0, 0.0, 0.0, 0.0, 0.0, 1.6541564094522252E9, 0.0, 2022-06-02 09:53:29.452
100.0, 24335.372368737742, 1623.3177928111306, -77142.15095545661, -52816.859223468215, -37546.862667425, -37988.264916928405, -6354.422134688156, -45370.01793027138, 0.024, 0.794, 0.636, 192.0, 0.0, 0.0, 0.0, 0.0, 0.0, 0.0, 0.0, 0.0, 0.0, 1.6541564094522302E9, 0.0, 2022-06-02 09:53:29.452
101.0, 24338.47926121703, 1640.6850982529043, -77108.198655629, -52783.39866201862, -37514.43028622035, -37957.19599213552, -6314.68073304662, -45339.843075256715, 0.024, 0.794, 0.636, 192.0, 0.0, 0.0, 0.0, 0.0, 0.0, 0.0, 0.0, 0.0, 0.0, 1.6541564094522352E9, 0.0, 2022-06-02 09:53:29.452
102.0, 24329.24799075699, 1635.8794731950134, -77115.66413827708, -52791.44529002253, -37519.19120778933, -37961.17460264857, -6323.241451173002, -45358.70794757699, 0.024, 0.794, 0.636, 192.0, 0.0, 0.0, 0.0, 0.0, 0.0, 0.0, 0.0, 0.0, 0.0, 1.6541564094522407E9, 0.0, 2022-06-02 09:53:29.452
103.0, 24308.594978880286, 1603.9388303683795, -77164.59210688974, -52839.50154060144, -37560.02784490918, -37997.3173734328, -6349.482399163533, -45390.26861074789, 0.024, 0.794, 0.636, 192.0, 0.0, 0.0, 0.0, 0.0, 0.0, 0.0, 0.0, 0.0, 0.0, 1.6541564094522457E9, 0.0, 2022-06-02 09:53:29.452
104.0, 24318.653263885175, 1610.6220019605164, -77167.90016506914, -52845.06712497081, -37566.219278123295, -38002.54768163535, -6366.201504016102, -45386.15588976812, 0.024, 0.794, 0.636, 192.0, 0.0, 0.0, 0.0, 0.0, 0.0, 0.0, 0.0, 0.0, 0.0, 1.6541564094522517E9, 0.0, 2022-06-02 09:53:29.452
105.0, 24314.093508016293, 1602.4189117454187, -77154.57852537377, -52835.16530217711, -37555.95982741831, -37986.96851575, -6353.125733509748, -45352.6059213407, 0.024, 0.794, 0.636, 192.0, 0.0, 0.0, 0.0, 0.0, 0.0, 0.0, 0.0, 0.0, 0.0, 1.654156409452257E9, 0.0, 2022-06-02 09:53:29.452
106.0, 24326.945761078092, 1620.1885485873877, -77117.67579527805, -52791.489993511444, -37525.42734449236, -37956.525439801866, -6329.164663453658, -45332.55640656429, 0.024, 0.79, 0.632, 192.0, 0.0, 192.0, 24.0, 176.0, 19.0, 192.0, 0.0, 0.0, 0.0, 1.654156409452262E9, 0.0, 2022-06-02 09:53:29.452
107.0, 24317.222752240035, 1615.472330507318, -77124.38131861464, -52799.670731982085, -37521.58284444605, -37950.22224786547, -6322.794416283896, -45331.394115852614, 0.024, 0.79, 0.632, 192.0, 0.0, 0.0, 0.0, 0.0, 0.0, 0.0, 0.0, 0.0, 0.0, 1.6541564094522693E9, 0.0, 2022-06-02 09:53:29.452
108.0, 24303.543484633385, 1595.8698506200137, -77161.10523475471, -52844.08364821478, -37558.93260943086, -37982.14053894765, -6348.0518875183925, -45371.448441916524, 0.024, 0.79, 0.632, 192.0, 0.0, 0.0, 0.0, 0.0, 0.0, 0.0, 0.0, 0.0, 0.0, 1.6541564094522743E9, 0.0, 2022-06-02 09:53:29.452
109.0, 24323.48124068752, 1604.5870309575835, -77157.30543819732, -52839.90387200164, -37562.68770249936, -37998.1667397221, -6364.681585393141, -45390.961514826005, 0.024, 0.79, 0.632, 192.0, 0.0, 0.0, 0.0, 0.0, 0.0, 0.0, 0.0, 0.0, 0.0, 1.6541564094522796E9, 0.0, 2022-06-02 09:53:29.452
110.0, 24319.547333663384, 1605.3246385246086, -77145.90604852511, -52830.94082247506, -37553.74700471723, -37998.50201588893, -6374.270483764468, -45395.990657328446, 0.024, 0.79, 0.632, 192.0, 0.0, 0.0, 0.0, 0.0, 0.0, 0.0, 0.0, 0.0, 0.0, 1.6541564094522846E9, 0.0, 2022-06-02 09:53:29.452
111.0, 24313.177086493622, 1613.1030455950554, -77125.99064421543, -52810.75719723191, -37530.210617805795, -37971.03172195336, -6337.501864135488, -45346.570950337766, 0.024, 0.79, 0.632, 192.0, 0.0, 0.0, 0.0, 0.0, 0.0, 0.0, 0.0, 0.0, 0.0, 1.6541564094522896E9, 0.0, 2022-06-02 09:53:29.452
112.0, 24319.167354007644, 1620.9485078988682, -77124.47072559247, -52805.37042681819, -37520.33114675655, -37958.04535842483, -6291.725491491019, -45332.04231644182, 0.024, 0.79, 0.632, 192.0, 0.0, 0.0, 0.0, 0.0, 0.0, 0.0, 0.0, 0.0, 0.0, 1.6541564094522948E9, 0.0, 2022-06-02 09:53:29.452
113.0, 24314.160563249658, 1610.8455194050694, -77158.3112666978, -52835.9699649775, -37546.6615017249, -37981.42528312508, -6291.189049624092, -45370.956703538504, 0.024, 0.79, 0.632, 192.0, 0.0, 0.0, 0.0, 0.0, 0.0, 0.0, 0.0, 0.0, 0.0, 1.6541564094523E9, 0.0, 2022-06-02 09:53:29.452
114.0, 24336.33349374932, 1623.5413102556838, -77148.52120262638, -52828.90681372963, -37555.602199507026, -37990.23187044047, -6373.041137819427, -45397.57763118477, 0.024, 0.79, 0.632, 192.0, 0.0, 0.0, 0.0, 0.0, 0.0, 0.0, 0.0, 0.0, 0.0, 1.654156409452305E9, 0.0, 2022-06-02 09:53:29.452
115.0, 24347.509365976974, 1633.2643190937424, -77124.82835350375, -52806.97975241897, -37542.593484234036, -37977.9607627345, -6369.129582539747, -45386.02177930138, 0.024, 0.79, 0.632, 192.0, 0.0, 0.0, 0.0, 0.0, 0.0, 0.0, 0.0, 0.0, 0.0, 1.65415640945231E9, 0.0, 2022-06-02 09:53:29.452
116.0, 24342.279057774434, 1629.4645225363402, -77111.59612078621, -52794.351016801724, -37519.95116710081, -37962.51570731589, -6348.722439852052, -45354.79639229732, 0.02, 0.796, 0.632, 192.0, 0.0, 160.0, 24.0, 224.0, 19.0, 192.0, 0.0, 0.0, 0.0, 1.654156409452315E9, 0.0, 2022-06-02 09:53:29.452
117.0, 24347.82229039935, 1645.3342610996083, -77096.30752757879, -52786.48320275345, -37498.78406510163, -37952.83740196674, -6323.800244784385, -45359.26674118838, 0.02, 0.796, 0.632, 192.0, 0.0, 0.0, 0.0, 0.0, 0.0, 0.0, 0.0, 0.0, 0.0, 1.6541564094523206E9, 0.0, 2022-06-02 09:53:29.452
118.0, 24330.61144716876, 1625.731781212304, -77135.87011526467, -52824.07883692728, -37534.59155971903, -37974.004503965916, -6336.87601529074, -45386.35705546821, 0.02, 0.796, 0.632, 192.0, 0.0, 0.0, 0.0, 0.0, 0.0, 0.0, 0.0, 0.0, 0.0, 1.654156409452326E9, 0.0, 2022-06-02 09:53:29.452
119.0, 24317.446269684588, 1602.1953943008655, -77162.5133946554, -52840.97675573549, -37556.00453090722, -37999.932527534074, -6350.801152086396, -45393.44255846054, 0.02, 0.796, 0.632, 192.0, 0.0, 0.0, 0.0, 0.0, 0.0, 0.0, 0.0, 0.0, 0.0, 1.6541564094523313E9, 0.0, 2022-06-02 09:53:29.452
120.0, 24333.561877436863, 1619.920327653924, -77127.82348726076, -52811.181880376564, -37537.09495509803, -37978.43014936807, -6343.4474281606, -45360.65254934461, 0.02, 0.796, 0.632, 192.0, 0.0, 0.0, 0.0, 0.0, 0.0, 0.0, 0.0, 0.0, 0.0, 1.6541564094523363E9, 0.0, 2022-06-02 09:53:29.452
121.0, 24331.61727566925, 1631.632641748505, -77102.02957415934, -52789.97007488848, -37513.98325133124, -37954.51378280089, -6313.697256290586, -45320.33000234723, 0.02, 0.796, 0.632, 192.0, 0.0, 0.0, 0.0, 0.0, 0.0, 0.0, 0.0, 0.0, 0.0, 1.6541564099323587E9, 0.0, 2022-06-02 09:53:29.932
122.0, 24326.29756048889, 1630.760923714748, -77105.0470596608, -52793.05461562331, -37514.2514722647, -37956.05605316831, -6315.597154569287, -45331.23765364142, 0.02, 0.796, 0.632, 192.0, 0.0, 0.0, 0.0, 0.0, 0.0, 0.0, 0.0, 0.0, 0.0, 1.654156409932593E9, 0.0, 2022-06-02 09:53:29.932
123.0, 24325.381138966222, 1616.7463799412706, -77132.94203674103, -52822.670677026596, -37539.15131558792, -37982.252297669926, -6341.838102559817, -45381.305561221314, 0.02, 0.796, 0.632, 192.0, 0.0, 0.0, 0.0, 0.0, 0.0, 0.0, 0.0, 0.0, 0.0, 1.6541564099326005E9, 0.0, 2022-06-02 09:53:29.932
124.0, 24328.37627272323, 1605.0787693356, -77154.1091387402, -52841.71436330252, -37561.90539144342, -38013.14240850716, -6377.109155310292, -45413.246204047944, 0.02, 0.796, 0.632, 192.0, 0.0, 0.0, 0.0, 0.0, 0.0, 0.0, 0.0, 0.0, 0.0, 1.6541564099326067E9, 0.0, 2022-06-02 09:53:29.932
125.0, 24341.697912418596, 1623.921289911424, -77120.93914996853, -52814.57934553378, -37530.25532129471, -37994.00931525342, -6353.706878865586, -45389.84392760324, 0.02, 0.796, 0.632, 192.0, 0.0, 0.0, 0.0, 0.0, 0.0, 0.0, 0.0, 0.0, 0.0, 1.6541564099326136E9, 0.0, 2022-06-02 09:53:29.932
126.0, 24344.00014209749, 1646.0942204110886, -77094.0500013888, -52784.33743528574, -37499.00758254619, -37955.74312874593, -6313.049055701382, -45335.171560665556, 0.018000000000000002, 0.8, 0.632, 192.0, 0.0, 144.0, 25.0, 0.0, 19.0, 192.0, 0.0, 0.0, 0.0, 1.6541564099326196E9, 0.0, 2022-06-02 09:53:29.932
127.0, 24338.211040283568, 1649.8716652240355, -77095.68167873404, -52780.26941779488, -37505.31077448258, -37944.12022162917, -6317.96643948155, -45325.33679310522, 0.018000000000000002, 0.8, 0.632, 192.0, 0.0, 0.0, 0.0, 0.0, 0.0, 0.0, 0.0, 0.0, 0.0, 1.6541564099326258E9, 0.0, 2022-06-02 09:53:29.932
128.0, 24352.2479358015, 1647.0553454226667, -77118.68162377854, -52795.66976972458, -37523.81801889158, -37956.592495035235, -6341.68164034863, -45358.81970629928, 0.018000000000000002, 0.8, 0.632, 192.0, 0.0, 0.0, 0.0, 0.0, 0.0, 0.0, 0.0, 0.0, 0.0, 1.6541564099326406E9, 0.0, 2022-06-02 09:53:29.932
129.0, 24362.753255695494, 1643.4790663098177, -77125.58831281523, -52811.53950828785, -37535.79855391962, -37973.311599887806, -6355.807942844384, -45378.243372230936, 0.018000000000000002, 0.8, 0.632, 192.0, 0.0, 0.0, 0.0, 0.0, 0.0, 0.0, 0.0, 0.0, 0.0, 1.6541564099326465E9, 0.0, 2022-06-02 09:53:29.932
130.0, 24366.933031908637, 1654.1855519039098, -77104.28710034932, -52793.63576097915, -37514.47498970926, -37962.5604108048, -6320.648648816186, -45357.21038069849, 0.018000000000000002, 0.8, 0.632, 192.0, 0.0, 0.0, 0.0, 0.0, 0.0, 0.0, 0.0, 0.0, 0.0, 1.6541564099326515E9, 0.0, 2022-06-02 09:53:29.932
131.0, 24353.991371869015, 1653.2020751478763, -77097.42511480155, -52781.141135828635, -37509.155274528894, -37958.44768982502, -6295.9276194486165, -45352.82943878525, 0.018000000000000002, 0.8, 0.632, 192.0, 0.0, 0.0, 0.0, 0.0, 0.0, 0.0, 0.0, 0.0, 0.0, 1.654156409932657E9, 0.0, 2022-06-02 09:53:29.932
132.0, 24356.09243584781, 1661.0922409405996, -77095.3464025672, -52788.271342309876, -37513.84914086451, -37956.592495035235, -6358.490152179022, -45373.907133806606, 0.018000000000000002, 0.8, 0.632, 192.0, 0.0, 0.0, 0.0, 0.0, 0.0, 0.0, 0.0, 0.0, 0.0, 1.6541564099326622E9, 0.0, 2022-06-02 09:53:29.932
133.0, 24343.53075546393, 1640.37217383053, -77128.02465296086, -52808.611429764205, -37534.36804227448, -37968.84125099674, -6337.524215879944, -45368.4086046706, 0.018000000000000002, 0.8, 0.632, 192.0, 0.0, 0.0, 0.0, 0.0, 0.0, 0.0, 0.0, 0.0, 0.0, 1.6541564099326673E9, 0.0, 2022-06-02 09:53:29.932
134.0, 24330.343226235298, 1609.9290978824017, -77160.27822020988, -52835.92526148859, -37568.365045591, -37999.57489962279, -6372.661158163686, -45394.76131138341, 0.018000000000000002, 0.8, 0.632, 192.0, 0.0, 0.0, 0.0, 0.0, 0.0, 0.0, 0.0, 0.0, 0.0, 1.6541564099326732E9, 0.0, 2022-06-02 09:53:29.932
135.0, 24342.97196185255, 1626.8046649461587, -77133.03144371885, -52819.094397913745, -37543.39814703443, -37985.82857678278, -6361.5523411693985, -45376.18701174104, 0.018000000000000002, 0.8, 0.632, 192.0, 0.0, 0.0, 0.0, 0.0, 0.0, 0.0, 0.0, 0.0, 0.0, 1.6541564099326785E9, 0.0, 2022-06-02 09:53:29.932
136.0, 24333.986560581514, 1637.019412162234, -77109.15978064058, -52794.775699946375, -37530.635300950446, -37967.05311144032, -6340.6534601036865, -45340.334813634734, 0.02, 0.802, 0.63, 192.0, 0.0, 160.0, 25.0, 16.0, 19.0, 176.0, 0.0, 0.0, 0.0, 1.6541564099326837E9, 0.0, 2022-06-02 09:53:29.932
137.0, 24345.85533688728, 1658.141810672499, -77088.41736178605, -52772.13338281315, -37512.597443175015, -37940.90157042761, -6326.884785519217, -45321.939327948014, 0.02, 0.802, 0.63, 192.0, 0.0, 0.0, 0.0, 0.0, 0.0, 0.0, 0.0, 0.0, 0.0, 1.6541564099326887E9, 0.0, 2022-06-02 09:53:29.932
138.0, 24347.755235165983, 1652.598578047583, -77115.68649002153, -52802.9117349281, -37528.891864882935, -37956.74895724642, -6326.8624337747615, -45347.3532613937, 0.02, 0.802, 0.63, 192.0, 0.0, 0.0, 0.0, 0.0, 0.0, 0.0, 0.0, 0.0, 0.0, 1.654156409932694E9, 0.0, 2022-06-02 09:53:29.932
139.0, 24348.73871192202, 1637.667612751438, -77135.1101559532, -52824.190595649554, -37551.5118302717, -37990.634201840665, -6344.676774105642, -45383.808956600304, 0.02, 0.802, 0.63, 192.0, 0.0, 0.0, 0.0, 0.0, 0.0, 0.0, 0.0, 0.0, 0.0, 1.6541564099326992E9, 0.0, 2022-06-02 09:53:29.932
140.0, 24374.666735490173, 1663.8638572530576, -77096.66515549006, -52785.186801575044, -37520.286443267636, -37965.890820728644, -6342.3968961712, -45358.28326443234, 0.02, 0.802, 0.63, 192.0, 0.0, 0.0, 0.0, 0.0, 0.0, 0.0, 0.0, 0.0, 0.0, 1.6541564099327052E9, 0.0, 2022-06-02 09:53:29.932
141.0, 24373.079761633846, 1670.859953267569, -77080.21427157096, -52767.90890311109, -37494.76075109968, -37948.16588737558, -6325.409570385167, -45336.69147928852, 0.02, 0.802, 0.63, 192.0, 0.0, 0.0, 0.0, 0.0, 0.0, 0.0, 0.0, 0.0, 0.0, 1.6541564099327102E9, 0.0, 2022-06-02 09:53:29.932
142.0, 24348.649304944196, 1646.2506826222757, -77101.98487067042, -52779.15183057211, -37507.36713497247, -37963.856811983205, -6329.231718687024, -45352.49416261842, 0.02, 0.802, 0.63, 192.0, 0.0, 0.0, 0.0, 0.0, 0.0, 0.0, 0.0, 0.0, 0.0, 1.6541564099327157E9, 0.0, 2022-06-02 09:53:29.932
143.0, 24339.68625541762, 1630.0680196366334, -77129.52221983936, -52814.35582808922, -37545.8121354356, -37983.68280931507, -6363.49694293701, -45386.692331635044, 0.02, 0.802, 0.63, 192.0, 0.0, 0.0, 0.0, 0.0, 0.0, 0.0, 0.0, 0.0, 0.0, 1.654156409932721E9, 0.0, 2022-06-02 09:53:29.932
144.0, 24331.23729601351, 1611.5831269720945, -77165.30736271231, -52844.21775868151, -37585.218260910304, -38020.89846383315, -6410.010923148504, -45425.98669838747, 0.02, 0.802, 0.63, 192.0, 0.0, 0.0, 0.0, 0.0, 0.0, 0.0, 0.0, 0.0, 0.0, 1.6541564099327261E9, 0.0, 2022-06-02 09:53:29.932
145.0, 24347.576421210342, 1630.5821097591056, -77134.32784489726, -52813.48411005546, -37548.27082732569, -37990.142463462646, -6354.511541665976, -45370.956703538504, 0.02, 0.802, 0.63, 192.0, 0.0, 0.0, 0.0, 0.0, 0.0, 0.0, 0.0, 0.0, 0.0, 1.6541564099327312E9, 0.0, 2022-06-02 09:53:29.932
146.0, 24349.275153788945, 1646.630662278016, -77091.90423392109, -52781.45406025101, -37515.0561350651, -37960.459346826, -6308.623410299231, -45341.20653166849, 0.02, 0.796, 0.63, 192.0, 0.0, 160.0, 24.0, 224.0, 19.0, 176.0, 0.0, 0.0, 0.0, 1.6541564099327364E9, 0.0, 2022-06-02 09:53:29.932
147.0, 24329.67267390164, 1637.958185429357, -77097.78274271284, -52787.7572521874, -37520.5546642011, -37963.856811983205, -6317.184128425614, -45352.38240389615, 0.02, 0.796, 0.63, 192.0, 0.0, 0.0, 0.0, 0.0, 0.0, 0.0, 0.0, 0.0, 0.0, 1.654156409932742E9, 0.0, 2022-06-02 09:53:29.932
148.0, 24306.58332187931, 1613.885356650991, -77149.50467938241, -52833.913604487614, -37565.99576067874, -37997.339725177255, -6366.2462075050125, -45396.30358175082, 0.02, 0.796, 0.63, 192.0, 0.0, 0.0, 0.0, 0.0, 0.0, 0.0, 0.0, 0.0, 0.0, 1.6541564099327476E9, 0.0, 2022-06-02 09:53:29.932
149.0, 24321.33547321981, 1615.047647362667, -77159.09357775374, -52840.46266561302, -37566.711016501315, -38002.43592291307, -6365.933283082639, -45389.55335492532, 0.02, 0.796, 0.63, 192.0, 0.0, 0.0, 0.0, 0.0, 0.0, 0.0, 0.0, 0.0, 0.0, 1.6541564099327526E9, 0.0, 2022-06-02 09:53:29.932
150.0, 24343.48605197502, 1639.120476141033, -77117.29581562232, -52803.44817679503, -37538.16783883188, -37972.17166092058, -6351.382297442234, -45351.39892714011, 0.02, 0.796, 0.63, 192.0, 0.0, 0.0, 0.0, 0.0, 0.0, 0.0, 0.0, 0.0, 0.0, 1.6541564099327624E9, 0.0, 2022-06-02 09:53:29.932
151.0, 24356.383008525732, 1662.6121595635605, -77081.443617516, -52768.60180718921, -37520.24173977873, -37941.59447450572, -6362.0217278029595, -45354.28230217485, 0.02, 0.796, 0.63, 192.0, 0.0, 0.0, 0.0, 0.0, 0.0, 0.0, 0.0, 0.0, 0.0, 1.654156409932768E9, 0.0, 2022-06-02 09:53:29.932
152.0, 24346.928220621136, 1655.7054705268706, -77083.83525417272, -52768.95943510049, -37510.13875128493, -37939.13578261564, -6279.879066929707, -45318.474807557446, 0.02, 0.796, 0.63, 192.0, 0.0, 0.0, 0.0, 0.0, 0.0, 0.0, 0.0, 0.0, 0.0, 1.654156409932773E9, 0.0, 2022-06-02 09:53:29.932
153.0, 24337.87576411674, 1632.4596562933514, -77115.12769641014, -52804.8116332068, -37529.517713727684, -37962.403948593615, -6311.283267889413, -45323.66041227108, 0.02, 0.796, 0.63, 192.0, 0.0, 0.0, 0.0, 0.0, 0.0, 0.0, 0.0, 0.0, 0.0, 1.6541564099327788E9, 0.0, 2022-06-02 09:53:29.932
154.0, 24337.316970505355, 1624.8153596896364, -77136.13833619814, -52829.82323525229, -37551.08714712705, -37991.058884985316, -6349.325936952346, -45372.007235527904, 0.02, 0.796, 0.63, 192.0, 0.0, 0.0, 0.0, 0.0, 0.0, 0.0, 0.0, 0.0, 0.0, 1.654156409932784E9, 0.0, 2022-06-02 09:53:29.932
155.0, 24329.605618668273, 1625.374153301019, -77131.37741462915, -52814.914621700605, -37553.72465297278, -37994.3669431647, -6362.379355714244, -45381.439671688044, 0.02, 0.796, 0.63, 192.0, 0.0, 0.0, 0.0, 0.0, 0.0, 0.0, 0.0, 0.0, 0.0, 1.6541564099327896E9, 0.0, 2022-06-02 09:53:29.932
156.0, 24322.18483950911, 1627.6763829799156, -77121.94497846902, -52805.79510996284, -37549.32135931509, -37980.6653238136, -6352.343422453812, -45361.16663946708, 0.016, 0.788, 0.636, 192.0, 0.0, 128.0, 24.0, 160.0, 19.0, 224.0, 0.0, 0.0, 0.0, 1.654156409932795E9, 0.0, 2022-06-02 09:53:29.932
157.0, 24320.57551390833, 1626.6482027349714, -77120.24624589042, -52804.74457797344, -37545.946245902334, -37977.55843133431, -6356.813771344873, -45374.3094652068, 0.016, 0.788, 0.636, 192.0, 0.0, 0.0, 0.0, 0.0, 0.0, 0.0, 0.0, 0.0, 0.0, 1.6541564099328E9, 0.0, 2022-06-02 09:53:29.932
158.0, 24315.85929582826, 1609.5491182266617, -77152.94684802853, -52830.96317421951, -37559.29023734215, -37999.57489962279, -6375.142201798225, -45413.06739009231, 0.016, 0.788, 0.636, 192.0, 0.0, 0.0, 0.0, 0.0, 0.0, 0.0, 0.0, 0.0, 0.0, 1.6541564099328053E9, 0.0, 2022-06-02 09:53:29.932
159.0, 24325.805822110873, 1609.4597112488404, -77165.8661563237, -52841.24497666895, -37573.01420843771, -38009.588481138766, -6397.382187531256, -45416.44250350505, 0.016, 0.788, 0.636, 192.0, 0.0, 0.0, 0.0, 0.0, 0.0, 0.0, 0.0, 0.0, 0.0, 1.6541564099328103E9, 0.0, 2022-06-02 09:53:29.932
160.0, 24331.572572180343, 1617.7522084417592, -77145.48136538046, -52828.34802011824, -37557.36798731899, -37997.04915249934, -6374.248132020013, -45384.18893625605, 0.016, 0.788, 0.636, 192.0, 0.0, 0.0, 0.0, 0.0, 0.0, 0.0, 0.0, 0.0, 0.0, 1.6541564099328158E9, 0.0, 2022-06-02 09:53:29.932
161.0, 24333.2936565034, 1628.4586940358513, -77113.74188825392, -52804.632819251165, -37527.483704982245, -37964.37090210568, -6325.700143063086, -45335.68565078803, 0.016, 0.788, 0.636, 192.0, 0.0, 0.0, 0.0, 0.0, 0.0, 0.0, 0.0, 0.0, 0.0, 1.6541564099328215E9, 0.0, 2022-06-02 09:53:29.932
162.0, 24325.269380243946, 1627.2964033241753, -77113.78659174283, -52802.397644805635, -37535.15035333042, -37959.542925303336, -6335.177282712136, -45343.79933402531, 0.016, 0.788, 0.636, 192.0, 0.0, 0.0, 0.0, 0.0, 0.0, 0.0, 0.0, 0.0, 0.0, 1.6541564099328275E9, 0.0, 2022-06-02 09:53:29.932
163.0, 24340.982656596025, 1635.1865691168987, -77127.5999698162, -52811.3159908433, -37542.034690622655, -37965.3096753728, -6341.972213026549, -45362.06070924529, 0.016, 0.788, 0.636, 192.0, 0.0, 0.0, 0.0, 0.0, 0.0, 0.0, 0.0, 0.0, 0.0, 1.6541564099328332E9, 0.0, 2022-06-02 09:53:29.932
164.0, 24339.261572272968, 1624.1895108448878, -77148.45414739301, -52830.58319456378, -37563.5147170442, -37994.702219331535, -6367.587312172332, -45392.05675030431, 0.016, 0.788, 0.636, 192.0, 0.0, 0.0, 0.0, 0.0, 0.0, 0.0, 0.0, 0.0, 0.0, 1.6541564099328384E9, 0.0, 2022-06-02 09:53:29.932
165.0, 24349.05163634439, 1634.2924993386864, -77122.41436510258, -52807.53854603035, -37544.15810634591, -37980.68767555805, -6369.263693006479, -45379.98680829845, 0.016, 0.788, 0.636, 192.0, 0.0, 0.0, 0.0, 0.0, 0.0, 0.0, 0.0, 0.0, 0.0, 1.6541564099328508E9, 0.0, 2022-06-02 09:53:29.932
166.0, 24351.286810789923, 1644.4178395769407, -77092.37362055464, -52780.04590035033, -37508.819998362065, -37956.436032824044, -6320.648648816186, -45348.58260733874, 0.02, 0.794, 0.636, 192.0, 0.0, 160.0, 24.0, 208.0, 19.0, 224.0, 0.0, 0.0, 0.0, 1.6541564099328604E9, 0.0, 2022-06-02 09:53:29.932
167.0, 24346.43648224312, 1653.179723403421, -77088.01503038585, -52774.077984580756, -37500.66161163588, -37941.39330880562, -6307.952857965572, -45330.58945305222, 0.02, 0.794, 0.636, 192.0, 0.0, 0.0, 0.0, 0.0, 0.0, 0.0, 0.0, 0.0, 0.0, 1.6541564099328656E9, 0.0, 2022-06-02 09:53:29.932
168.0, 24327.549258178387, 1630.8503306925693, -77131.3103593958, -52810.287810598355, -37534.56920797458, -37962.85098348272, -6340.9440327816055, -45350.549560850806, 0.02, 0.794, 0.636, 192.0, 0.0, 0.0, 0.0, 0.0, 0.0, 0.0, 0.0, 0.0, 0.0, 1.654156409932872E9, 0.0, 2022-06-02 09:53:29.932
169.0, 24312.126554504222, 1600.9213448669132, -77170.3141534703, -52850.16332270662, -37573.79651949365, -38010.974289294994, -6406.188774846647, -45416.77777967189, 0.02, 0.794, 0.636, 192.0, 0.0, 0.0, 0.0, 0.0, 0.0, 0.0, 0.0, 0.0, 0.0, 1.654156409932881E9, 0.0, 2022-06-02 09:53:29.932
170.0, 24324.308255232365, 1613.3265630396086, -77151.00224626092, -52836.10407544424, -37557.14446987444, -38010.54960615034, -6402.344274800334, -45418.3200500393, 0.02, 0.794, 0.636, 192.0, 0.0, 0.0, 0.0, 0.0, 0.0, 0.0, 0.0, 0.0, 0.0, 1.6541564099329028E9, 0.0, 2022-06-02 09:53:29.932
171.0, 24333.517173947952, 1631.3197173261306, -77113.02663243136, -52808.49967104193, -37519.07944906705, -37979.32421914628, -6315.0607127023595, -45375.69527336303, 0.02, 0.794, 0.636, 192.0, 0.0, 0.0, 0.0, 0.0, 0.0, 0.0, 0.0, 0.0, 0.0, 1.6541564099329307E9, 0.0, 2022-06-02 09:53:29.932
172.0, 24327.661016900664, 1627.564624257639, -77111.99845218641, -52803.73874947295, -37508.685887895335, -37962.78392824935, -6316.446520858589, -45326.92376696155, 0.02, 0.794, 0.636, 192.0, 0.0, 0.0, 0.0, 0.0, 0.0, 0.0, 0.0, 0.0, 0.0, 1.6541564099329402E9, 0.0, 2022-06-02 09:53:29.932
173.0, 24326.5434296779, 1621.216728832332, -77142.32976941226, -52834.53945333236, -37536.5585132311, -37976.53025108937, -6338.641803102709, -45345.94510149302, 0.02, 0.794, 0.636, 192.0, 0.0, 0.0, 0.0, 0.0, 0.0, 0.0, 0.0, 0.0, 0.0, 1.6541564099329462E9, 0.0, 2022-06-02 09:53:29.932
174.0, 24337.942819350104, 1624.793007945181, -77142.44152813453, -52835.74644753295, -37554.395205306435, -37995.8198065543, -6375.544533198421, -45384.524212422875, 0.02, 0.794, 0.636, 192.0, 0.0, 0.0, 0.0, 0.0, 0.0, 0.0, 0.0, 0.0, 0.0, 1.6541564099329515E9, 0.0, 2022-06-02 09:53:29.932
175.0, 24331.61727566925, 1622.826054433114, -77133.4561268635, -52821.15075840364, -37545.78978369114, -38000.60307986773, -6370.1801145291465, -45401.60094518673, 0.02, 0.794, 0.636, 192.0, 0.0, 0.0, 0.0, 0.0, 0.0, 0.0, 0.0, 0.0, 0.0, 1.6541564099329565E9, 0.0, 2022-06-02 09:53:29.932
176.0, 24320.597865652784, 1625.7764847012145, -77115.35121385471, -52806.21979310749, -37531.64112945094, -37977.84900401223, -6349.370640441256, -45370.53202039385, 0.024, 0.794, 0.632, 192.0, 0.0, 192.0, 24.0, 208.0, 19.0, 192.0, 0.0, 0.0, 0.0, 1.6541564099329622E9, 0.0, 2022-06-02 09:53:29.932
177.0, 24331.68433090262, 1647.3235663561304, -77097.91685317956, -52785.07504285277, -37516.19607403232, -37948.2552943534, -6329.7905122984075, -45338.7031362895, 0.024, 0.794, 0.632, 192.0, 0.0, 0.0, 0.0, 0.0, 0.0, 0.0, 0.0, 0.0, 0.0, 1.6541564099329677E9, 0.0, 2022-06-02 09:53:29.932
178.0, 24314.71935686104, 1621.887281165991, -77138.73113855495, -52815.29460135634, -37546.68385346936, -37969.62356205268, -6353.125733509748, -45361.83719180074, 0.024, 0.794, 0.632, 192.0, 0.0, 0.0, 0.0, 0.0, 0.0, 0.0, 0.0, 0.0, 0.0, 1.654156409932973E9, 0.0, 2022-06-02 09:53:29.932
179.0, 24307.097412001778, 1603.5588507126392, -77166.84963307974, -52844.41892438161, -37576.43402533937, -37997.496187388446, -6381.26657977898, -45383.898363578126, 0.024, 0.794, 0.632, 192.0, 0.0, 0.0, 0.0, 0.0, 0.0, 0.0, 0.0, 0.0, 0.0, 1.654156409932978E9, 0.0, 2022-06-02 09:53:29.932
180.0, 24323.704758132073, 1623.6754207224155, -77133.34436814122, -52818.200328135536, -37553.45643203932, -37979.95006799103, -6372.415288974677, -45370.35320643821, 0.024, 0.794, 0.632, 192.0, 0.0, 0.0, 0.0, 0.0, 0.0, 0.0, 0.0, 0.0, 0.0, 1.6541564099329832E9, 0.0, 2022-06-02 09:53:29.932
181.0, 24334.210078026066, 1645.3342610996083, -77104.44356256051, -52787.19845857602, -37527.79662940462, -37943.382614062146, -6338.038306002415, -45325.73912450542, 0.024, 0.794, 0.632, 192.0, 0.0, 0.0, 0.0, 0.0, 0.0, 0.0, 0.0, 0.0, 0.0, 1.654156409932989E9, 0.0, 2022-06-02 09:53:29.932
182.0, 24324.241199999, 1637.2429296067871, -77109.42800157405, -52793.90398191261, -37525.15912355889, -37939.046375637816, -6324.8060732848735, -45319.659450013576, 0.024, 0.794, 0.632, 192.0, 0.0, 0.0, 0.0, 0.0, 0.0, 0.0, 0.0, 0.0, 0.0, 1.6541564099329948E9, 0.0, 2022-06-02 09:53:29.932
183.0, 24333.852450114784, 1638.8969586964797, -77129.76808902838, -52810.220755364986, -37538.70428069881, -37951.54100078833, -6350.287061963923, -45355.712813819984, 0.024, 0.794, 0.632, 192.0, 0.0, 0.0, 0.0, 0.0, 0.0, 0.0, 0.0, 0.0, 0.0, 1.6541564099330006E9, 0.0, 2022-06-02 09:53:29.933
184.0, 24333.67363615914, 1626.603499246061, -77149.83995554924, -52830.89611898615, -37558.731443730765, -37980.777082535875, -6370.493038951521, -45391.430901459564, 0.024, 0.794, 0.632, 192.0, 0.0, 0.0, 0.0, 0.0, 0.0, 0.0, 0.0, 0.0, 0.0, 1.6541564099330056E9, 0.0, 2022-06-02 09:53:29.933
185.0, 24344.76010140897, 1640.5509877861725, -77117.13935341113, -52807.40443556362, -37529.40595500541, -37968.77419576338, -6344.475608405543, -45371.20257272751, 0.024, 0.794, 0.632, 192.0, 0.0, 0.0, 0.0, 0.0, 0.0, 0.0, 0.0, 0.0, 0.0, 1.654156409933011E9, 0.0, 2022-06-02 09:53:29.933
186.0, 24336.512307704965, 1645.1330953995105, -77099.3026613358, -52793.12167085668, -37515.41376297638, -37953.79852697832, -6344.341497938812, -45357.52330512086, 0.02, 0.796, 0.636, 192.0, 0.0, 160.0, 24.0, 224.0, 19.0, 224.0, 0.0, 0.0, 0.0, 1.654156409933016E9, 0.0, 2022-06-02 09:53:29.933
187.0, 24324.464717443552, 1642.7191069983373, -77094.20646359998, -52786.170278331076, -37517.31366125508, -37941.907398928095, -6337.971250769049, -45325.60501403869, 0.02, 0.796, 0.636, 192.0, 0.0, 0.0, 0.0, 0.0, 0.0, 0.0, 0.0, 0.0, 0.0, 1.6541564099330213E9, 0.0, 2022-06-02 09:53:29.933
188.0, 24332.131365791724, 1639.8580837080578, -77108.89155970712, -52799.804842448815, -37523.2592252802, -37949.28347459835, -6317.921735992639, -45326.364973350166, 0.02, 0.796, 0.636, 192.0, 0.0, 0.0, 0.0, 0.0, 0.0, 0.0, 0.0, 0.0, 0.0, 1.6541564099330263E9, 0.0, 2022-06-02 09:53:29.933
189.0, 24330.343226235298, 1621.3508392990636, -77137.12181295417, -52822.9165462156, -37549.14254535944, -37991.48356812997, -6354.064506776871, -45384.524212422875, 0.02, 0.796, 0.636, 192.0, 0.0, 0.0, 0.0, 0.0, 0.0, 0.0, 0.0, 0.0, 0.0, 1.6541564099330313E9, 0.0, 2022-06-02 09:53:29.933
190.0, 24338.926296106136, 1632.1020283820665, -77116.28998712183, -52805.8621651962, -37529.27184453867, -37986.49912911643, -6346.7554863399855, -45373.63891287314, 0.02, 0.796, 0.636, 192.0, 0.0, 0.0, 0.0, 0.0, 0.0, 0.0, 0.0, 0.0, 0.0, 1.6541564099330366E9, 0.0, 2022-06-02 09:53:29.933
191.0, 24339.14981355069, 1642.5849965316054, -77096.48634153442, -52784.82917366376, -37505.13196052694, -37957.95595144701, -6314.7701400244405, -45334.07632518725, 0.02, 0.796, 0.636, 192.0, 0.0, 0.0, 0.0, 0.0, 0.0, 0.0, 0.0, 0.0, 0.0, 1.654156409933042E9, 0.0, 2022-06-02 09:53:29.933
192.0, 24327.750423878482, 1638.6734412519268, -77092.50773102138, -52785.81265041979, -37496.303021467094, -37949.79756472082, -6294.787680481396, -45318.58656627972, 0.02, 0.796, 0.636, 192.0, 0.0, 0.0, 0.0, 0.0, 0.0, 0.0, 0.0, 0.0, 0.0, 1.6541564099330509E9, 0.0, 2022-06-02 09:53:29.933
193.0, 24332.444290214098, 1634.8959964389799, -77116.66996677757, -52809.103168142225, -37523.81801889158, -37965.399082350625, -6299.839174728296, -45364.16177322409, 0.02, 0.796, 0.636, 192.0, 0.0, 0.0, 0.0, 0.0, 0.0, 0.0, 0.0, 0.0, 0.0, 1.654156409933056E9, 0.0, 2022-06-02 09:53:29.933
194.0, 24321.357824964267, 1610.89022289398, -77158.17715623108, -52852.19733145206, -37570.28729561416, -38010.59430963926, -6378.472611722066, -45428.19952108854, 0.02, 0.796, 0.636, 192.0, 0.0, 0.0, 0.0, 0.0, 0.0, 0.0, 0.0, 0.0, 0.0, 1.6541564099330611E9, 0.0, 2022-06-02 09:53:29.933
195.0, 24313.467659171543, 1609.3926560154744, -77152.49981313942, -52845.13418020418, -37571.471938070295, -38007.979155537985, -6405.697036468629, -45413.536776725865, 0.022, 0.798, 0.628, 192.0, 0.0, 176.0, 24.0, 240.0, 19.0, 160.0, 0.0, 0.0, 0.0, 1.654156409933066E9, 0.0, 2022-06-02 09:53:29.933
196.0, 24326.67754014463, 1640.573339530628, -77106.92460619505, -52798.86606918169, -37528.06485033809, -37956.57014329078, -6336.87601529074, -45345.363956137175, 0.022, 0.798, 0.628, 192.0, 0.0, 0.0, 0.0, 0.0, 0.0, 0.0, 0.0, 0.0, 0.0, 1.6541564099330711E9, 0.0, 2022-06-02 09:53:29.933
197.0, 24332.801918125384, 1656.3313193716192, -77081.24245181591, -52776.42491774856, -37504.57316691556, -37924.137762086124, -6303.10252941877, -45316.95488893448, 0.022, 0.798, 0.628, 192.0, 0.0, 0.0, 0.0, 0.0, 0.0, 0.0, 0.0, 0.0, 0.0, 1.6541564099330764E9, 0.0, 2022-06-02 09:53:29.933
198.0, 24326.43167095562, 1642.5402930426949, -77113.33955685372, -52805.16926111809, -37529.40595500541, -37942.10856462819, -6321.788587783407, -45352.65062482961, 0.022, 0.798, 0.628, 192.0, 0.0, 0.0, 0.0, 0.0, 0.0, 0.0, 0.0, 0.0, 0.0, 1.6541564099330816E9, 0.0, 2022-06-02 09:53:29.933
199.0, 24325.314083732854, 1625.1282841120105, -77147.91770552608, -52831.36550561971, -37558.19500186384, -37968.953009719015, -6363.519294681465, -45381.17145075458, 0.022, 0.798, 0.628, 192.0, 0.0, 0.0, 0.0, 0.0, 0.0, 0.0, 0.0, 0.0, 0.0, 1.6541564099330869E9, 0.0, 2022-06-02 09:53:29.933
200.0, 24335.35001699329, 1636.7735429732256, -77125.56596107078, -52810.10899664271, -37540.80534467761, -37950.155192632104, -6353.505713165488, -45347.64383407162, 0.022, 0.798, 0.628, 192.0, 0.0, 0.0, 0.0, 0.0, 0.0, 0.0, 0.0, 0.0, 0.0, 1.654156409933092E9, 0.0, 2022-06-02 09:53:29.933
201.0, 24331.170240780146, 1644.5743017881277, -77097.91685317956, -52790.97590338897, -37520.979347345754, -37926.61880572067, -6326.057770974371, -45308.86355744166, 0.022, 0.798, 0.628, 192.0, 0.0, 0.0, 0.0, 0.0, 0.0, 0.0, 0.0, 0.0, 0.0, 1.6541564099330976E9, 0.0, 2022-06-02 09:53:29.933
202.0, 24330.902019846682, 1652.9338542144126, -77091.63601298763, -52785.4103190196, -37512.57509143056, -37918.86275039468, -6326.34834365229, -45320.01707792486, 0.022, 0.798, 0.628, 192.0, 0.0, 0.0, 0.0, 0.0, 0.0, 0.0, 0.0, 0.0, 0.0, 1.654156409933103E9, 0.0, 2022-06-02 09:53:29.933
203.0, 24333.003083825482, 1645.4013163329741, -77114.34538535422, -52803.73874947295, -37521.962824101785, -37936.878256425654, -6320.5815935828205, -45346.1015637042, 0.022, 0.798, 0.628, 192.0, 0.0, 0.0, 0.0, 0.0, 0.0, 0.0, 0.0, 0.0, 0.0, 1.6541564099331083E9, 0.0, 2022-06-02 09:53:29.933
204.0, 24334.366540237254, 1630.4032958034632, -77141.81567928978, -52830.44908409704, -37552.69647272783, -37972.953971976516, -6367.274387749957, -45383.94306706704, 0.022, 0.798, 0.628, 192.0, 0.0, 0.0, 0.0, 0.0, 0.0, 0.0, 0.0, 0.0, 0.0, 1.6541564099331133E9, 0.0, 2022-06-02 09:53:29.933
205.0, 24340.446214729098, 1640.5286360417172, -77126.7506035269, -52818.13327290217, -37546.72855695827, -37965.84611723973, -6383.948789113616, -45380.210325743, 0.02, 0.796, 0.632, 192.0, 0.0, 160.0, 24.0, 224.0, 19.0, 192.0, 0.0, 0.0, 0.0, 1.6541564099331188E9, 0.0, 2022-06-02 09:53:29.933
206.0, 24338.72513040604, 1647.6811942674153, -77101.6495945036, -52799.961304660006, -37518.02891707765, -37945.058994896295, -6361.418230702667, -45356.09279347573, 0.02, 0.796, 0.632, 192.0, 0.0, 0.0, 0.0, 0.0, 0.0, 0.0, 0.0, 0.0, 0.0, 1.654156409933124E9, 0.0, 2022-06-02 09:53:29.933
207.0, 24323.10126103178, 1635.8794731950134, -77104.5553212828, -52800.45304303802, -37506.42836170535, -37946.93654143054, -6305.404759097667, -45326.566139050265, 0.02, 0.796, 0.632, 192.0, 0.0, 0.0, 0.0, 0.0, 0.0, 0.0, 0.0, 0.0, 0.0, 1.6541564099331293E9, 0.0, 2022-06-02 09:53:29.933
208.0, 24327.504554689476, 1637.2876330956976, -77117.31816736677, -52805.59394426274, -37513.84914086451, -37949.77521297636, -6299.950933450572, -45325.00151693839, 0.02, 0.796, 0.632, 192.0, 0.0, 0.0, 0.0, 0.0, 0.0, 0.0, 0.0, 0.0, 0.0, 1.6541564099331343E9, 0.0, 2022-06-02 09:53:29.933
209.0, 24345.38595025372, 1645.7365924998037, -77119.86626623468, -52808.3655605752, -37526.25435903721, -37959.319407858784, -6318.748750537486, -45339.641909556616, 0.02, 0.796, 0.632, 192.0, 0.0, 0.0, 0.0, 0.0, 0.0, 0.0, 0.0, 0.0, 0.0, 1.654156409933139E9, 0.0, 2022-06-02 09:53:29.933
210.0, 24329.560915179365, 1632.6608219934492, -77130.61745531768, -52819.56378454731, -37536.938492886846, -37985.605059338224, -6338.440637402611, -45374.3094652068, 0.02, 0.796, 0.632, 192.0, 0.0, 0.0, 0.0, 0.0, 0.0, 0.0, 0.0, 0.0, 0.0, 1.6541564099331453E9, 0.0, 2022-06-02 09:53:29.933
211.0, 24318.5415051629, 1633.7784092162144, -77118.18988540053, -52804.49870878443, -37531.551722473116, -37973.021027209885, -6326.415398885656, -45356.003386497905, 0.02, 0.796, 0.632, 192.0, 0.0, 0.0, 0.0, 0.0, 0.0, 0.0, 0.0, 0.0, 0.0, 1.654156409933151E9, 0.0, 2022-06-02 09:53:29.933
212.0, 24327.057519800368, 1640.3498220860747, -77096.7992659568, -52783.3092550408, -37512.440980963824, -37943.33791057324, -6293.4018723251675, -45311.70222898749, 0.02, 0.796, 0.632, 192.0, 0.0, 0.0, 0.0, 0.0, 0.0, 0.0, 0.0, 0.0, 0.0, 1.6541564099331563E9, 0.0, 2022-06-02 09:53:29.933
213.0, 24338.322799005844, 1646.8541797225691, -77109.80798122978, -52795.535659257854, -37521.87341712396, -37949.685805998546, -6351.270538719958, -45344.26872065887, 0.02, 0.796, 0.632, 192.0, 0.0, 0.0, 0.0, 0.0, 0.0, 0.0, 0.0, 0.0, 0.0, 1.6541564099331617E9, 0.0, 2022-06-02 09:53:29.933
214.0, 24351.555031723386, 1649.3128716126528, -77130.37158612866, -52814.53464204486, -37542.07939411156, -37973.17748942107, -6363.87692259275, -45381.01498854339, 0.02, 0.796, 0.632, 192.0, 0.0, 0.0, 0.0, 0.0, 0.0, 0.0, 0.0, 0.0, 0.0, 1.6541564099331698E9, 0.0, 2022-06-02 09:53:29.933
215.0, 24346.324723520844, 1641.6238715200273, -77129.14224018363, -52815.13813914516, -37541.90058015592, -37981.67115231409, -6359.630091146242, -45382.98194205546, 0.022, 0.794, 0.63, 192.0, 0.0, 176.0, 24.0, 208.0, 19.0, 176.0, 0.0, 0.0, 0.0, 1.6541564099331748E9, 0.0, 2022-06-02 09:53:29.933
216.0, 24323.078909287324, 1629.7997987031697, -77119.08395517874, -52805.92922042957, -37533.228103307265, -37967.09781492923, -6342.240433960013, -45350.03547072834, 0.022, 0.794, 0.63, 192.0, 0.0, 0.0, 0.0, 0.0, 0.0, 0.0, 0.0, 0.0, 0.0, 1.65415640993318E9, 0.0, 2022-06-02 09:53:29.933
217.0, 24327.32574073383, 1642.339127342597, -77103.28127184884, -52789.053653365816, -37518.43124847785, -37933.234922079435, -6327.465930875055, -45310.02584815334, 0.022, 0.794, 0.63, 192.0, 0.0, 0.0, 0.0, 0.0, 0.0, 0.0, 0.0, 0.0, 0.0, 1.6541564099331856E9, 0.0, 2022-06-02 09:53:29.933
218.0, 24342.681389174628, 1650.8774937245244, -77107.7516207399, -52788.02547312087, -37521.22521653476, -37928.004613876896, -6332.91975652215, -45316.12787438964, 0.022, 0.794, 0.63, 192.0, 0.0, 0.0, 0.0, 0.0, 0.0, 0.0, 0.0, 0.0, 0.0, 1.6541564099331908E9, 0.0, 2022-06-02 09:53:29.933
219.0, 24340.647380429196, 1638.628737763016, -77137.6582548211, -52812.098301899234, -37555.55749601811, -37959.6099805367, -6377.779707643951, -45361.21134295599, 0.022, 0.794, 0.63, 192.0, 0.0, 0.0, 0.0, 0.0, 0.0, 0.0, 0.0, 0.0, 0.0, 1.6541564099331965E9, 0.0, 2022-06-02 09:53:29.933
220.0, 24333.91950534815, 1632.3702493155301, -77127.1529349271, -52811.5171565434, -37550.88598142695, -37965.57789630627, -6364.480419693044, -45353.38823239663, 0.022, 0.794, 0.63, 192.0, 0.0, 0.0, 0.0, 0.0, 0.0, 0.0, 0.0, 0.0, 0.0, 1.654156409933202E9, 0.0, 2022-06-02 09:53:29.933
221.0, 24331.01377856896, 1636.9300051844127, -77102.43190555954, -52792.942856901034, -37529.00362360521, -37945.14840187412, -6335.981945512527, -45320.844092469706, 0.022, 0.794, 0.63, 192.0, 0.0, 0.0, 0.0, 0.0, 0.0, 0.0, 0.0, 0.0, 0.0, 1.6541564099332073E9, 0.0, 2022-06-02 09:53:29.933
222.0, 24336.445252471596, 1645.9601099443569, -77086.85273967418, -52782.2587230514, -37507.702411139304, -37929.65864296659, -6314.993657468994, -45313.78094122183, 0.022, 0.794, 0.63, 192.0, 0.0, 0.0, 0.0, 0.0, 0.0, 0.0, 0.0, 0.0, 0.0, 1.6541564099332163E9, 0.0, 2022-06-02 09:53:29.933
223.0, 24322.520115675943, 1625.2400428342871, -77120.44741159052, -52815.182842634065, -37527.99779510472, -37956.12310840167, -6336.428980401633, -45344.51458984787, 0.022, 0.794, 0.63, 192.0, 0.0, 0.0, 0.0, 0.0, 0.0, 0.0, 0.0, 0.0, 0.0, 1.6541564099332223E9, 0.0, 2022-06-02 09:53:29.933
224.0, 24315.702833617073, 1605.7493216692594, -77153.61740036219, -52846.81056103833, -37567.87330721299, -37992.13176871917, -6390.341388027834, -45390.98386657046, 0.022, 0.794, 0.63, 192.0, 0.0, 0.0, 0.0, 0.0, 0.0, 0.0, 0.0, 0.0, 0.0, 1.6541564099332275E9, 0.0, 2022-06-02 09:53:29.933
225.0, 24328.37627272323, 1615.9193653964242, -77131.24330416243, -52829.107979429726, -37552.24943783873, -37987.39319889465, -6377.802059388407, -45383.205459500015, 0.018000000000000002, 0.794, 0.63, 192.0, 0.0, 144.0, 24.0, 208.0, 19.0, 176.0, 0.0, 0.0, 0.0, 1.6541564099332342E9, 0.0, 2022-06-02 09:53:29.933
226.0, 24341.67556067414, 1635.7900662171921, -77091.41249554307, -52793.43459527905, -37513.156236786395, -37956.436032824044, -6326.34834365229, -45338.88195024514, 0.018000000000000002, 0.794, 0.63, 192.0, 0.0, 0.0, 0.0, 0.0, 0.0, 0.0, 0.0, 0.0, 0.0, 1.6541564099332392E9, 0.0, 2022-06-02 09:53:29.933
227.0, 24335.841755371304, 1641.2662436087423, -77090.31726006475, -52788.69602545453, -37518.76652464468, -37954.96081768999, -6348.834198574329, -45362.48539238994, 0.018000000000000002, 0.794, 0.63, 192.0, 0.0, 0.0, 0.0, 0.0, 0.0, 0.0, 0.0, 0.0, 0.0, 1.6541564099332445E9, 0.0, 2022-06-02 09:53:29.933
228.0, 24326.811650611362, 1632.1690836154323, -77118.92749296754, -52816.21102287901, -37539.35248128801, -37974.98798072195, -6380.506620467499, -45407.1665295561, 0.018000000000000002, 0.794, 0.63, 192.0, 0.0, 0.0, 0.0, 0.0, 0.0, 0.0, 0.0, 0.0, 0.0, 1.6541564099332497E9, 0.0, 2022-06-02 09:53:29.933
229.0, 24322.117784275746, 1620.2332520762984, -77147.98476075946, -52832.93012773158, -37563.73823448876, -37990.72360881849, -6397.225725320069, -45407.12182606719, 0.018000000000000002, 0.794, 0.63, 192.0, 0.0, 0.0, 0.0, 0.0, 0.0, 0.0, 0.0, 0.0, 0.0, 1.6541564099332547E9, 0.0, 2022-06-02 09:53:29.933
230.0, 24326.610484911263, 1627.9669556578347, -77120.22389414597, -52806.15273787412, -37538.4137080209, -37974.65270455512, -6333.791474555907, -45351.71185156248, 0.018000000000000002, 0.794, 0.63, 192.0, 0.0, 0.0, 0.0, 0.0, 0.0, 0.0, 0.0, 0.0, 0.0, 1.6541564099332602E9, 0.0, 2022-06-02 09:53:29.933
231.0, 24329.516211690454, 1639.0310691632117, -77092.10539962118, -52783.800993418816, -37519.794704889624, -37955.38550083464, -6310.880936489218, -45337.6526043001, 0.018000000000000002, 0.794, 0.63, 192.0, 0.0, 0.0, 0.0, 0.0, 0.0, 0.0, 0.0, 0.0, 0.0, 1.6541564099332657E9, 0.0, 2022-06-02 09:53:29.933
232.0, 24317.982711551515, 1634.918348183435, -77100.17437936955, -52788.71837719898, -37532.9598823738, -37956.100756657215, -6310.210384155558, -45359.557313866295, 0.018000000000000002, 0.794, 0.63, 192.0, 0.0, 0.0, 0.0, 0.0, 0.0, 0.0, 0.0, 0.0, 0.0, 1.6541564099332707E9, 0.0, 2022-06-02 09:53:29.933
233.0, 24311.232484726013, 1625.307098067653, -77124.448373848, -52809.952534431526, -37542.97346388978, -37965.242620139434, -6347.4483904181, -45375.851735574215, 0.018000000000000002, 0.794, 0.63, 192.0, 0.0, 0.0, 0.0, 0.0, 0.0, 0.0, 0.0, 0.0, 0.0, 1.654156409933276E9, 0.0, 2022-06-02 09:53:29.933
234.0, 24341.51909846295, 1641.4897610532953, -77119.30747262329, -52808.43261580856, -37541.63235922246, -37961.21930613748, -6381.892428623728, -45373.52715415086, 0.018000000000000002, 0.794, 0.63, 192.0, 0.0, 0.0, 0.0, 0.0, 0.0, 0.0, 0.0, 0.0, 0.0, 1.6541564099332817E9, 0.0, 2022-06-02 09:53:29.933
235.0, 24345.76592990946, 1646.8988832114796, -77100.3531933252, -52800.006008148914, -37528.93656837184, -37962.69452127153, -6346.800189828896, -45352.851790529705, 0.018000000000000002, 0.792, 0.636, 192.0, 0.0, 144.0, 24.0, 192.0, 19.0, 224.0, 0.0, 0.0, 0.0, 1.6541564099332898E9, 0.0, 2022-06-02 09:53:29.933
236.0, 24341.027360084936, 1652.4197640919406, -77077.04032385831, -52782.23637130694, -37501.28746048063, -37944.16492511808, -6310.433901600111, -45332.77992400884, 0.018000000000000002, 0.792, 0.636, 192.0, 0.0, 0.0, 0.0, 0.0, 0.0, 0.0, 0.0, 0.0, 0.0, 1.6541564099332948E9, 0.0, 2022-06-02 09:53:29.933
237.0, 24319.56968540784, 1637.46644705134, -77091.03251588733, -52790.48416501095, -37510.71989664077, -37945.14840187412, -6325.5660325963545, -45332.75757226438, 0.018000000000000002, 0.792, 0.636, 192.0, 0.0, 0.0, 0.0, 0.0, 0.0, 0.0, 0.0, 0.0, 0.0, 1.6541564099333005E9, 0.0, 2022-06-02 09:53:29.933
238.0, 24320.28494123041, 1632.079676637611, -77111.73023125294, -52811.047769909834, -37531.86464689549, -37958.760614247396, -6339.0664862473595, -45352.985900996435, 0.018000000000000002, 0.792, 0.636, 192.0, 0.0, 0.0, 0.0, 0.0, 0.0, 0.0, 0.0, 0.0, 0.0, 1.654156409933306E9, 0.0, 2022-06-02 09:53:29.933
239.0, 24334.29948500389, 1632.0349731487006, -77126.3035686378, -52829.666773041106, -37538.391356276436, -37981.87231801418, -6350.510579408477, -45388.65928514711, 0.018000000000000002, 0.792, 0.636, 192.0, 0.0, 0.0, 0.0, 0.0, 0.0, 0.0, 0.0, 0.0, 0.0, 1.6541564099333117E9, 0.0, 2022-06-02 09:53:29.933
240.0, 24344.424825242142, 1646.6753657669267, -77107.19282712851, -52807.58324951926, -37532.69166144034, -37970.629390553164, -6366.045041804915, -45376.07525301877, 0.018000000000000002, 0.792, 0.636, 192.0, 0.0, 0.0, 0.0, 0.0, 0.0, 0.0, 0.0, 0.0, 0.0, 1.6541564099333172E9, 0.0, 2022-06-02 09:53:29.933
241.0, 24358.01468587097, 1670.4129183784628, -77061.1929370395, -52764.66790016507, -37489.37398068595, -37928.697517955006, -6306.477642831522, -45308.528281274834, 0.018000000000000002, 0.792, 0.636, 192.0, 0.0, 0.0, 0.0, 0.0, 0.0, 0.0, 0.0, 0.0, 0.0, 1.6541564104117763E9, 0.0, 2022-06-02 09:53:30.411
242.0, 24355.757159680983, 1672.4469271238956, -77055.29207650329, -52760.06344080728, -37472.78898630011, -37917.63340444963, -6277.979168651005, -45300.5934119932, 0.018000000000000002, 0.792, 0.636, 192.0, 0.0, 0.0, 0.0, 0.0, 0.0, 0.0, 0.0, 0.0, 0.0, 1.6541564104119525E9, 0.0, 2022-06-02 09:53:30.411
243.0, 24335.417072226654, 1644.306080854664, -77105.82937071675, -52804.006970406415, -37513.13388504194, -37953.731471744955, -6333.992640256005, -45360.09375573323, 0.018000000000000002, 0.792, 0.636, 192.0, 0.0, 0.0, 0.0, 0.0, 0.0, 0.0, 0.0, 0.0, 0.0, 1.6541564104119616E9, 0.0, 2022-06-02 09:53:30.411
244.0, 24345.318895020355, 1639.567511030139, -77124.4036703591, -52826.157549161624, -37536.53616148665, -37978.541908090345, -6373.510524452988, -45390.961514826005, 0.018000000000000002, 0.792, 0.636, 192.0, 0.0, 0.0, 0.0, 0.0, 0.0, 0.0, 0.0, 0.0, 0.0, 1.654156410411968E9, 0.0, 2022-06-02 09:53:30.411
245.0, 24352.58321196833, 1650.631624535516, -77099.97321366945, -52805.57159251828, -37521.22521653476, -37973.35630337671, -6343.223910716047, -45365.50287789141, 0.018000000000000002, 0.794, 0.63, 192.0, 0.0, 144.0, 24.0, 208.0, 19.0, 176.0, 0.0, 0.0, 0.0, 1.6541564104119751E9, 0.0, 2022-06-02 09:53:30.411
246.0, 24328.935066334616, 1639.7016214968708, -77100.48730379192, -52803.35876981721, -37520.912292112385, -37973.19984116553, -6333.4338466446225, -45362.999482512416, 0.018000000000000002, 0.794, 0.63, 192.0, 0.0, 0.0, 0.0, 0.0, 0.0, 0.0, 0.0, 0.0, 0.0, 1.6541564104119816E9, 0.0, 2022-06-02 09:53:30.411
247.0, 24329.292694245898, 1647.1671041449433, -77089.42319028654, -52796.11680461369, -37521.67225142387, -37962.44865208252, -6348.878902063239, -45360.205514455505, 0.018000000000000002, 0.794, 0.63, 192.0, 0.0, 0.0, 0.0, 0.0, 0.0, 0.0, 0.0, 0.0, 0.0, 1.6541564104119897E9, 0.0, 2022-06-02 09:53:30.411
248.0, 24344.58128745333, 1655.9513397158792, -77101.6048910147, -52798.08375812576, -37524.91325436989, -37950.37871007666, -6346.01787877296, -45367.98392152595, 0.018000000000000002, 0.794, 0.63, 192.0, 0.0, 0.0, 0.0, 0.0, 0.0, 0.0, 0.0, 0.0, 0.0, 1.6541564104119973E9, 0.0, 2022-06-02 09:53:30.411
249.0, 24344.357770008777, 1636.1029906395663, -77127.91289423859, -52825.799921250335, -37537.541989987134, -37973.73628303246, -6340.519349636955, -45367.26866570338, 0.018000000000000002, 0.794, 0.63, 192.0, 0.0, 0.0, 0.0, 0.0, 0.0, 0.0, 0.0, 0.0, 0.0, 1.6541564104120026E9, 0.0, 2022-06-02 09:53:30.412
250.0, 24345.45300548709, 1630.336240570097, -77117.18405690003, -52822.2683456264, -37526.656690437405, -37980.17358543558, -6340.586404870321, -45362.93242727905, 0.018000000000000002, 0.794, 0.63, 192.0, 0.0, 0.0, 0.0, 0.0, 0.0, 0.0, 0.0, 0.0, 0.0, 1.654156410412008E9, 0.0, 2022-06-02 09:53:30.412
251.0, 24335.171203037644, 1637.309984840153, -77099.16855086906, -52797.92729591457, -37506.785989616634, -37947.96472167548, -6309.092796932793, -45311.29989758729, 0.018000000000000002, 0.794, 0.63, 192.0, 0.0, 0.0, 0.0, 0.0, 0.0, 0.0, 0.0, 0.0, 0.0, 1.6541564104120145E9, 0.0, 2022-06-02 09:53:30.412
252.0, 24340.177993795634, 1658.275921139231, -77071.81001565576, -52774.994406103426, -37485.685942850825, -37912.134875313626, -6288.171564122626, -45277.638170437596, 0.018000000000000002, 0.794, 0.63, 192.0, 0.0, 0.0, 0.0, 0.0, 0.0, 0.0, 0.0, 0.0, 0.0, 1.6541564104120207E9, 0.0, 2022-06-02 09:53:30.412
253.0, 24338.00987458347, 1647.5023803117729, -77101.49313229241, -52793.859278423704, -37512.35157398601, -37933.21257033498, -6331.891576277206, -45331.26000538588, 0.018000000000000002, 0.794, 0.63, 192.0, 0.0, 0.0, 0.0, 0.0, 0.0, 0.0, 0.0, 0.0, 0.0, 1.654156410412026E9, 0.0, 2022-06-02 09:53:30.412
254.0, 24332.06431055836, 1630.17977835891, -77138.9099525106, -52827.54335731785, -37549.030786637166, -37967.924829474076, -6369.5319139399435, -45374.734148351454, 0.018000000000000002, 0.794, 0.63, 192.0, 0.0, 0.0, 0.0, 0.0, 0.0, 0.0, 0.0, 0.0, 0.0, 1.654156410412033E9, 0.0, 2022-06-02 09:53:30.412
255.0, 24333.04778731439, 1632.2584905932536, -77130.79626927331, -52825.06231368331, -37545.72272845778, -37970.495280086434, -6373.175248286158, -45368.94504653753, 0.024, 0.794, 0.628, 192.0, 0.0, 192.0, 24.0, 208.0, 19.0, 160.0, 0.0, 0.0, 0.0, 1.6541564104120405E9, 0.0, 2022-06-02 09:53:30.412
0.0, 24328.063348300857, 1632.727877226815, -77110.99262368592, -52813.282944355364, -37523.61685319148, -37962.247486382425, -6353.25984397648, -45355.22107544197, 0.024, 0.794, 0.628, 192.0, 0.0, 0.0, 0.0, 0.0, 0.0, 0.0, 0.0, 0.0, 0.0, 1.6541564104120705E9, 0.0, 2022-06-02 09:53:30.412
1.0, 24328.890362845705, 1638.2487581072758, -77101.6048910147, -52806.42095880758, -37509.870530351465, -37954.625541523164, -6337.032477501926, -45358.39502315462, 0.024, 0.794, 0.628, 192.0, 0.0, 0.0, 0.0, 0.0, 0.0, 0.0, 0.0, 0.0, 0.0, 1.6541564104120777E9, 0.0, 2022-06-02 09:53:30.412
2.0, 24326.72224363354, 1630.8726824370244, -77129.96925472848, -52822.44715958204, -37530.79176316164, -37965.9131724731, -6353.885692821228, -45372.90130530611, 0.024, 0.794, 0.628, 192.0, 0.0, 0.0, 0.0, 0.0, 0.0, 0.0, 0.0, 0.0, 0.0, 1.6541564104120836E9, 0.0, 2022-06-02 09:53:30.412
3.0, 24330.499688446485, 1617.9086706529465, -77151.98572301694, -52846.65409882714, -37560.34076933155, -37987.214384939005, -6396.26460030849, -45387.049959546326, 0.024, 0.794, 0.628, 192.0, 0.0, 0.0, 0.0, 0.0, 0.0, 0.0, 0.0, 0.0, 0.0, 1.6541564104120905E9, 0.0, 2022-06-02 09:53:30.412
4.0, 24345.788281653917, 1630.1574266144546, -77121.96733021348, -52823.63180203817, -37533.56337947409, -37971.29994288683, -6352.365774198267, -45352.78473529634, 0.024, 0.794, 0.628, 192.0, 0.0, 0.0, 0.0, 0.0, 0.0, 0.0, 0.0, 0.0, 0.0, 1.6541564104120972E9, 0.0, 2022-06-02 09:53:30.412
5.0, 24329.493859945997, 1627.7210864688261, -77110.61264403017, -52811.85243271023, -37524.197998547315, -37967.09781492923, -6338.7759135694405, -45349.74489805042, 0.024, 0.794, 0.628, 192.0, 0.0, 0.0, 0.0, 0.0, 0.0, 0.0, 0.0, 0.0, 0.0, 1.6541564104121048E9, 0.0, 2022-06-02 09:53:30.412
6.0, 24324.151793021178, 1638.2487581072758, -77100.17437936955, -52797.212040092, -37515.883149609945, -37946.42245130807, -6350.331765452835, -45342.27941540234, 0.024, 0.794, 0.628, 192.0, 0.0, 0.0, 0.0, 0.0, 0.0, 0.0, 0.0, 0.0, 0.0, 1.6541564104121113E9, 0.0, 2022-06-02 09:53:30.412
7.0, 24320.128479019222, 1635.499493539273, -77121.38618485763, -52819.519081058395, -37528.51188522719, -37963.99092244994, -6374.78457388694, -45383.048997288824, 0.024, 0.794, 0.628, 192.0, 0.0, 0.0, 0.0, 0.0, 0.0, 0.0, 0.0, 0.0, 0.0, 1.6541564104121184E9, 0.0, 2022-06-02 09:53:30.412
8.0, 24328.845659356793, 1629.3304120696084, -77143.60381884621, -52841.2226249245, -37545.99094939124, -37983.45929187051, -6360.6135679022755, -45388.48047119146, 0.024, 0.794, 0.628, 192.0, 0.0, 0.0, 0.0, 0.0, 0.0, 0.0, 0.0, 0.0, 0.0, 1.6541564104121249E9, 0.0, 2022-06-02 09:53:30.412
9.0, 24339.574496695343, 1639.0087174187563, -77122.77199301387, -52826.00108695043, -37537.00554812021, -37973.13278593216, -6359.764201612974, -45367.045148258825, 0.022, 0.788, 0.626, 192.0, 0.0, 176.0, 24.0, 160.0, 19.0, 144.0, 0.0, 0.0, 0.0, 1.6541564104121313E9, 0.0, 2022-06-02 09:53:30.412
10.0, 24330.298522746387, 1637.7793714737145, -77100.44260030301, -52803.1129006282, -37507.076562294555, -37959.2076491365, -6325.431922129622, -45345.788639281825, 0.022, 0.788, 0.626, 192.0, 0.0, 0.0, 0.0, 0.0, 0.0, 0.0, 0.0, 0.0, 0.0, 1.6541564104121406E9, 0.0, 2022-06-02 09:53:30.412
11.0, 24325.023511054937, 1639.4110488189517, -77089.06556237525, -52786.88553415365, -37493.75492259919, -37941.281550083346, -6285.24348559898, -45310.36112432017, 0.022, 0.788, 0.626, 192.0, 0.0, 0.0, 0.0, 0.0, 0.0, 0.0, 0.0, 0.0, 0.0, 1.6541564104121487E9, 0.0, 2022-06-02 09:53:30.412
12.0, 24335.215906526555, 1645.1554471439658, -77104.1529898826, -52795.1109761132, -37505.3554779715, -37931.44678252301, -6307.639933543198, -45307.16482486306, 0.022, 0.788, 0.626, 192.0, 0.0, 0.0, 0.0, 0.0, 0.0, 0.0, 0.0, 0.0, 0.0, 1.6541564104121587E9, 0.0, 2022-06-02 09:53:30.412
13.0, 24300.01190900945, 1596.5404029536728, -77166.93904005755, -52858.20995071053, -37569.013246180206, -37990.47773962948, -6373.085841308337, -45375.06942451828, 0.022, 0.788, 0.626, 192.0, 0.0, 0.0, 0.0, 0.0, 0.0, 0.0, 0.0, 0.0, 0.0, 1.6541564104121673E9, 0.0, 2022-06-02 09:53:30.412
14.0, 24306.985653279502, 1609.5714699711168, -77147.96240901499, -52843.86013077023, -37564.744062989244, -37987.66141982811, -6380.841896634329, -45370.73318609395, 0.022, 0.788, 0.626, 192.0, 0.0, 0.0, 0.0, 0.0, 0.0, 0.0, 0.0, 0.0, 0.0, 1.6541564104121745E9, 0.0, 2022-06-02 09:53:30.412
15.0, 24323.168316265146, 1639.120476141033, -77109.13742889612, -52805.72805472947, -37526.09789682602, -37950.80339322131, -6353.908044565684, -45340.93831073503, 0.022, 0.788, 0.626, 192.0, 0.0, 0.0, 0.0, 0.0, 0.0, 0.0, 0.0, 0.0, 0.0, 1.6541564104121816E9, 0.0, 2022-06-02 09:53:30.412
16.0, 24327.32574073383, 1645.4907233107954, -77101.56018752577, -52797.994351147936, -37507.9035768394, -37936.43122153654, -6342.77687582694, -45341.76532527988, 0.022, 0.788, 0.626, 192.0, 0.0, 0.0, 0.0, 0.0, 0.0, 0.0, 0.0, 0.0, 0.0, 1.6541564104121892E9, 0.0, 2022-06-02 09:53:30.412
17.0, 24326.47637444453, 1638.5393307851948, -77114.61360628768, -52815.20519437852, -37522.85689388, -37946.5565617748, -6343.134503738225, -45358.32796792126, 0.022, 0.788, 0.626, 192.0, 0.0, 0.0, 0.0, 0.0, 0.0, 0.0, 0.0, 0.0, 0.0, 1.654156410412196E9, 0.0, 2022-06-02 09:53:30.412
18.0, 24319.90496157467, 1622.9154614109352, -77143.40265314611, -52840.46266561302, -37555.870420440486, -37973.155137676615, -6364.122791781759, -45366.03931975834, 0.016, 0.796, 0.622, 192.0, 0.0, 128.0, 24.0, 224.0, 19.0, 112.0, 0.0, 0.0, 0.0, 1.654156410412204E9, 0.0, 2022-06-02 09:53:30.412
19.0, 24323.525944176432, 1630.9620894148457, -77125.32009188177, -52826.582232306275, -37544.87336216848, -37970.27176264188, -6358.333689967834, -45358.64089234363, 0.016, 0.796, 0.622, 192.0, 0.0, 0.0, 0.0, 0.0, 0.0, 0.0, 0.0, 0.0, 0.0, 1.6541564104122107E9, 0.0, 2022-06-02 09:53:30.412
20.0, 24326.185801766613, 1640.4615808083513, -77101.69429799251, -52804.78928146235, -37525.04736483662, -37953.28443685585, -6346.06258226187, -45351.39892714011, 0.016, 0.796, 0.622, 192.0, 0.0, 0.0, 0.0, 0.0, 0.0, 0.0, 0.0, 0.0, 0.0, 1.654156410412217E9, 0.0, 2022-06-02 09:53:30.412
21.0, 24328.979769823527, 1645.3566128440634, -77091.05486763178, -52792.607580734206, -37515.681983909846, -37939.20283784901, -6347.940128796116, -45345.67688055955, 0.016, 0.796, 0.622, 192.0, 0.0, 0.0, 0.0, 0.0, 0.0, 0.0, 0.0, 0.0, 0.0, 1.6541564104122229E9, 0.0, 2022-06-02 09:53:30.412
22.0, 24329.739729135006, 1645.602482033072, -77106.94695793951, -52799.15664185961, -37523.147466557915, -37939.00167214891, -6353.840989332318, -45346.79446778232, 0.016, 0.796, 0.622, 192.0, 0.0, 0.0, 0.0, 0.0, 0.0, 0.0, 0.0, 0.0, 0.0, 1.6541564104122348E9, 0.0, 2022-06-02 09:53:30.412
23.0, 24325.53760117741, 1627.2964033241753, -77137.54649609882, -52833.33245913178, -37548.896676170436, -37971.12112893118, -6362.826390603351, -45376.52228790788, 0.016, 0.796, 0.622, 192.0, 0.0, 0.0, 0.0, 0.0, 0.0, 0.0, 0.0, 0.0, 0.0, 1.6541564104122415E9, 0.0, 2022-06-02 09:53:30.412
24.0, 24324.464717443552, 1625.1729876009213, -77128.89637099461, -52827.208081151024, -37538.2125423208, -37986.007390738414, -6345.012050272471, -45387.42993920207, 0.016, 0.796, 0.622, 192.0, 0.0, 0.0, 0.0, 0.0, 0.0, 0.0, 0.0, 0.0, 0.0, 1.6541564104122481E9, 0.0, 2022-06-02 09:53:30.412
25.0, 24331.86314485826, 1643.7696389877367, -77103.3483270822, -52801.145947116136, -37516.441943221325, -37968.8636027412, -6323.912003506662, -45384.63597114515, 0.016, 0.796, 0.622, 192.0, 0.0, 0.0, 0.0, 0.0, 0.0, 0.0, 0.0, 0.0, 0.0, 1.6541564104122546E9, 0.0, 2022-06-02 09:53:30.412
26.0, 24345.564764209365, 1659.6840810399153, -77084.86343441767, -52780.33647302824, -37498.11351276797, -37937.21353259248, -6282.941255920084, -45334.83628449873, 0.016, 0.796, 0.622, 192.0, 0.0, 0.0, 0.0, 0.0, 0.0, 0.0, 0.0, 0.0, 0.0, 1.6541564104122612E9, 0.0, 2022-06-02 09:53:30.412
27.0, 24345.162432809168, 1656.5548368161724, -77094.00529789989, -52784.78447017485, -37500.303983724596, -37913.230110791934, -6300.107395661759, -45278.465184982444, 0.016, 0.796, 0.622, 192.0, 0.0, 0.0, 0.0, 0.0, 0.0, 0.0, 0.0, 0.0, 0.0, 1.654156410412268E9, 0.0, 2022-06-02 09:53:30.412
28.0, 24336.981694338527, 1633.890167938491, -77130.52804833985, -52819.18380489157, -37535.68679519735, -37939.26989308237, -6339.82644555884, -45310.11525513116, 0.02, 0.796, 0.628, 192.0, 0.0, 160.0, 24.0, 224.0, 19.0, 160.0, 0.0, 0.0, 0.0, 1.6541564104122748E9, 0.0, 2022-06-02 09:53:30.412
29.0, 24346.68235143213, 1643.9261011989238, -77114.83712373223, -52805.90686868512, -37527.550760215614, -37940.722756471965, -6352.7457538540075, -45325.35914484968, 0.02, 0.796, 0.628, 192.0, 0.0, 0.0, 0.0, 0.0, 0.0, 0.0, 0.0, 0.0, 0.0, 1.654156410412282E9, 0.0, 2022-06-02 09:53:30.412
30.0, 24343.463700230564, 1652.2856536252086, -77093.6476699886, -52791.065310366794, -37515.63728042094, -37934.151343602105, -6337.501864135488, -45323.12397040415, 0.02, 0.796, 0.628, 192.0, 0.0, 0.0, 0.0, 0.0, 0.0, 0.0, 0.0, 0.0, 0.0, 1.6541564104122944E9, 0.0, 2022-06-02 09:53:30.412
31.0, 24338.546316450396, 1653.5373513147058, -77087.07625711874, -52783.62217946317, -37512.865664108474, -37926.61880572067, -6327.309468663868, -45319.1453598911, 0.02, 0.796, 0.628, 192.0, 0.0, 0.0, 0.0, 0.0, 0.0, 0.0, 0.0, 0.0, 0.0, 1.6541564104123013E9, 0.0, 2022-06-02 09:53:30.412
32.0, 24326.319912233343, 1637.5782057736167, -77117.56403655578, -52810.421921065084, -37527.66251893789, -37942.063861139286, -6335.691372834608, -45342.569988080264, 0.02, 0.796, 0.628, 192.0, 0.0, 0.0, 0.0, 0.0, 0.0, 0.0, 0.0, 0.0, 0.0, 1.6541564104123073E9, 0.0, 2022-06-02 09:53:30.412
33.0, 24332.28782800291, 1637.8017232181696, -77142.97797000146, -52829.711476530014, -37550.4612982823, -37967.70131202952, -6376.617416932276, -45380.947933310024, 0.02, 0.796, 0.628, 192.0, 0.0, 0.0, 0.0, 0.0, 0.0, 0.0, 0.0, 0.0, 0.0, 1.6541564104123182E9, 0.0, 2022-06-02 09:53:30.412
34.0, 24328.040996556403, 1630.470351036829, -77137.14416469862, -52827.61041255122, -37551.42242329388, -37980.352399391224, -6377.287969265934, -45378.82451758677, 0.02, 0.796, 0.628, 192.0, 0.0, 0.0, 0.0, 0.0, 0.0, 0.0, 0.0, 0.0, 0.0, 1.65415641041233E9, 0.0, 2022-06-02 09:53:30.412
35.0, 24334.880630359727, 1651.6374530360047, -77098.31918457976, -52796.653246480615, -37521.51578921268, -37947.69650074202, -6343.179207227136, -45334.00926995388, 0.02, 0.796, 0.628, 192.0, 0.0, 0.0, 0.0, 0.0, 0.0, 0.0, 0.0, 0.0, 0.0, 1.6541564104123385E9, 0.0, 2022-06-02 09:53:30.412
36.0, 24350.862127645272, 1675.7326335588257, -77069.08310283221, -52766.14311529912, -37486.13297773993, -37912.71602066947, -6304.108357919259, -45300.213432337456, 0.02, 0.796, 0.628, 192.0, 0.0, 0.0, 0.0, 0.0, 0.0, 0.0, 0.0, 0.0, 0.0, 1.6541564104123564E9, 0.0, 2022-06-02 09:53:30.412
37.0, 24345.58711595382, 1662.433345607918, -77103.01305091537, -52787.69019695404, -37513.82678912005, -37928.339890043724, -6340.049963003393, -45335.797409510305, 0.02, 0.796, 0.628, 192.0, 0.0, 0.0, 0.0, 0.0, 0.0, 0.0, 0.0, 0.0, 0.0, 1.6541564104123652E9, 0.0, 2022-06-02 09:53:30.412
38.0, 24340.06623507336, 1644.6413570214936, -77133.23260941895, -52819.45202582503, -37547.89084766994, -37962.00161719342, -6377.556190199398, -45372.23075297246, 0.022, 0.798, 0.628, 192.0, 0.0, 176.0, 24.0, 240.0, 19.0, 160.0, 0.0, 0.0, 0.0, 1.6541564104123733E9, 0.0, 2022-06-02 09:53:30.412
39.0, 24340.222697284546, 1643.501418054273, -77121.14031566863, -52815.115787400704, -37537.22906556476, -37966.024931195374, -6368.7719546284625, -45367.22396221447, 0.022, 0.798, 0.628, 192.0, 0.0, 0.0, 0.0, 0.0, 0.0, 0.0, 0.0, 0.0, 0.0, 1.6541564104123816E9, 0.0, 2022-06-02 09:53:30.412
40.0, 24347.889345632717, 1661.0028339627784, -77082.15887333857, -52781.07408059527, -37504.50611168219, -37937.77232620386, -6333.25503268898, -45337.11616243317, 0.022, 0.798, 0.628, 192.0, 0.0, 0.0, 0.0, 0.0, 0.0, 0.0, 0.0, 0.0, 0.0, 1.6541564104123893E9, 0.0, 2022-06-02 09:53:30.412
41.0, 24342.636685685717, 1665.3837758760187, -77076.77210292484, -52772.42395549107, -37497.93469881233, -37928.474000510454, -6319.218137171047, -45330.477694329944, 0.022, 0.798, 0.628, 192.0, 0.0, 0.0, 0.0, 0.0, 0.0, 0.0, 0.0, 0.0, 0.0, 1.6541564104123957E9, 0.0, 2022-06-02 09:53:30.412
42.0, 24331.23729601351, 1652.822095492136, -77106.85755096168, -52795.24508657993, -37521.538140957135, -37944.27668384036, -6348.0518875183925, -45352.74003180743, 0.022, 0.798, 0.628, 192.0, 0.0, 0.0, 0.0, 0.0, 0.0, 0.0, 0.0, 0.0, 0.0, 1.654156410412401E9, 0.0, 2022-06-02 09:53:30.412
43.0, 24318.5415051629, 1624.144807355977, -77148.92353402657, -52834.137121932166, -37561.68187399887, -37979.391274379646, -6389.73789092754, -45391.229735759465, 0.022, 0.798, 0.628, 192.0, 0.0, 0.0, 0.0, 0.0, 0.0, 0.0, 0.0, 0.0, 0.0, 1.6541564104124124E9, 0.0, 2022-06-02 09:53:30.412
44.0, 24315.211095239058, 1623.8989381669687, -77138.41821413257, -52831.611374808715, -37556.205696607314, -37994.14342572015, -6384.194658302625, -45416.10722733822, 0.022, 0.798, 0.628, 192.0, 0.0, 0.0, 0.0, 0.0, 0.0, 0.0, 0.0, 0.0, 0.0, 1.6541564104124186E9, 0.0, 2022-06-02 09:53:30.412
45.0, 24314.18291499411, 1635.4324383059072, -77111.26084461938, -52803.06819713929, -37534.63626320795, -37962.91803871609, -6360.725326624552, -45361.83719180074, 0.022, 0.798, 0.628, 192.0, 0.0, 0.0, 0.0, 0.0, 0.0, 0.0, 0.0, 0.0, 0.0, 1.6541564104124238E9, 0.0, 2022-06-02 09:53:30.412
46.0, 24293.23933043949, 1623.7871794446921, -77115.79824874381, -52801.905906427615, -37536.938492886846, -37944.8578291962, -6359.741849868518, -45313.0433336548, 0.022, 0.798, 0.628, 192.0, 0.0, 0.0, 0.0, 0.0, 0.0, 0.0, 0.0, 0.0, 0.0, 1.654156410412429E9, 0.0, 2022-06-02 09:53:30.412
47.0, 24302.314138688344, 1632.794932460181, -77124.91776048158, -52810.086644898256, -37542.168801089385, -37949.730509487454, -6383.88173388025, -45350.01311898388, 0.022, 0.798, 0.628, 192.0, 0.0, 0.0, 0.0, 0.0, 0.0, 0.0, 0.0, 0.0, 0.0, 1.6541564104124343E9, 0.0, 2022-06-02 09:53:30.412
48.0, 24310.964263792546, 1623.98834514479, -77144.8108130468, -52831.20904340852, -37554.752833217724, -37966.27080038438, -6378.4055564887, -45357.63506384314, 0.028, 0.804, 0.634, 192.0, 0.0, 224.0, 25.0, 32.0, 19.0, 208.0, 0.0, 0.0, 0.0, 1.65415641041244E9, 0.0, 2022-06-02 09:53:30.412
49.0, 24319.122650518733, 1620.9708596433236, -77134.23843791944, -52820.54726130334, -37550.282484326664, -37965.242620139434, -6355.427963188644, -45337.29497638881, 0.028, 0.804, 0.634, 192.0, 0.0, 0.0, 0.0, 0.0, 0.0, 0.0, 0.0, 0.0, 0.0, 1.6541564104124453E9, 0.0, 2022-06-02 09:53:30.412
50.0, 24311.120726003734, 1619.6744584649157, -77120.42505984605, -52814.288772855856, -37542.23585632275, -37961.5098788154, -6354.690355621619, -45344.82751427025, 0.028, 0.804, 0.634, 192.0, 0.0, 0.0, 0.0, 0.0, 0.0, 0.0, 0.0, 0.0, 0.0, 1.6541564104124515E9, 0.0, 2022-06-02 09:53:30.412
51.0, 24311.031319025915, 1632.6608219934492, -77102.20838811497, -52795.58036274676, -37522.96865260228, -37947.07065189727, -6310.277439388924, -45337.16086592208, 0.028, 0.804, 0.634, 192.0, 0.0, 0.0, 0.0, 0.0, 0.0, 0.0, 0.0, 0.0, 0.0, 1.6541564104124568E9, 0.0, 2022-06-02 09:53:30.412
52.0, 24316.708662117562, 1636.4606185508512, -77110.2997196078, -52795.13332785766, -37522.56632120208, -37947.69650074202, -6340.899329292694, -45343.01702296937, 0.028, 0.804, 0.634, 192.0, 0.0, 0.0, 0.0, 0.0, 0.0, 0.0, 0.0, 0.0, 0.0, 1.6541564104128292E9, 0.0, 2022-06-02 09:53:30.412
53.0, 24319.547333663384, 1631.342069070586, -77142.75445255691, -52826.35871486172, -37547.77908894767, -37980.53121334687, -6382.4065187462, -45385.708854879005, 0.028, 0.804, 0.634, 192.0, 0.0, 0.0, 0.0, 0.0, 0.0, 0.0, 0.0, 0.0, 0.0, 1.654156410412842E9, 0.0, 2022-06-02 09:53:30.412
54.0, 24329.62797041273, 1641.5791680311165, -77127.3541006272, -52811.67361875458, -37541.47589701127, -37971.29994288683, -6369.040175561926, -45368.11803199268, 0.028, 0.804, 0.634, 192.0, 0.0, 0.0, 0.0, 0.0, 0.0, 0.0, 0.0, 0.0, 0.0, 1.654156410412851E9, 0.0, 2022-06-02 09:53:30.412
55.0, 24328.890362845705, 1652.5091710697618, -77101.76135322587, -52788.94189464354, -37527.32724277106, -37951.898628699615, -6350.823503830851, -45343.73227879194, 0.028, 0.804, 0.634, 192.0, 0.0, 0.0, 0.0, 0.0, 0.0, 0.0, 0.0, 0.0, 0.0, 1.6541564104128602E9, 0.0, 2022-06-02 09:53:30.412
56.0, 24320.441403441597, 1649.6704995239377, -77093.93824266651, -52783.28690329634, -37523.66155668039, -37944.2543320959, -6340.474646148044, -45335.864464743674, 0.028, 0.804, 0.634, 192.0, 0.0, 0.0, 0.0, 0.0, 0.0, 0.0, 0.0, 0.0, 0.0, 1.654156410412869E9, 0.0, 2022-06-02 09:53:30.412
57.0, 24317.71449061805, 1637.533502284706, -77115.39591734362, -52803.80580470632, -37539.08426035455, -37958.201820636015, -6356.92553006715, -45367.7604040814, 0.028, 0.804, 0.634, 192.0, 0.0, 0.0, 0.0, 0.0, 0.0, 0.0, 0.0, 0.0, 0.0, 1.6541564104128754E9, 0.0, 2022-06-02 09:53:30.412
58.0, 24323.369481965245, 1631.2526620927647, -77145.90604852511, -52832.01370620891, -37563.559420533114, -37984.75569304892, -6384.060547835893, -45396.30358175082, 0.02, 0.796, 0.628, 192.0, 0.0, 160.0, 24.0, 224.0, 19.0, 160.0, 0.0, 0.0, 0.0, 1.654156410412882E9, 0.0, 2022-06-02 09:53:30.412
59.0, 24320.731976119518, 1631.4761795373179, -77136.8535920207, -52822.31304911531, -37554.95399891782, -37982.118187203196, -6373.4658209640775, -45371.13551749415, 0.02, 0.796, 0.628, 192.0, 0.0, 0.0, 0.0, 0.0, 0.0, 0.0, 0.0, 0.0, 0.0, 1.6541564104128907E9, 0.0, 2022-06-02 09:53:30.412
60.0, 24340.893249618202, 1664.4226508644404, -77088.57382399724, -52776.60373170421, -37510.004640818195, -37937.77232620386, -6347.046059017905, -45330.03065944084, 0.02, 0.796, 0.628, 192.0, 0.0, 0.0, 0.0, 0.0, 0.0, 0.0, 0.0, 0.0, 0.0, 1.6541564104128976E9, 0.0, 2022-06-02 09:53:30.412
61.0, 24320.10612727477, 1653.626758292527, -77095.16758861156, -52788.02547312087, -37519.861760122985, -37946.48950654143, -6353.997451543504, -45351.39892714011, 0.02, 0.796, 0.628, 192.0, 0.0, 0.0, 0.0, 0.0, 0.0, 0.0, 0.0, 0.0, 0.0, 1.6541564104129033E9, 0.0, 2022-06-02 09:53:30.412
62.0, 24306.270397456934, 1637.600557518072, -77123.10726918069, -52819.83200548077, -37540.80534467761, -37969.28828588585, -6359.719498124064, -45374.57768614026, 0.02, 0.796, 0.628, 192.0, 0.0, 0.0, 0.0, 0.0, 0.0, 0.0, 0.0, 0.0, 0.0, 1.6541564104129088E9, 0.0, 2022-06-02 09:53:30.412
63.0, 24309.936083547604, 1628.8386736915916, -77147.67183633707, -52844.821255781804, -37558.64203675294, -37983.995733737436, -6357.484323678533, -45382.289037977345, 0.02, 0.796, 0.628, 192.0, 0.0, 0.0, 0.0, 0.0, 0.0, 0.0, 0.0, 0.0, 0.0, 1.6541564104129155E9, 0.0, 2022-06-02 09:53:30.412
64.0, 24324.48706918801, 1638.338165085097, -77130.37158612866, -52827.36454336221, -37544.336920301546, -37963.029797438365, -6348.92360555215, -45337.54084557782, 0.02, 0.796, 0.628, 192.0, 0.0, 0.0, 0.0, 0.0, 0.0, 0.0, 0.0, 0.0, 0.0, 1.654156410412934E9, 0.0, 2022-06-02 09:53:30.412
65.0, 24320.642569141695, 1640.8639122085467, -77110.47853356345, -52806.68917974105, -37530.79176316164, -37952.03273916635, -6339.82644555884, -45330.85767398569, 0.02, 0.796, 0.628, 192.0, 0.0, 0.0, 0.0, 0.0, 0.0, 0.0, 0.0, 0.0, 0.0, 1.6541564104129395E9, 0.0, 2022-06-02 09:53:30.412
66.0, 24313.71352836055, 1639.9921941747898, -77100.68846949202, -52793.099319112225, -37522.36515550198, -37938.621692493165, -6300.867354973239, -45320.10648490268, 0.02, 0.796, 0.628, 192.0, 0.0, 0.0, 0.0, 0.0, 0.0, 0.0, 0.0, 0.0, 0.0, 1.6541564104129467E9, 0.0, 2022-06-02 09:53:30.412
67.0, 24318.809726096362, 1638.695792996382, -77115.95471095499, -52805.12455762918, -37529.6071207055, -37942.77911696185, -6364.815695859873, -45349.61078758369, 0.02, 0.796, 0.628, 192.0, 0.0, 0.0, 0.0, 0.0, 0.0, 0.0, 0.0, 0.0, 0.0, 1.6541564104129531E9, 0.0, 2022-06-02 09:53:30.412
68.0, 24333.24895301449, 1634.538368527695, -77142.55328685681, -52828.92916547408, -37559.55845827561, -37978.050169712325, -6422.08086515437, -45410.45223599103, 0.014, 0.798, 0.634, 192.0, 0.0, 112.0, 24.0, 240.0, 19.0, 208.0, 0.0, 0.0, 0.0, 1.65415641041296E9, 0.0, 2022-06-02 09:53:30.412
69.0, 24320.486106930508, 1618.4451125198739, -77144.07320547977, -52837.44518011155, -37552.80823145011, -37994.61281235371, -6387.323902526367, -45392.05675030431, 0.014, 0.798, 0.634, 192.0, 0.0, 0.0, 0.0, 0.0, 0.0, 0.0, 0.0, 0.0, 0.0, 1.6541564104129667E9, 0.0, 2022-06-02 09:53:30.412
70.0, 24326.05169129988, 1645.7812959887144, -77092.28421357683, -52791.37823478917, -37502.673268636856, -37953.575009533764, -6323.6884860621085, -45333.71869727597, 0.014, 0.798, 0.634, 192.0, 0.0, 0.0, 0.0, 0.0, 0.0, 0.0, 0.0, 0.0, 0.0, 1.654156410412972E9, 0.0, 2022-06-02 09:53:30.412
71.0, 24339.708607162072, 1674.5703428471497, -77060.70119866148, -52761.53865594133, -37485.01539051717, -37923.668375452566, -6310.433901600111, -45323.995688437906, 0.014, 0.798, 0.634, 192.0, 0.0, 0.0, 0.0, 0.0, 0.0, 0.0, 0.0, 0.0, 0.0, 1.6541564104129813E9, 0.0, 2022-06-02 09:53:30.412
72.0, 24334.3441884928, 1668.401261377485, -77087.90327166358, -52784.06921435228, -37510.988117574234, -37930.28449181133, -6327.82355878634, -45333.53988332032, 0.014, 0.798, 0.634, 192.0, 0.0, 0.0, 0.0, 0.0, 0.0, 0.0, 0.0, 0.0, 0.0, 1.6541564104129882E9, 0.0, 2022-06-02 09:53:30.412
73.0, 24330.18676402411, 1649.8493134795801, -77124.51542908138, -52816.859223468215, -37543.75577494571, -37959.27470436987, -6366.134448782736, -45368.94504653753, 0.014, 0.798, 0.634, 192.0, 0.0, 0.0, 0.0, 0.0, 0.0, 0.0, 0.0, 0.0, 0.0, 1.6541564104129946E9, 0.0, 2022-06-02 09:53:30.412
74.0, 24336.668769916152, 1650.7210315133373, -77114.16657139857, -52809.55020303133, -37543.12992610096, -37963.70034977202, -6371.677681407653, -45369.50384014891, 0.014, 0.798, 0.634, 192.0, 0.0, 0.0, 0.0, 0.0, 0.0, 0.0, 0.0, 0.0, 0.0, 1.6541564104130015E9, 0.0, 2022-06-02 09:53:30.413
75.0, 24344.983618853526, 1664.2214851643428, -77081.66713496056, -52779.42005150558, -37513.782085631145, -37937.437050037035, -6343.201558971591, -45332.17642690855, 0.014, 0.798, 0.634, 192.0, 0.0, 0.0, 0.0, 0.0, 0.0, 0.0, 0.0, 0.0, 0.0, 1.6541564104130085E9, 0.0, 2022-06-02 09:53:30.413
76.0, 24342.01083684097, 1666.0096247207673, -77070.33480052171, -52769.808801389794, -37495.43130343334, -37918.482770738934, -6311.842061500795, -45303.9461736615, 0.014, 0.798, 0.634, 192.0, 0.0, 0.0, 0.0, 0.0, 0.0, 0.0, 0.0, 0.0, 0.0, 1.6541564104130156E9, 0.0, 2022-06-02 09:53:30.413
77.0, 24341.362636251764, 1658.275921139231, -77097.35805956819, -52787.24316206493, -37519.012393833684, -37930.1503813446, -6350.599986386298, -45343.17348518056, 0.014, 0.798, 0.634, 192.0, 0.0, 0.0, 0.0, 0.0, 0.0, 0.0, 0.0, 0.0, 0.0, 1.6541564104130228E9, 0.0, 2022-06-02 09:53:30.413
78.0, 24341.988485096514, 1649.9387204574014, -77122.28025463584, -52819.720246758494, -37540.693585955334, -37962.29218987134, -6371.945902341116, -45391.855584604215, 0.02, 0.798, 0.64, 192.0, 0.0, 160.0, 24.0, 240.0, 20.0, 0.0, 0.0, 0.0, 0.0, 1.6541564104130304E9, 0.0, 2022-06-02 09:53:30.413
79.0, 24333.89715360369, 1638.4499238073736, -77126.08005119325, -52829.55501431883, -37547.04148138064, -37972.819861509786, -6363.809867359384, -45368.8109360708, 0.02, 0.798, 0.64, 192.0, 0.0, 0.0, 0.0, 0.0, 0.0, 0.0, 0.0, 0.0, 0.0, 1.654156410413038E9, 0.0, 2022-06-02 09:53:30.413
80.0, 24337.138156549714, 1653.4255925924294, -77096.55339676779, -52794.574534246276, -37514.206768775795, -37939.44870703801, -6332.830349544329, -45314.406790066576, 0.02, 0.798, 0.64, 192.0, 0.0, 0.0, 0.0, 0.0, 0.0, 0.0, 0.0, 0.0, 0.0, 1.654156410413044E9, 0.0, 2022-06-02 09:53:30.413
81.0, 24351.53267997893, 1682.371101662052, -77065.86445163065, -52763.70677515349, -37487.004695773685, -37911.95606135798, -6316.357113880767, -45307.902432430084, 0.02, 0.798, 0.64, 192.0, 0.0, 0.0, 0.0, 0.0, 0.0, 0.0, 0.0, 0.0, 0.0, 1.6541564104130492E9, 0.0, 2022-06-02 09:53:30.413
82.0, 24349.0963398333, 1679.979465005334, -77078.694352948, -52779.77767941686, -37499.745190113215, -37924.07070685276, -6306.187070153603, -45327.68372627303, 0.02, 0.798, 0.64, 192.0, 0.0, 0.0, 0.0, 0.0, 0.0, 0.0, 0.0, 0.0, 0.0, 1.6541564104130547E9, 0.0, 2022-06-02 09:53:30.413
83.0, 24330.834964613317, 1641.2885953531977, -77132.98674022994, -52829.68912478556, -37554.23874309525, -37972.68575104306, -6363.87692259275, -45382.17727925507, 0.02, 0.798, 0.64, 192.0, 0.0, 0.0, 0.0, 0.0, 0.0, 0.0, 0.0, 0.0, 0.0, 1.65415641041306E9, 0.0, 2022-06-02 09:53:30.413
84.0, 24343.91073511967, 1642.4285343204183, -77123.88958023663, -52819.228508380475, -37558.26205709721, -37966.67313178458, -6392.464803751088, -45368.27449420387, 0.02, 0.798, 0.64, 192.0, 0.0, 0.0, 0.0, 0.0, 0.0, 0.0, 0.0, 0.0, 0.0, 1.6541564104130657E9, 0.0, 2022-06-02 09:53:30.413
85.0, 24349.833947400326, 1653.8279239926248, -77098.36388806866, -52792.5628772453, -37533.31751028508, -37938.59934074871, -6361.217065002569, -45329.47186582945, 0.02, 0.798, 0.64, 192.0, 0.0, 0.0, 0.0, 0.0, 0.0, 0.0, 0.0, 0.0, 0.0, 1.654156410413071E9, 0.0, 2022-06-02 09:53:30.413
86.0, 24337.607543183272, 1645.3342610996083, -77099.03444040233, -52794.52983075736, -37528.400126504916, -37939.09107912673, -6302.34257010729, -45321.894624459106, 0.02, 0.798, 0.64, 192.0, 0.0, 0.0, 0.0, 0.0, 0.0, 0.0, 0.0, 0.0, 0.0, 1.6541564104130793E9, 0.0, 2022-06-02 09:53:30.413
87.0, 24334.455947215076, 1640.4615808083513, -77112.98192894243, -52805.884516940656, -37532.602254462516, -37948.81408796478, -6335.0208205009485, -45333.562235064775, 0.02, 0.798, 0.64, 192.0, 0.0, 0.0, 0.0, 0.0, 0.0, 0.0, 0.0, 0.0, 0.0, 1.6541564104130847E9, 0.0, 2022-06-02 09:53:30.413
88.0, 24318.42974644062, 1615.114702596033, -77158.49008065344, -52852.309090174334, -37575.092920672054, -37999.440789156055, -6405.540574257443, -45409.066427834805, 0.022, 0.792, 0.64, 192.0, 0.0, 176.0, 24.0, 192.0, 20.0, 0.0, 0.0, 0.0, 0.0, 1.65415641041309E9, 0.0, 2022-06-02 09:53:30.413
89.0, 24342.234354285523, 1642.0709064091334, -77128.35992912769, -52824.481168327475, -37551.5118302717, -37986.029742482875, -6389.7825944164515, -45389.84392760324, 0.022, 0.792, 0.64, 192.0, 0.0, 0.0, 0.0, 0.0, 0.0, 0.0, 0.0, 0.0, 0.0, 1.6541564104130952E9, 0.0, 2022-06-02 09:53:30.413
90.0, 24329.739729135006, 1639.7463249857815, -77114.61360628768, -52814.489938555955, -37542.459373767306, -37969.802376008316, -6374.516352953477, -45355.7575173089, 0.022, 0.792, 0.64, 192.0, 0.0, 0.0, 0.0, 0.0, 0.0, 0.0, 0.0, 0.0, 0.0, 1.6541564104131005E9, 0.0, 2022-06-02 09:53:30.413
91.0, 24317.71449061805, 1635.7453627282814, -77110.41147833008, -52815.76398798991, -37537.832562665055, -37961.778099748866, -6370.716556396074, -45344.11225844768, 0.022, 0.792, 0.64, 192.0, 0.0, 0.0, 0.0, 0.0, 0.0, 0.0, 0.0, 0.0, 0.0, 1.6541564104131055E9, 0.0, 2022-06-02 09:53:30.413
92.0, 24324.822345354838, 1640.4168773194406, -77117.13935341113, -52822.22364213749, -37533.988062618744, -37956.54779154632, -6364.92745458215, -45342.97231948046, 0.022, 0.792, 0.64, 192.0, 0.0, 0.0, 0.0, 0.0, 0.0, 0.0, 0.0, 0.0, 0.0, 1.6541564104131112E9, 0.0, 2022-06-02 09:53:30.413
93.0, 24322.56481916485, 1618.4004090309631, -77150.3093421828, -52845.89413951566, -37565.05698741162, -37982.20759418102, -6386.7874606594405, -45363.73709007944, 0.022, 0.792, 0.64, 192.0, 0.0, 0.0, 0.0, 0.0, 0.0, 0.0, 0.0, 0.0, 0.0, 1.6541564104131165E9, 0.0, 2022-06-02 09:53:30.413
94.0, 24320.240237741502, 1610.1302635824995, -77150.15287997162, -52849.35865990623, -37578.11040617352, -37998.1667397221, -6403.573620745376, -45380.79147109884, 0.022, 0.792, 0.64, 192.0, 0.0, 0.0, 0.0, 0.0, 0.0, 0.0, 0.0, 0.0, 0.0, 1.654156410413124E9, 0.0, 2022-06-02 09:53:30.413
95.0, 24324.19649651009, 1621.373191043519, -77125.0518709483, -52833.19834866504, -37561.90539144342, -37984.50982385991, -6400.332617799356, -45377.21519198599, 0.022, 0.792, 0.64, 192.0, 0.0, 0.0, 0.0, 0.0, 0.0, 0.0, 0.0, 0.0, 0.0, 1.6541564104131296E9, 0.0, 2022-06-02 09:53:30.413
96.0, 24314.62994988322, 1624.5247870117173, -77110.67969926354, -52826.11284567271, -37546.05800462461, -37977.37961737867, -6384.015844346982, -45370.73318609395, 0.022, 0.792, 0.64, 192.0, 0.0, 0.0, 0.0, 0.0, 0.0, 0.0, 0.0, 0.0, 0.0, 1.6541564104131348E9, 0.0, 2022-06-02 09:53:30.413
97.0, 24302.47060089953, 1611.0690368496225, -77137.2559234209, -52846.38587789368, -37563.96175193331, -37994.88103328717, -6403.573620745376, -45395.47656720598, 0.022, 0.792, 0.64, 192.0, 0.0, 0.0, 0.0, 0.0, 0.0, 0.0, 0.0, 0.0, 0.0, 1.65415641041314E9, 0.0, 2022-06-02 09:53:30.413
98.0, 24312.61829288224, 1608.4538827483516, -77154.62322886268, -52859.506351888944, -37578.35627536253, -38005.00637352543, -6411.016751648993, -45405.646610933145, 0.028, 0.792, 0.636, 192.0, 0.0, 224.0, 24.0, 192.0, 19.0, 224.0, 0.0, 0.0, 0.0, 1.6541564104131453E9, 0.0, 2022-06-02 09:53:30.413
99.0, 24320.39669995269, 1611.113740338533, -77144.58729560224, -52854.87954078669, -37578.020999195694, -38013.634146885175, -6424.427798322177, -45417.49303549445, 0.028, 0.792, 0.636, 192.0, 0.0, 0.0, 0.0, 0.0, 0.0, 0.0, 0.0, 0.0, 0.0, 1.6541564104131515E9, 0.0, 2022-06-02 09:53:30.413
100.0, 24315.166391750146, 1616.276993307709, -77125.34244362623, -52840.06033421282, -37572.857746226524, -37999.016106011404, -6450.80285677944, -45413.76029417042, 0.028, 0.792, 0.636, 192.0, 0.0, 0.0, 0.0, 0.0, 0.0, 0.0, 0.0, 0.0, 0.0, 1.6541564104131565E9, 0.0, 2022-06-02 09:53:30.413
101.0, 24308.639682369198, 1621.7978741881698, -77103.25892010437, -52822.60362179323, -37547.30970231411, -37972.35047487623, -6395.5940479748315, -45364.877029046664, 0.028, 0.792, 0.636, 192.0, 0.0, 0.0, 0.0, 0.0, 0.0, 0.0, 0.0, 0.0, 0.0, 1.654156410413162E9, 0.0, 2022-06-02 09:53:30.413
102.0, 24306.940949790594, 1619.2944788091754, -77112.06550741977, -52830.89611898615, -37543.39814703443, -37972.43988185404, -6359.7865533574295, -45366.285188947346, 0.028, 0.792, 0.636, 192.0, 0.0, 0.0, 0.0, 0.0, 0.0, 0.0, 0.0, 0.0, 0.0, 1.6541564104131677E9, 0.0, 2022-06-02 09:53:30.413
103.0, 24296.547388618874, 1596.7415686537706, -77157.21603121949, -52877.94654106457, -37584.5700603211, -38024.832370857286, -6427.959373946116, -45458.910817970136, 0.028, 0.792, 0.636, 192.0, 0.0, 0.0, 0.0, 0.0, 0.0, 0.0, 0.0, 0.0, 0.0, 1.6541564104131727E9, 0.0, 2022-06-02 09:53:30.413
104.0, 24284.656260568652, 1586.7503388822483, -77163.966258045, -52885.90376209066, -37593.689572058865, -38036.008243084936, -6395.5940479748315, -45452.29470161137, 0.028, 0.792, 0.636, 192.0, 0.0, 0.0, 0.0, 0.0, 0.0, 0.0, 0.0, 0.0, 0.0, 1.6541564104131784E9, 0.0, 2022-06-02 09:53:30.413
105.0, 24293.976938006515, 1608.342124026075, -77127.24234190493, -52845.69297381556, -37549.96955990429, -37985.0686174713, -6358.311338223379, -45345.16279043708, 0.028, 0.792, 0.636, 192.0, 0.0, 0.0, 0.0, 0.0, 0.0, 0.0, 0.0, 0.0, 0.0, 1.6541564108924394E9, 0.0, 2022-06-02 09:53:30.892
106.0, 24302.04591775488, 1620.7920456876811, -77104.64472826061, -52824.23529913847, -37532.19992306232, -37963.74505326093, -6356.880826578239, -45340.08894444573, 0.028, 0.792, 0.636, 192.0, 0.0, 0.0, 0.0, 0.0, 0.0, 0.0, 0.0, 0.0, 0.0, 1.6541564108925817E9, 0.0, 2022-06-02 09:53:30.892
107.0, 24305.33162418981, 1619.5179962537286, -77116.13352491063, -52835.45587485503, -37536.20088531982, -37971.076425442276, -6350.667041619664, -45362.17246796757, 0.024, 0.794, 0.634, 192.0, 0.0, 192.0, 24.0, 208.0, 19.0, 208.0, 0.0, 0.0, 0.0, 1.6541564108926053E9, 0.0, 2022-06-02 09:53:30.892
108.0, 24315.591074894797, 1611.60547871655, -77139.40169088861, -52857.38293616569, -37557.680911741365, -37988.60019309523, -6380.350158256311, -45384.6136194007, 0.024, 0.794, 0.634, 192.0, 0.0, 0.0, 0.0, 0.0, 0.0, 0.0, 0.0, 0.0, 0.0, 1.6541564108926108E9, 0.0, 2022-06-02 09:53:30.892
109.0, 24319.435574941108, 1606.8669088920246, -77128.87401925016, -52845.871787771204, -37557.546801274635, -37986.25325992743, -6371.901198852205, -45357.188028954035, 0.024, 0.794, 0.634, 192.0, 0.0, 0.0, 0.0, 0.0, 0.0, 0.0, 0.0, 0.0, 0.0, 1.654156410892616E9, 0.0, 2022-06-02 09:53:30.892
110.0, 24333.226601270035, 1634.9406999278904, -77093.15593161058, -52809.863127453704, -37528.98127186076, -37958.492393313936, -6349.057716018881, -45334.72452577645, 0.024, 0.794, 0.634, 192.0, 0.0, 0.0, 0.0, 0.0, 0.0, 0.0, 0.0, 0.0, 0.0, 1.6541564108926215E9, 0.0, 2022-06-02 09:53:30.892
111.0, 24329.739729135006, 1651.3021768691751, -77075.58746046871, -52791.84762142273, -37507.88122509494, -37941.59447450572, -6334.886710034217, -45337.473790344455, 0.024, 0.794, 0.634, 192.0, 0.0, 0.0, 0.0, 0.0, 0.0, 0.0, 0.0, 0.0, 0.0, 1.6541564108926268E9, 0.0, 2022-06-02 09:53:30.892
112.0, 24313.869990571737, 1639.2992900966753, -77098.58740551322, -52811.964191432504, -37523.929777613856, -37948.478811797955, -6353.30454746539, -45350.14722945062, 0.024, 0.794, 0.634, 192.0, 0.0, 0.0, 0.0, 0.0, 0.0, 0.0, 0.0, 0.0, 0.0, 1.654156410892632E9, 0.0, 2022-06-02 09:53:30.892
113.0, 24308.349109691277, 1615.6064409740497, -77145.19079270253, -52851.41502039612, -37567.29216185715, -37985.247431426935, -6418.3704755747885, -45391.721474137485, 0.024, 0.794, 0.634, 192.0, 0.0, 0.0, 0.0, 0.0, 0.0, 0.0, 0.0, 0.0, 0.0, 1.6541564108926375E9, 0.0, 2022-06-02 09:53:30.892
114.0, 24313.311196960356, 1614.4217985179184, -77135.91481875359, -52847.70463081654, -37561.07837689857, -37988.93546926206, -6397.158670086703, -45379.897401320624, 0.024, 0.794, 0.634, 192.0, 0.0, 0.0, 0.0, 0.0, 0.0, 0.0, 0.0, 0.0, 0.0, 1.654156410892644E9, 0.0, 2022-06-02 09:53:30.892
115.0, 24309.600807380775, 1622.3790195440079, -77108.75744924038, -52827.85628174023, -37536.60321672001, -37975.546774333336, -6355.83029458884, -45354.34935740821, 0.024, 0.794, 0.634, 192.0, 0.0, 0.0, 0.0, 0.0, 0.0, 0.0, 0.0, 0.0, 0.0, 1.6541564108926492E9, 0.0, 2022-06-02 09:53:30.892
116.0, 24320.39669995269, 1643.1884936318986, -77082.58355648322, -52804.141080873145, -37516.71016415479, -37955.85488746821, -6356.478495178044, -45351.48833411793, 0.024, 0.794, 0.634, 192.0, 0.0, 0.0, 0.0, 0.0, 0.0, 0.0, 0.0, 0.0, 0.0, 1.6541564108926547E9, 0.0, 2022-06-02 09:53:30.892
117.0, 24321.13430751971, 1641.7132784978485, -77096.44163804551, -52811.98654317696, -37524.64503343643, -37955.51961130138, -6362.0217278029595, -45369.72735759346, 0.026000000000000002, 0.802, 0.634, 192.0, 0.0, 208.0, 25.0, 16.0, 19.0, 208.0, 0.0, 0.0, 0.0, 1.65415641089266E9, 0.0, 2022-06-02 09:53:30.892
118.0, 24310.494877158988, 1617.953374141857, -77139.93813275555, -52852.934939019084, -37568.67797001338, -37993.651687342135, -6418.07990289687, -45415.25786104892, 0.026000000000000002, 0.802, 0.634, 192.0, 0.0, 0.0, 0.0, 0.0, 0.0, 0.0, 0.0, 0.0, 0.0, 1.6541564108926651E9, 0.0, 2022-06-02 09:53:30.892
119.0, 24314.920522561137, 1616.2099380743432, -77138.08293796575, -52847.056430227334, -37571.67310377039, -37996.80328331033, -6417.319943585389, -45388.88280259166, 0.026000000000000002, 0.802, 0.634, 192.0, 0.0, 0.0, 0.0, 0.0, 0.0, 0.0, 0.0, 0.0, 0.0, 1.6541564108926704E9, 0.0, 2022-06-02 09:53:30.892
120.0, 24322.944798820594, 1638.0699441516333, -77099.1461991246, -52811.94183968805, -37530.12121082797, -37959.16294564759, -6346.353154939789, -45330.65650828559, 0.026000000000000002, 0.802, 0.634, 192.0, 0.0, 0.0, 0.0, 0.0, 0.0, 0.0, 0.0, 0.0, 0.0, 1.654156410892676E9, 0.0, 2022-06-02 09:53:30.892
121.0, 24312.70769986006, 1646.4965518112842, -77084.77402743984, -52802.598810505726, -37517.984213588745, -37950.7586897324, -6322.056808716871, -45326.92376696155, 0.026000000000000002, 0.802, 0.634, 192.0, 0.0, 0.0, 0.0, 0.0, 0.0, 0.0, 0.0, 0.0, 0.0, 1.6541564108926811E9, 0.0, 2022-06-02 09:53:30.892
122.0, 24313.981749294013, 1641.0427261641892, -77098.40859155759, -52812.92531644408, -37525.248530536715, -37963.007445693904, -6314.054884201871, -45354.461116130486, 0.026000000000000002, 0.802, 0.634, 192.0, 0.0, 0.0, 0.0, 0.0, 0.0, 0.0, 0.0, 0.0, 0.0, 1.6541564108926866E9, 0.0, 2022-06-02 09:53:30.892
123.0, 24312.14890624868, 1622.4460747773737, -77134.01492047489, -52843.59190983676, -37560.09490014254, -37989.06957972879, -6413.74366447254, -45395.23069801697, 0.026000000000000002, 0.802, 0.634, 192.0, 0.0, 0.0, 0.0, 0.0, 0.0, 0.0, 0.0, 0.0, 0.0, 1.654156410892692E9, 0.0, 2022-06-02 09:53:30.892
124.0, 24325.358787221765, 1634.1360371274993, -77117.76520225588, -52831.09728468624, -37550.03661513765, -37982.05113196983, -6402.74660620053, -45370.062633760295, 0.026000000000000002, 0.802, 0.634, 192.0, 0.0, 0.0, 0.0, 0.0, 0.0, 0.0, 0.0, 0.0, 0.0, 1.654156410892697E9, 0.0, 2022-06-02 09:53:30.892
125.0, 24340.28975251791, 1656.3313193716192, -77083.16470183906, -52801.23535409396, -37517.358364743995, -37956.36897759068, -6374.73987039803, -45350.84013352873, 0.026000000000000002, 0.802, 0.634, 192.0, 0.0, 0.0, 0.0, 0.0, 0.0, 0.0, 0.0, 0.0, 0.0, 1.6541564108927023E9, 0.0, 2022-06-02 09:53:30.892
126.0, 24347.1964415546, 1667.8424677661023, -77060.5894399392, -52783.868048652184, -37489.731608597234, -37938.197009348514, -6334.797303056396, -45339.843075256715, 0.026000000000000002, 0.802, 0.634, 192.0, 0.0, 0.0, 0.0, 0.0, 0.0, 0.0, 0.0, 0.0, 0.0, 1.6541564108927078E9, 0.0, 2022-06-02 09:53:30.892
127.0, 24337.786357138917, 1660.1981711623873, -77077.19678606949, -52798.35197905922, -37504.349649471005, -37945.126050129664, -6340.295832192402, -45341.54180783532, 0.024, 0.798, 0.63, 192.0, 0.0, 192.0, 24.0, 240.0, 19.0, 176.0, 0.0, 0.0, 0.0, 1.654156410892713E9, 0.0, 2022-06-02 09:53:30.892
128.0, 24325.515249432952, 1644.596653532583, -77119.12865866764, -52831.83489225327, -37545.76743194669, -37966.248448639926, -6395.281123552457, -45363.22299995697, 0.024, 0.798, 0.63, 192.0, 0.0, 0.0, 0.0, 0.0, 0.0, 0.0, 0.0, 0.0, 0.0, 1.6541564108927276E9, 0.0, 2022-06-02 09:53:30.892
129.0, 24322.073080786835, 1634.3819063165076, -77124.69424303703, -52838.98745047897, -37551.400071549426, -37980.10653020222, -6381.8030216459065, -45363.80414531281, 0.024, 0.798, 0.63, 192.0, 0.0, 0.0, 0.0, 0.0, 0.0, 0.0, 0.0, 0.0, 0.0, 1.6541564108927329E9, 0.0, 2022-06-02 09:53:30.892
130.0, 24310.785449836905, 1631.2526620927647, -77114.39008884312, -52833.46656959851, -37544.64984472392, -37978.98894297945, -6381.6242076902645, -45370.621427371676, 0.024, 0.798, 0.63, 192.0, 0.0, 0.0, 0.0, 0.0, 0.0, 0.0, 0.0, 0.0, 0.0, 1.654156410892738E9, 0.0, 2022-06-02 09:53:30.892
131.0, 24313.065327771346, 1646.049516922178, -77094.78760895581, -52805.30337158482, -37523.370984002475, -37953.68676825604, -6352.790457342918, -45339.843075256715, 0.024, 0.798, 0.63, 192.0, 0.0, 0.0, 0.0, 0.0, 0.0, 0.0, 0.0, 0.0, 0.0, 1.654156410892743E9, 0.0, 2022-06-02 09:53:30.892
132.0, 24315.43461268361, 1646.1612756444545, -77105.8517224612, -52810.95836293201, -37526.164952059386, -37953.32914034476, -6351.091724764315, -45354.952854508505, 0.024, 0.798, 0.63, 192.0, 0.0, 0.0, 0.0, 0.0, 0.0, 0.0, 0.0, 0.0, 0.0, 1.6541564108927484E9, 0.0, 2022-06-02 09:53:30.892
133.0, 24321.737804620007, 1637.0641156511447, -77128.8516675057, -52831.23139515298, -37539.41953652138, -37969.02006495238, -6354.198617243603, -45375.98584604095, 0.024, 0.798, 0.63, 192.0, 0.0, 0.0, 0.0, 0.0, 0.0, 0.0, 0.0, 0.0, 0.0, 1.6541564108927538E9, 0.0, 2022-06-02 09:53:30.892
134.0, 24316.887476073203, 1623.697772466871, -77136.6077228317, -52844.485979614976, -37562.19596412134, -37987.30379191683, -6382.630036190753, -45379.763290853894, 0.024, 0.798, 0.63, 192.0, 0.0, 0.0, 0.0, 0.0, 0.0, 0.0, 0.0, 0.0, 0.0, 1.6541564108927596E9, 0.0, 2022-06-02 09:53:30.892
135.0, 24309.4890486585, 1620.0991416095665, -77121.09561217972, -52836.10407544424, -37557.546801274635, -37983.45929187051, -6387.480364737555, -45365.34641568022, 0.024, 0.798, 0.63, 192.0, 0.0, 0.0, 0.0, 0.0, 0.0, 0.0, 0.0, 0.0, 0.0, 1.6541564108927653E9, 0.0, 2022-06-02 09:53:30.892
136.0, 24323.280074987422, 1643.4567145653623, -77087.25507107438, -52804.87868844017, -37522.879245624456, -37951.4068903216, -6360.255939990991, -45337.51849383336, 0.024, 0.798, 0.63, 192.0, 0.0, 0.0, 0.0, 0.0, 0.0, 0.0, 0.0, 0.0, 0.0, 1.6541564108927703E9, 0.0, 2022-06-02 09:53:30.892
137.0, 24324.308255232365, 1646.4518483223735, -77095.45816128948, -52813.081778655265, -37522.67807992436, -37958.402986336114, -6358.378393456745, -45363.04418600132, 0.022, 0.798, 0.634, 192.0, 0.0, 176.0, 24.0, 240.0, 19.0, 208.0, 0.0, 0.0, 0.0, 1.654156410892776E9, 0.0, 2022-06-02 09:53:30.892
138.0, 24325.694063388597, 1631.7667522152367, -77126.03534770434, -52841.75906679143, -37552.115327372, -37978.87718425717, -6373.599931430809, -45394.49309044994, 0.022, 0.798, 0.634, 192.0, 0.0, 0.0, 0.0, 0.0, 0.0, 0.0, 0.0, 0.0, 0.0, 1.6541564108927813E9, 0.0, 2022-06-02 09:53:30.892
139.0, 24328.733900634517, 1630.9173859259352, -77120.87209473517, -52832.70661028703, -37549.4107662929, -37982.54287034785, -6409.765053959496, -45391.3638462262, 0.022, 0.798, 0.634, 192.0, 0.0, 0.0, 0.0, 0.0, 0.0, 0.0, 0.0, 0.0, 0.0, 1.6541564108927872E9, 0.0, 2022-06-02 09:53:30.892
140.0, 24318.787374351905, 1630.3585923145524, -77103.5494927823, -52828.28096488488, -37541.69941445583, -37985.5156523604, -6403.037178878449, -45390.201555514526, 0.022, 0.798, 0.634, 192.0, 0.0, 0.0, 0.0, 0.0, 0.0, 0.0, 0.0, 0.0, 0.0, 1.6541564108927925E9, 0.0, 2022-06-02 09:53:30.892
141.0, 24307.3879846797, 1633.1078568825553, -77094.944071167, -52818.08856941326, -37528.7577544162, -37981.067655213796, -6381.8030216459065, -45379.65153213162, 0.022, 0.798, 0.634, 192.0, 0.0, 0.0, 0.0, 0.0, 0.0, 0.0, 0.0, 0.0, 0.0, 1.6541564108927977E9, 0.0, 2022-06-02 09:53:30.892
142.0, 24294.781600806906, 1626.0223538902228, -77113.22779813144, -52829.04092419636, -37540.559475488604, -37985.873280271684, -6381.043062334426, -45388.994561313935, 0.022, 0.798, 0.634, 192.0, 0.0, 0.0, 0.0, 0.0, 0.0, 0.0, 0.0, 0.0, 0.0, 1.6541564108928027E9, 0.0, 2022-06-02 09:53:30.892
143.0, 24299.788391564893, 1615.8970136519688, -77138.57467634376, -52851.057392484836, -37561.83833621006, -37993.96461176451, -6403.372455045278, -45391.18503227056, 0.022, 0.798, 0.634, 192.0, 0.0, 0.0, 0.0, 0.0, 0.0, 0.0, 0.0, 0.0, 0.0, 1.6541564108928084E9, 0.0, 2022-06-02 09:53:30.892
144.0, 24312.439478926597, 1624.9941736452788, -77130.12571693966, -52844.28481391488, -37557.43504255236, -37992.176472208084, -6410.323847570879, -45388.25695374691, 0.022, 0.798, 0.634, 192.0, 0.0, 0.0, 0.0, 0.0, 0.0, 0.0, 0.0, 0.0, 0.0, 1.6541564108928137E9, 0.0, 2022-06-02 09:53:30.892
145.0, 24326.990464567003, 1648.3517466010746, -77092.66419323256, -52809.68431349806, -37517.827751377554, -37960.81697473729, -6353.706878865586, -45355.22107544197, 0.022, 0.798, 0.634, 192.0, 0.0, 0.0, 0.0, 0.0, 0.0, 0.0, 0.0, 0.0, 0.0, 1.654156410892819E9, 0.0, 2022-06-02 09:53:30.892
146.0, 24320.843734841794, 1653.0903164255997, -77075.83332965772, -52799.20134534852, -37508.79764661761, -37937.74997445941, -6328.762332053463, -45333.78575250933, 0.022, 0.798, 0.634, 192.0, 0.0, 0.0, 0.0, 0.0, 0.0, 0.0, 0.0, 0.0, 0.0, 1.6541564108928244E9, 0.0, 2022-06-02 09:53:30.892
147.0, 24309.220827725036, 1640.5062842972618, -77096.86632119016, -52817.86505196871, -37522.588672946535, -37948.09883214222, -6345.615547372765, -45363.44651740152, 0.016, 0.802, 0.636, 192.0, 0.0, 128.0, 25.0, 16.0, 19.0, 224.0, 0.0, 0.0, 0.0, 1.6541564108928297E9, 0.0, 2022-06-02 09:53:30.892
148.0, 24304.14698173368, 1616.8804904080023, -77139.60285658871, -52858.65698559964, -37562.374778076985, -37987.99669599494, -6395.7728619304735, -45422.58923323026, 0.016, 0.802, 0.636, 192.0, 0.0, 0.0, 0.0, 0.0, 0.0, 0.0, 0.0, 0.0, 0.0, 1.654156410892835E9, 0.0, 2022-06-02 09:53:30.892
149.0, 24310.89720855918, 1617.6180979750275, -77132.11502219619, -52853.158456463636, -37559.82667920908, -37985.13567270466, -6394.252943307512, -45392.68259914906, 0.016, 0.802, 0.636, 192.0, 0.0, 0.0, 0.0, 0.0, 0.0, 0.0, 0.0, 0.0, 0.0, 1.6541564108928404E9, 0.0, 2022-06-02 09:53:30.892
150.0, 24322.63187439822, 1638.919310440935, -77091.70306822099, -52816.03220892337, -37524.354460758506, -37946.28834084134, -6361.351175469301, -45332.33288911973, 0.016, 0.802, 0.636, 192.0, 0.0, 0.0, 0.0, 0.0, 0.0, 0.0, 0.0, 0.0, 0.0, 1.6541564108928483E9, 0.0, 2022-06-02 09:53:30.892
151.0, 24324.084737787813, 1655.213732148854, -77072.81584415626, -52797.30144706982, -37511.412800718885, -37928.474000510454, -6340.9440327816055, -45321.6487552701, 0.016, 0.802, 0.636, 192.0, 0.0, 0.0, 0.0, 0.0, 0.0, 0.0, 0.0, 0.0, 0.0, 1.6541564108928535E9, 0.0, 2022-06-02 09:53:30.892
