%OpenBCI Raw EEG Data
%Number of channels = 8
%Sample Rate = 250 Hz
%Board = OpenBCI_GUI$BoardCytonSerial
Sample Index, EXG Channel 0, EXG Channel 1, EXG Channel 2, EXG Channel 3, EXG Channel 4, EXG Channel 5, EXG Channel 6, EXG Channel 7, Accel Channel 0, Accel Channel 1, Accel Channel 2, Other, Other, Other, Other, Other, Other, Other, Analog Channel 0, Analog Channel 1, Analog Channel 2, Timestamp, Other, Timestamp (Formatted)
0.0, 0.0, 0.0, 0.0, 0.0, 0.0, 0.0, 0.0, 0.0, 0.0, 0.0, 0.0, 192.0, 0.0, 0.0, 0.0, 0.0, 0.0, 0.0, 0.0, 0.0, 0.0, 1.6527896582727203E9, 0.0, 2022-05-17 14:14:18.272
1.0, 52881.723985877514, 43866.796060418616, -1705.013418795278, -15071.758934469097, -183351.06919420592, -18901.573884674774, -800.8406520891967, 31031.351510447446, 0.028, 1.022, 0.176, 192.0, 0.0, 224.0, 31.0, 240.0, 5.0, 128.0, 0.0, 0.0, 0.0, 1.652789658754464E9, 0.0, 2022-05-17 14:14:18.754
2.0, 52860.690994345074, 43812.749542325684, -1759.2611025883082, -15159.757752389642, -182304.96285020863, -18999.13924922219, -586.8450506740869, 31212.33358530207, 0.028, 1.022, 0.176, 192.0, 0.0, 0.0, 0.0, 0.0, 0.0, 0.0, 0.0, 0.0, 0.0, 1.652789658754503E9, 0.0, 2022-05-17 14:14:18.754
3.0, 52811.763025732405, 43798.33266715201, -1789.078329691688, -15166.61973793742, -181990.71967491147, -19076.811561204384, -646.0548217361953, 31199.07900084007, 0.028, 1.022, 0.176, 192.0, 0.0, 0.0, 0.0, 0.0, 0.0, 0.0, 0.0, 0.0, 0.0, 1.6527896587545109E9, 0.0, 2022-05-17 14:14:18.754
4.0, 52826.04579043935, 43869.29945579761, -1733.8471691426241, -15083.761821241596, -182935.70672699294, -18995.71943232053, -887.4536618535116, 31030.546847647056, 0.028, 1.022, 0.176, 192.0, 0.0, 0.0, 0.0, 0.0, 0.0, 0.0, 0.0, 0.0, 0.0, 1.6527896587545183E9, 0.0, 2022-05-17 14:14:18.754
5.0, 52882.61805565573, 43923.92711924638, -1684.2486481962978, -15028.821233370452, -183913.2602707458, -18865.855797035194, -970.8703721607176, 30971.024152162572, 0.028, 1.022, 0.176, 192.0, 0.0, 0.0, 0.0, 0.0, 0.0, 0.0, 0.0, 0.0, 0.0, 1.6527896587545257E9, 0.0, 2022-05-17 14:14:18.754
6.0, 52908.27785829042, 43877.61430473498, -1726.5157969612835, -15093.641292290842, -183653.1977240083, -18891.292082225333, -788.2789717053142, 31133.76720354166, 0.028, 1.022, 0.176, 192.0, 0.0, 0.0, 0.0, 0.0, 0.0, 0.0, 0.0, 0.0, 0.0, 1.6527896587545335E9, 0.0, 2022-05-17 14:14:18.754
7.0, 52890.66468365964, 43827.1440657549, -1787.40194885754, -15168.05024958256, -182606.57728988855, -18984.52120834842, -581.9053151494641, 31313.028194073224, 0.028, 1.022, 0.176, 192.0, 0.0, 0.0, 0.0, 0.0, 0.0, 0.0, 0.0, 0.0, 0.0, 1.652789658754541E9, 0.0, 2022-05-17 14:14:18.754
8.0, 52863.484962401984, 43841.02449906165, -1795.6050390726375, -15166.373868748411, -182302.526510063, -19040.91465960916, -645.2054554468937, 31279.433522156898, 0.042, 1.018, 0.194, 192.0, 1.0, 80.0, 31.0, 208.0, 6.0, 16.0, 0.0, 0.0, 0.0, 1.65278965875455E9, 0.0, 2022-05-17 14:14:18.754
9.0, 52862.725003090505, 43890.46655779679, -1766.7265852363807, -15100.883257494363, -183263.98679780803, -18944.980972406982, -905.4244643955785, 31085.800359940575, 0.042, 1.018, 0.194, 192.0, 0.0, 0.0, 0.0, 0.0, 0.0, 0.0, 0.0, 0.0, 0.0, 1.6527896587545562E9, 0.0, 2022-05-17 14:14:18.754
10.0, 52921.97947764152, 43945.83182881258, -1717.4409887124289, -15038.946573608706, -184248.31292013085, -18860.87135802166, -996.8207474733291, 31022.656681854332, 0.042, 1.018, 0.194, 192.0, 0.0, 0.0, 0.0, 0.0, 0.0, 0.0, 0.0, 0.0, 0.0, 1.6527896587545624E9, 0.0, 2022-05-17 14:14:18.754
11.0, 52969.16401018668, 43927.1681221924, -1729.7120964183923, -15085.125277653371, -184012.8372922942, -18874.908253539594, -799.3430852106911, 31183.164558787892, 0.042, 1.018, 0.194, 192.0, 0.0, 0.0, 0.0, 0.0, 0.0, 0.0, 0.0, 0.0, 0.0, 1.652789658754588E9, 0.0, 2022-05-17 14:14:18.754
12.0, 52950.746172755506, 43866.170211573866, -1791.201745414942, -15169.391354249878, -182994.0447800213, -18951.351219576743, -604.7711497272431, 31351.406139302988, 0.042, 1.018, 0.194, 192.0, 0.0, 0.0, 0.0, 0.0, 0.0, 0.0, 0.0, 0.0, 0.0, 1.6527896587545936E9, 0.0, 2022-05-17 14:14:18.754
13.0, 52918.291439806395, 43860.15759231539, -1802.0870449646766, -15159.71304890073, -182720.6829453329, -18999.586284111298, -687.8525838676195, 31297.091400276593, 0.042, 1.018, 0.194, 192.0, 0.0, 0.0, 0.0, 0.0, 0.0, 0.0, 0.0, 0.0, 0.0, 1.6527896587545996E9, 0.0, 2022-05-17 14:14:18.754
14.0, 52930.115512623255, 43927.72691580378, -1750.2757013172748, -15091.98726320115, -183696.87303267396, -18934.20743157952, -938.4603427005223, 31101.088953148002, 0.042, 1.018, 0.194, 192.0, 0.0, 0.0, 0.0, 0.0, 0.0, 0.0, 0.0, 0.0, 0.0, 1.6527896587546055E9, 0.0, 2022-05-17 14:14:18.754
15.0, 52975.10957421179, 43978.62183792852, -1704.9016600730015, -15036.845509629908, -184711.351658267, -18848.3990846156, -1030.3930676452003, 31026.970568534205, 0.042, 1.018, 0.194, 192.0, 0.0, 0.0, 0.0, 0.0, 0.0, 0.0, 0.0, 0.0, 0.0, 1.6527896587546327E9, 0.0, 2022-05-17 14:14:18.754
16.0, 53007.787824605446, 43966.686006389384, -1713.9764683218561, -15061.633594230843, -184538.14799048283, -18844.912212480573, -847.6228532341544, 31147.245305448214, 0.042, 1.018, 0.194, 192.0, 0.0, 0.0, 0.0, 0.0, 0.0, 0.0, 0.0, 0.0, 0.0, 1.6527896587546384E9, 0.0, 2022-05-17 14:14:18.754
17.0, 52958.79280075942, 43921.51313084521, -1785.814975001213, -15152.068752297015, -183528.34087948097, -18948.221975353, -629.9839174728296, 31323.131182567024, 0.042, 1.018, 0.194, 192.0, 0.0, 0.0, 0.0, 0.0, 0.0, 0.0, 0.0, 0.0, 0.0, 1.6527896587546437E9, 0.0, 2022-05-17 14:14:18.754
18.0, 52903.91926812164, 43966.17191626691, -1811.1395014690759, -15174.28638628559, -183241.255073697, -19002.983749268504, -694.0663688261949, 31281.62399311352, 0.054, 1.02, 0.20600000000000002, 192.0, 1.0, 176.0, 31.0, 224.0, 6.0, 112.0, 0.0, 0.0, 0.0, 1.6527896587546492E9, 0.0, 2022-05-17 14:14:18.754
19.0, 52912.770558925935, 44047.152286428485, -1765.8772189470792, -15111.723853555186, -184210.1361406012, -18958.436722569077, -942.8859881026731, 31083.408723283857, 0.054, 1.02, 0.20600000000000002, 192.0, 0.0, 0.0, 0.0, 0.0, 0.0, 0.0, 0.0, 0.0, 0.0, 1.652789658754655E9, 0.0, 2022-05-17 14:14:18.754
20.0, 52982.99974000451, 44118.29788902973, -1706.3545234625965, -15028.307143247981, -185252.4203362966, -18851.77419802835, -1048.7662015874628, 30979.517815055588, 0.054, 1.02, 0.20600000000000002, 192.0, 0.0, 0.0, 0.0, 0.0, 0.0, 0.0, 0.0, 0.0, 0.0, 1.6527896587546608E9, 0.0, 2022-05-17 14:14:18.754
21.0, 53026.33977250335, 44096.72845563036, -1709.0590845416887, -15063.332326809446, -185072.37703470912, -18830.718854751452, -854.3060248262913, 31107.906235206872, 0.054, 1.02, 0.20600000000000002, 192.0, 0.0, 0.0, 0.0, 0.0, 0.0, 0.0, 0.0, 0.0, 0.0, 1.6527896587546663E9, 0.0, 2022-05-17 14:14:18.754
22.0, 52993.48270815405, 44038.39040260201, -1768.9841114263668, -15145.229118493691, -184050.47762995693, -18905.93247484356, -628.7992750166983, 31286.116693749034, 0.054, 1.02, 0.20600000000000002, 192.0, 0.0, 0.0, 0.0, 0.0, 0.0, 0.0, 0.0, 0.0, 0.0, 1.6527896587546844E9, 0.0, 2022-05-17 14:14:18.754
23.0, 52952.31079486738, 44109.7595226478, -1791.3135041372186, -15156.248528510157, -183709.25589910222, -18946.389132307664, -681.9964268203291, 31276.43838839989, 0.054, 1.02, 0.20600000000000002, 192.0, 0.0, 0.0, 0.0, 0.0, 0.0, 0.0, 0.0, 0.0, 0.0, 1.6527896587546897E9, 0.0, 2022-05-17 14:14:18.754
24.0, 52958.926911226146, 44206.29670695028, -1748.4875617608502, -15087.22634163217, -184636.85329399747, -18879.490361152933, -939.309708989824, 31095.948051923282, 0.054, 1.02, 0.20600000000000002, 192.0, 0.0, 0.0, 0.0, 0.0, 0.0, 0.0, 0.0, 0.0, 0.0, 1.6527896587546957E9, 0.0, 2022-05-17 14:14:18.754
25.0, 53029.75958940502, 44271.18382110403, -1696.2515349687976, -15046.009724856583, -185666.3746436089, -18810.4905260194, -1040.8760357947392, 30994.627594307378, 0.054, 1.02, 0.20600000000000002, 192.0, 0.0, 0.0, 0.0, 0.0, 0.0, 0.0, 0.0, 0.0, 0.0, 1.6527896587547016E9, 0.0, 2022-05-17 14:14:18.754
26.0, 53060.33677581987, 44244.62994869113, -1721.3972474810182, -15090.735565511653, -185483.7385396646, -18814.066805132246, -865.6830627540426, 31121.45139234679, 0.054, 1.02, 0.20600000000000002, 192.0, 0.0, 0.0, 0.0, 0.0, 0.0, 0.0, 0.0, 0.0, 0.0, 1.6527896587547076E9, 0.0, 2022-05-17 14:14:18.754
27.0, 53008.81600485039, 44166.95763670893, -1801.2600304198302, -15186.132810846902, -184428.06564904042, -18911.78863189085, -651.7321648278433, 31324.449935489887, 0.054, 1.02, 0.20600000000000002, 192.0, 0.0, 0.0, 0.0, 0.0, 0.0, 0.0, 0.0, 0.0, 0.0, 1.6527896587547128E9, 0.0, 2022-05-17 14:14:18.754
28.0, 52979.04348123592, 44169.39397685456, -1802.8246525317018, -15163.132865802392, -184081.61360998318, -18965.544577305864, -713.5123865023121, 31301.3382317231, 0.052000000000000005, 0.998, 0.2, 192.0, 1.0, 160.0, 31.0, 48.0, 6.0, 64.0, 0.0, 0.0, 0.0, 1.6527896587547183E9, 0.0, 2022-05-17 14:14:18.754
29.0, 52997.61778087828, 44228.42493396103, -1748.82283792768, -15099.072766193482, -185004.85241470963, -18898.288178239844, -966.1318023361924, 31105.313432850056, 0.052000000000000005, 0.998, 0.2, 192.0, 0.0, 0.0, 0.0, 0.0, 0.0, 0.0, 0.0, 0.0, 0.0, 1.6527896587547235E9, 0.0, 2022-05-17 14:14:18.754
30.0, 53049.876159414795, 44238.572625943736, -1705.9074885734904, -15054.369277282869, -186018.168749591, -18812.211610342456, -1073.9342658441385, 31005.08821071246, 0.052000000000000005, 0.998, 0.2, 192.0, 0.0, 0.0, 0.0, 0.0, 0.0, 0.0, 0.0, 0.0, 0.0, 1.6527896587547295E9, 0.0, 2022-05-17 14:14:18.754
31.0, 53078.21817138412, 44167.29291287577, -1734.4059627540069, -15107.544077342043, -185805.0001627207, -18848.041456704315, -880.4799175834559, 31148.60876185999, 0.052000000000000005, 0.998, 0.2, 192.0, 0.0, 0.0, 0.0, 0.0, 0.0, 0.0, 0.0, 0.0, 0.0, 1.6527896587547352E9, 0.0, 2022-05-17 14:14:18.754
32.0, 53048.4232960252, 44081.61867637857, -1791.0899866926654, -15183.562360234542, -184752.81414423158, -18924.46207099701, -656.4260311634578, 31331.937769882414, 0.052000000000000005, 0.998, 0.2, 192.0, 0.0, 0.0, 0.0, 0.0, 0.0, 0.0, 0.0, 0.0, 0.0, 1.652789658754741E9, 0.0, 2022-05-17 14:14:18.754
33.0, 52996.947228544625, 44047.219341661854, -1813.3076206812407, -15194.134735361904, -184365.3243023544, -18967.89151047367, -698.2684967837927, 31324.382880256522, 0.052000000000000005, 0.998, 0.2, 192.0, 0.0, 0.0, 0.0, 0.0, 0.0, 0.0, 0.0, 0.0, 0.0, 1.6527896587547467E9, 0.0, 2022-05-17 14:14:18.754
34.0, 53001.842260580335, 44099.67888589846, -1758.0988118766322, -15114.830746034473, -185235.09773434376, -18913.375605747176, -942.729525891486, 31149.59223861602, 0.052000000000000005, 0.998, 0.2, 192.0, 0.0, 0.0, 0.0, 0.0, 0.0, 0.0, 0.0, 0.0, 0.0, 1.652789658754752E9, 0.0, 2022-05-17 14:14:18.754
35.0, 53059.509761275025, 44159.06747091621, -1699.179613492443, -15050.524777236555, -186229.3703829492, -18816.324331322234, -1054.6894138681191, 31048.2270775112, 0.052000000000000005, 0.998, 0.2, 192.0, 0.0, 0.0, 0.0, 0.0, 0.0, 0.0, 0.0, 0.0, 0.0, 1.6527896587547576E9, 0.0, 2022-05-17 14:14:18.754
36.0, 53077.12293590581, 44126.299813544734, -1717.083360801144, -15097.061109192504, -186020.3145170587, -18809.2388283299, -869.5275628003553, 31187.254928023212, 0.052000000000000005, 0.998, 0.2, 192.0, 0.0, 0.0, 0.0, 0.0, 0.0, 0.0, 0.0, 0.0, 0.0, 1.6527896587547636E9, 0.0, 2022-05-17 14:14:18.754
37.0, 53033.44762724014, 44045.00651896078, -1782.5739720551935, -15187.652729469864, -184940.7029081229, -18912.12390805768, -641.7409350563211, 31397.78600904775, 0.05, 1.004, 0.194, 192.0, 1.0, 144.0, 31.0, 96.0, 6.0, 16.0, 0.0, 0.0, 0.0, 1.652789658754769E9, 0.0, 2022-05-17 14:14:18.754
38.0, 52985.92781852816, 44029.695574008896, -1801.5729548422046, -15205.176497122824, -184511.72822853664, -18957.69911500205, -678.5319064297565, 31416.673233112484, 0.05, 1.004, 0.194, 192.0, 0.0, 0.0, 0.0, 0.0, 0.0, 0.0, 0.0, 0.0, 0.0, 1.6527896587547748E9, 0.0, 2022-05-17 14:14:18.754
39.0, 52976.33892015683, 44079.450557166405, -1754.5225327637831, -15133.963839288217, -185379.57941050286, -18911.006320834913, -939.0414880563603, 31230.03616691067, 0.05, 1.004, 0.194, 192.0, 0.0, 0.0, 0.0, 0.0, 0.0, 0.0, 0.0, 0.0, 0.0, 1.6527896587547803E9, 0.0, 2022-05-17 14:14:18.754
40.0, 53026.00449633652, 44129.63022346857, -1705.1698810064652, -15067.690916978232, -186365.40309970418, -18833.803395486284, -1055.5387801574207, 31132.381395385433, 0.05, 1.004, 0.194, 192.0, 0.0, 0.0, 0.0, 0.0, 0.0, 0.0, 0.0, 0.0, 0.0, 1.6527896587547853E9, 0.0, 2022-05-17 14:14:18.754
41.0, 53055.039412383965, 44107.770217391284, -1720.3243637471635, -15102.291417395047, -186158.71651872594, -18818.15717436757, -875.9201617145732, 31268.503519118254, 0.05, 1.004, 0.194, 192.0, 0.0, 0.0, 0.0, 0.0, 0.0, 0.0, 0.0, 0.0, 0.0, 1.6527896587547913E9, 0.0, 2022-05-17 14:14:18.754
42.0, 53007.698417627624, 44037.07164967914, -1786.9325622239785, -15185.953996891261, -185065.62680788361, -18901.529181185866, -641.2939001672149, 31491.03748691529, 0.05, 1.004, 0.194, 192.0, 0.0, 0.0, 0.0, 0.0, 0.0, 0.0, 0.0, 0.0, 0.0, 1.6527896587547972E9, 0.0, 2022-05-17 14:14:18.754
43.0, 52955.32828036884, 44021.40307681597, -1806.1550624555425, -15205.467069800743, -184639.04376495408, -18956.223899868, -696.1674328049937, 31501.922786465024, 0.05, 1.004, 0.194, 192.0, 0.0, 0.0, 0.0, 0.0, 0.0, 0.0, 0.0, 0.0, 0.0, 1.6527896587548056E9, 0.0, 2022-05-17 14:14:18.754
44.0, 52953.182512901134, 44075.06961525317, -1760.915131678001, -15139.015333535115, -185479.44700472915, -18892.07439328127, -949.5244562058994, 31334.1952960724, 0.05, 1.004, 0.194, 192.0, 0.0, 0.0, 0.0, 0.0, 0.0, 0.0, 0.0, 0.0, 0.0, 1.6527896587548113E9, 0.0, 2022-05-17 14:14:18.754
45.0, 53003.87626932577, 44137.74390670585, -1701.7724158492586, -15073.278853092057, -186458.29694966043, -18805.57314223923, -1068.1675157746693, 31240.60854203803, 0.05, 1.004, 0.194, 192.0, 0.0, 0.0, 0.0, 0.0, 0.0, 0.0, 0.0, 0.0, 0.0, 1.6527896587548165E9, 0.0, 2022-05-17 14:14:18.754
46.0, 53011.855842096316, 44099.030685309255, -1734.5847767096493, -15119.368150158902, -186251.90094136013, -18799.24759855838, -891.5887345777434, 31383.033857707247, 0.05, 1.004, 0.194, 192.0, 0.0, 0.0, 0.0, 0.0, 0.0, 0.0, 0.0, 0.0, 0.0, 1.6527896587548215E9, 0.0, 2022-05-17 14:14:18.754
47.0, 52965.94535898511, 44022.52066403874, -1800.2765536637967, -15210.160936136359, -185156.53135258335, -18907.54180044434, -655.6884235964327, 31612.69803198553, 0.054, 0.996, 0.196, 192.0, 1.0, 176.0, 31.0, 32.0, 6.0, 32.0, 0.0, 0.0, 0.0, 1.6527896587548273E9, 0.0, 2022-05-17 14:14:18.754
48.0, 52914.75986418246, 44012.976469156325, -1813.9334695259893, -15225.091901432503, -184730.03771663163, -18946.232670096477, -703.2752875417814, 31622.264578612398, 0.054, 0.996, 0.196, 192.0, 0.0, 0.0, 0.0, 0.0, 0.0, 0.0, 0.0, 0.0, 0.0, 1.6527896587548325E9, 0.0, 2022-05-17 14:14:18.754
49.0, 52908.32256177933, 44066.1512692155, -1770.68284400497, -15158.19313027777, -185564.00365400358, -18886.799381589815, -953.3913079966675, 31457.80044291025, 0.054, 0.996, 0.196, 192.0, 0.0, 0.0, 0.0, 0.0, 0.0, 0.0, 0.0, 0.0, 0.0, 1.6527896587548378E9, 0.0, 2022-05-17 14:14:18.754
50.0, 52945.96289944207, 44104.57391793417, -1733.042506342233, -15088.07570792147, -186551.21315136115, -18819.96766566845, -1077.7787658904513, 31362.850232464105, 0.054, 0.996, 0.196, 192.0, 0.0, 0.0, 0.0, 0.0, 0.0, 0.0, 0.0, 0.0, 0.0, 1.6527896587548432E9, 0.0, 2022-05-17 14:14:18.754
51.0, 52973.54495209992, 44084.569106646675, -1738.0269453557667, -15116.283609424068, -186383.50801271296, -18816.212572599958, -912.1299877321707, 31485.42719905701, 0.054, 0.996, 0.196, 192.0, 0.0, 0.0, 0.0, 0.0, 0.0, 0.0, 0.0, 0.0, 0.0, 1.652789658754849E9, 0.0, 2022-05-17 14:14:18.754
52.0, 52926.539233510404, 44006.85209117557, -1794.8450797611572, -15203.29895058858, -185343.52604669644, -18902.98204457546, -701.8000724077311, 31672.958335037034, 0.054, 0.996, 0.196, 192.0, 0.0, 0.0, 0.0, 0.0, 0.0, 0.0, 0.0, 0.0, 0.0, 1.6527896587548544E9, 0.0, 2022-05-17 14:14:18.754
53.0, 52876.426622441606, 43993.061064846646, -1811.9888677583776, -15211.904372203873, -184913.43377988742, -18935.32501880229, -725.1799971079823, 31686.0788090323, 0.054, 0.996, 0.196, 192.0, 0.0, 0.0, 0.0, 0.0, 0.0, 0.0, 0.0, 0.0, 0.0, 1.6527896587548597E9, 0.0, 2022-05-17 14:14:18.754
54.0, 52876.784250352895, 44047.53226608423, -1758.657605488015, -15145.027952793593, -185749.9478161273, -18875.757619828895, -957.9734156100054, 31515.311481393754, 0.054, 0.996, 0.196, 192.0, 0.0, 0.0, 0.0, 0.0, 0.0, 0.0, 0.0, 0.0, 0.0, 1.6527896587548656E9, 0.0, 2022-05-17 14:14:18.754
55.0, 52922.02418113044, 44099.34360973163, -1703.6723141279597, -15094.043623691037, -186763.39826147538, -18788.876389131117, -1080.148050802714, 31400.378811404564, 0.054, 0.996, 0.196, 192.0, 0.0, 0.0, 0.0, 0.0, 0.0, 0.0, 0.0, 0.0, 0.0, 1.652789658754871E9, 0.0, 2022-05-17 14:14:18.754
56.0, 52936.418704559655, 44068.87818203905, -1729.7791516517582, -15132.75684508763, -186573.11786092733, -18799.784040425307, -891.0746444552714, 31553.04122603431, 0.054, 0.996, 0.196, 192.0, 0.0, 0.0, 0.0, 0.0, 0.0, 0.0, 0.0, 0.0, 0.0, 1.6527896587548764E9, 0.0, 2022-05-17 14:14:18.754
57.0, 52893.6374656722, 43993.0834165911, -1788.6759982914923, -15218.229915884724, -185517.91435693676, -18902.73617538645, -663.2656649667817, 31761.247725635498, 0.062, 1.002, 0.196, 192.0, 1.0, 240.0, 31.0, 80.0, 6.0, 32.0, 0.0, 0.0, 0.0, 1.6527896587548816E9, 0.0, 2022-05-17 14:14:18.754
58.0, 52853.627843097194, 43979.60531468455, -1804.1881089434755, -15240.916936506861, -185118.3992765426, -18960.403676081143, -714.0711801136947, 31744.752138227483, 0.062, 1.002, 0.196, 192.0, 0.0, 0.0, 0.0, 0.0, 0.0, 0.0, 0.0, 0.0, 0.0, 1.6527896587548869E9, 0.0, 2022-05-17 14:14:18.754
59.0, 52871.956273550546, 44051.10854519708, -1740.6420994570376, -15144.625621393398, -185968.01143503326, -18866.68281158004, -949.0103660834272, 31561.91486858307, 0.062, 1.002, 0.196, 192.0, 0.0, 0.0, 0.0, 0.0, 0.0, 0.0, 0.0, 0.0, 0.0, 1.652789658754892E9, 0.0, 2022-05-17 14:14:18.754
60.0, 52925.26518407645, 44108.820749380684, -1680.8735347835463, -15074.217626359181, -186970.7330430428, -18768.402191210054, -1057.7068993695855, 31462.360198779133, 0.062, 1.002, 0.196, 192.0, 0.0, 0.0, 0.0, 0.0, 0.0, 0.0, 0.0, 0.0, 0.0, 1.6527896587548974E9, 0.0, 2022-05-17 14:14:18.754
61.0, 52934.47410279204, 44071.53803962923, -1705.7510263623033, -15111.433280877267, -186839.93063449033, -18774.437162212987, -892.5275078448664, 31569.603868675695, 0.062, 1.002, 0.196, 192.0, 0.0, 0.0, 0.0, 0.0, 0.0, 0.0, 0.0, 0.0, 0.0, 1.6527896587549024E9, 0.0, 2022-05-17 14:14:18.754
62.0, 52882.12631727771, 43990.15533806745, -1782.909248222023, -15203.366005821945, -185814.94668900332, -18891.202675247514, -670.3288162146588, 31759.43723433462, 0.062, 1.002, 0.196, 192.0, 0.0, 0.0, 0.0, 0.0, 0.0, 0.0, 0.0, 0.0, 0.0, 1.6527896587549076E9, 0.0, 2022-05-17 14:14:18.754
63.0, 52832.68425854257, 43969.010587812736, -1800.365960641618, -15218.609895540465, -185377.18777384615, -18918.494155227443, -694.8263281376753, 31780.090246211323, 0.062, 1.002, 0.196, 192.0, 0.0, 0.0, 0.0, 0.0, 0.0, 0.0, 0.0, 0.0, 0.0, 1.6527896587549129E9, 0.0, 2022-05-17 14:14:18.754
64.0, 52838.4733603565, 44028.4438763194, -1741.7820384242582, -15146.346705716456, -186242.35674647772, -18857.58565158673, -962.0414331008712, 31578.38810424663, 0.062, 1.002, 0.196, 192.0, 0.0, 0.0, 0.0, 0.0, 0.0, 0.0, 0.0, 0.0, 0.0, 1.6527896587549205E9, 0.0, 2022-05-17 14:14:18.754
65.0, 52884.875581845714, 44080.56814438917, -1683.1981162068982, -15078.062126405493, -187269.77703211035, -18757.494539915864, -1091.7709579194734, 31460.23678305588, 0.062, 1.002, 0.196, 192.0, 0.0, 0.0, 0.0, 0.0, 0.0, 0.0, 0.0, 0.0, 0.0, 1.6527896587549255E9, 0.0, 2022-05-17 14:14:18.754
66.0, 52897.70548316306, 44046.19116141691, -1700.9677530488675, -15121.066882737505, -187131.73265835436, -18750.4760921569, -915.9968395229388, 31588.289927040332, 0.062, 1.002, 0.196, 192.0, 0.0, 0.0, 0.0, 0.0, 0.0, 0.0, 0.0, 0.0, 0.0, 1.652789658754931E9, 0.0, 2022-05-17 14:14:18.754
67.0, 52836.372296377696, 43949.139886991965, -1777.7459952528473, -15229.450491601288, -186105.07233203322, -18861.899538266603, -680.8788395975638, 31789.947365516113, 0.068, 1.004, 0.184, 192.0, 2.0, 32.0, 31.0, 96.0, 5.0, 192.0, 0.0, 0.0, 0.0, 1.6527896587549365E9, 0.0, 2022-05-17 14:14:18.754
68.0, 52771.127554312654, 43923.211863423814, -1799.4718908634056, -15249.2988406776, -185703.00915277115, -18941.114120616214, -729.1809593654823, 31773.71999904156, 0.068, 1.004, 0.184, 192.0, 0.0, 0.0, 0.0, 0.0, 0.0, 0.0, 0.0, 0.0, 0.0, 1.6527896587549417E9, 0.0, 2022-05-17 14:14:18.754
69.0, 52763.86323736468, 43973.45858495934, -1742.787866924747, -15155.242700009669, -186562.2325613776, -18863.508863867388, -986.628352001709, 31569.849737864704, 0.068, 1.004, 0.184, 192.0, 0.0, 0.0, 0.0, 0.0, 0.0, 0.0, 0.0, 0.0, 0.0, 1.6527896587549467E9, 0.0, 2022-05-17 14:14:18.754
70.0, 52779.08477533874, 43988.74717816677, -1697.6373431250267, -15094.736527769153, -187500.02235174447, -18762.590737651677, -1090.4075015076996, 31456.03465509828, 0.068, 1.004, 0.184, 192.0, 0.0, 0.0, 0.0, 0.0, 0.0, 0.0, 0.0, 0.0, 0.0, 1.652789658754952E9, 0.0, 2022-05-17 14:14:18.754
71.0, 52784.18097307456, 43957.812363840625, -1704.208755994887, -15136.243717222658, -187453.1507436217, -18757.829816082696, -901.9822957494612, 31585.63006945015, 0.068, 1.004, 0.184, 192.0, 0.0, 0.0, 0.0, 0.0, 0.0, 0.0, 0.0, 0.0, 0.0, 1.6527896587549572E9, 0.0, 2022-05-17 14:14:18.754
72.0, 52704.27348664683, 43869.947656386816, -1766.234846858364, -15221.359160108466, -186441.62254829676, -18838.07257867725, -671.580513904156, 31781.0513712229, 0.068, 1.004, 0.184, 192.0, 0.0, 0.0, 0.0, 0.0, 0.0, 0.0, 0.0, 0.0, 0.0, 1.652789658754963E9, 0.0, 2022-05-17 14:14:18.754
73.0, 52638.04526782576, 43835.83889434802, -1784.6973877784478, -15233.339695136512, -186015.68770595643, -18902.870285853183, -709.5337759892674, 31787.913356770678, 0.068, 1.004, 0.184, 192.0, 0.0, 0.0, 0.0, 0.0, 0.0, 0.0, 0.0, 0.0, 0.0, 1.6527896587549684E9, 0.0, 2022-05-17 14:14:18.754
74.0, 52641.107456816135, 43884.52099377167, -1731.5449394637276, -15167.849083882462, -186862.5058963902, -18851.662439306074, -971.0268343719047, 31593.25201430941, 0.068, 1.004, 0.184, 192.0, 0.0, 0.0, 0.0, 0.0, 0.0, 0.0, 0.0, 0.0, 0.0, 1.6527896587549734E9, 0.0, 2022-05-17 14:14:18.754
75.0, 52660.44171576998, 43890.82418570807, -1684.0921859851107, -15119.837536792462, -187500.02235174447, -18745.201080465446, -1092.754434675507, 31489.1822921255, 0.068, 1.004, 0.184, 192.0, 0.0, 0.0, 0.0, 0.0, 0.0, 0.0, 0.0, 0.0, 0.0, 1.6527896587549791E9, 0.0, 2022-05-17 14:14:18.754
76.0, 52646.60598595214, 43835.83889434802, -1703.6499623835043, -15155.62267966541, -187500.02235174447, -18746.117501988116, -922.9482320485392, 31617.861284954703, 0.068, 1.004, 0.184, 192.0, 0.0, 0.0, 0.0, 0.0, 0.0, 0.0, 0.0, 0.0, 0.0, 1.6527896587549844E9, 0.0, 2022-05-17 14:14:18.754
77.0, 52580.7577467868, 43751.34930030695, -1772.135707394565, -15236.558346338075, -186767.7792033886, -18837.379674599135, -703.5435084752451, 31796.25055745251, 0.064, 0.998, 0.194, 192.0, 2.0, 0.0, 31.0, 48.0, 6.0, 16.0, 0.0, 0.0, 0.0, 1.65278965875499E9, 0.0, 2022-05-17 14:14:18.754
78.0, 52495.95522832337, 43689.569078632485, -1799.2930769077632, -15253.098637235003, -186344.39245991618, -18884.25128272191, -722.7660087068092, 31796.831702808347, 0.064, 0.998, 0.194, 192.0, 0.0, 0.0, 0.0, 0.0, 0.0, 0.0, 0.0, 0.0, 0.0, 1.6527896587549956E9, 0.0, 2022-05-17 14:14:18.754
79.0, 52476.263341458245, 43691.42427342228, -1748.1299338495653, -15170.28542402809, -187182.49347001238, -18815.3408545662, -958.3757470102009, 31602.550340002817, 0.064, 0.998, 0.194, 192.0, 0.0, 0.0, 0.0, 0.0, 0.0, 0.0, 0.0, 0.0, 0.0, 1.652789658755002E9, 0.0, 2022-05-17 14:14:18.755
80.0, 52493.40712945547, 43721.800294137036, -1686.4167674084626, -15086.198161387225, -187500.02235174447, -18719.787147019764, -1079.656312424697, 31468.41752152652, 0.064, 0.998, 0.194, 192.0, 0.0, 0.0, 0.0, 0.0, 0.0, 0.0, 0.0, 0.0, 0.0, 1.6527896587550075E9, 0.0, 2022-05-17 14:14:18.755
81.0, 52444.881492242996, 43627.274766835544, -1731.3884772525403, -15143.955069059739, -187500.02235174447, -18731.56651634771, -908.2631359414025, 31583.752522915904, 0.064, 0.998, 0.194, 192.0, 0.0, 0.0, 0.0, 0.0, 0.0, 0.0, 0.0, 0.0, 0.0, 1.6527896587550132E9, 0.0, 2022-05-17 14:14:18.755
82.0, 52347.003203273205, 43495.153605360225, -1805.9091932665342, -15250.394076155912, -187144.78607711627, -18842.58763105722, -685.9526855889185, 31770.56840307336, 0.064, 0.998, 0.194, 192.0, 0.0, 0.0, 0.0, 0.0, 0.0, 0.0, 0.0, 0.0, 0.0, 1.6527896587550185E9, 0.0, 2022-05-17 14:14:18.755
83.0, 52251.87417887142, 43459.636683420744, -1813.687600336981, -15258.619518115464, -186713.10683645093, -18875.19882621751, -706.158662576516, 31775.57519383135, 0.064, 0.998, 0.194, 192.0, 0.0, 0.0, 0.0, 0.0, 0.0, 0.0, 0.0, 0.0, 0.0, 1.6527896587550237E9, 0.0, 2022-05-17 14:14:18.755
84.0, 52235.73621937469, 43515.69485851465, -1767.6653585035037, -15180.924854388817, -187500.02235174447, -18830.472985562443, -952.4301829850892, 31579.840967636224, 0.064, 0.998, 0.194, 192.0, 0.0, 0.0, 0.0, 0.0, 0.0, 0.0, 0.0, 0.0, 0.0, 1.652789658755029E9, 0.0, 2022-05-17 14:14:18.755
85.0, 52248.25319626966, 43548.66368158623, -1711.6295351540489, -15113.154365200326, -187500.02235174447, -18761.026115539804, -1076.9964548345156, 31464.1259865911, 0.064, 0.998, 0.194, 192.0, 0.0, 0.0, 0.0, 0.0, 0.0, 0.0, 0.0, 0.0, 0.0, 1.6527896587550354E9, 0.0, 2022-05-17 14:14:18.755
86.0, 52215.44083540927, 43486.32466630038, -1727.72279116187, -15152.336973230478, -187500.02235174447, -18748.218565966912, -906.6761620850757, 31586.34532527272, 0.064, 0.998, 0.194, 192.0, 0.0, 0.0, 0.0, 0.0, 0.0, 0.0, 0.0, 0.0, 0.0, 1.6527896587550435E9, 0.0, 2022-05-17 14:14:18.755
87.0, 52115.5508894385, 43380.8914877047, -1793.9286582384896, -15259.290070449124, -187494.68028481965, -18833.177546641535, -686.4444239669352, 31782.571289845862, 0.05, 1.016, 0.20400000000000001, 192.0, 1.0, 144.0, 31.0, 192.0, 6.0, 96.0, 0.0, 0.0, 0.0, 1.6527896587550492E9, 0.0, 2022-05-17 14:14:18.755
88.0, 52019.05840862494, 43358.09270836028, -1812.1006264806542, -15260.340602438522, -187075.09333790463, -18891.225026991968, -726.3869913085689, 31772.110673440777, 0.05, 1.016, 0.20400000000000001, 192.0, 0.0, 0.0, 0.0, 0.0, 0.0, 0.0, 0.0, 0.0, 0.0, 1.6527896587550552E9, 0.0, 2022-05-17 14:14:18.755
89.0, 51979.562876172415, 43426.8019708159, -1752.9579106519118, -15174.107572329947, -187500.02235174447, -18829.82478497324, -967.1823343255919, 31563.658304650584, 0.05, 1.016, 0.20400000000000001, 192.0, 0.0, 0.0, 0.0, 0.0, 0.0, 0.0, 0.0, 0.0, 0.0, 1.652789658755061E9, 0.0, 2022-05-17 14:14:18.755
90.0, 51976.277169737485, 43484.64828546623, -1694.4410436679177, -15113.646103578343, -187500.02235174447, -18715.473260339888, -1084.4395857381328, 31439.82964036818, 0.05, 1.016, 0.20400000000000001, 192.0, 0.0, 0.0, 0.0, 0.0, 0.0, 0.0, 0.0, 0.0, 0.0, 1.6527896587550669E9, 0.0, 2022-05-17 14:14:18.755
91.0, 51919.74960801001, 43436.88260756524, -1708.8132153526803, -15146.011429549628, -187500.02235174447, -18717.820193507694, -912.3088016878131, 31545.48633640842, 0.05, 1.016, 0.20400000000000001, 192.0, 0.0, 0.0, 0.0, 0.0, 0.0, 0.0, 0.0, 0.0, 0.0, 1.652789658755072E9, 0.0, 2022-05-17 14:14:18.755
92.0, 51817.713894571534, 43358.9867781385, -1764.4243555574842, -15239.888756261917, -187500.02235174447, -18810.781098697316, -666.7301853573543, 31748.261362106965, 0.05, 1.016, 0.20400000000000001, 192.0, 0.0, 0.0, 0.0, 0.0, 0.0, 0.0, 0.0, 0.0, 0.0, 1.6527896587550771E9, 0.0, 2022-05-17 14:14:18.755
93.0, 51746.18831231455, 43322.844007354266, -1795.5379838392716, -15279.83132360355, -187407.0837982993, -18880.876169309162, -685.483298955357, 31768.08735943882, 0.05, 1.016, 0.20400000000000001, 192.0, 0.0, 0.0, 0.0, 0.0, 0.0, 0.0, 0.0, 0.0, 0.0, 1.6527896587550826E9, 0.0, 2022-05-17 14:14:18.755
94.0, 51715.74523636642, 43395.196604156095, -1750.4768670173726, -15209.065700658048, -187500.02235174447, -18843.906383980084, -945.4564387150334, 31568.173357030555, 0.05, 1.016, 0.20400000000000001, 192.0, 0.0, 0.0, 0.0, 0.0, 0.0, 0.0, 0.0, 0.0, 0.0, 1.6527896587550883E9, 0.0, 2022-05-17 14:14:18.755
95.0, 51703.8541083162, 43447.07500303686, -1716.6363259120378, -15157.254357010646, -187500.02235174447, -18770.637365655588, -1075.6329984227418, 31452.726596918896, 0.05, 1.016, 0.20400000000000001, 192.0, 0.0, 0.0, 0.0, 0.0, 0.0, 0.0, 0.0, 0.0, 0.0, 1.652789658755096E9, 0.0, 2022-05-17 14:14:18.755
96.0, 51686.97854125244, 43408.85352001828, -1725.8228928831688, -15179.941377632784, -187500.02235174447, -18759.394438194566, -925.9210140610951, 31536.322121181744, 0.05, 1.016, 0.20400000000000001, 192.0, 0.0, 0.0, 0.0, 0.0, 0.0, 0.0, 0.0, 0.0, 0.0, 1.6527896587551012E9, 0.0, 2022-05-17 14:14:18.755
97.0, 51603.53947920078, 43339.116077317725, -1775.6672830185037, -15257.613689614975, -187500.02235174447, -18845.180433414036, -680.8564878531084, 31718.645300703683, 0.028, 1.022, 0.212, 192.0, 0.0, 224.0, 31.0, 240.0, 6.0, 160.0, 0.0, 0.0, 0.0, 1.6527896587551067E9, 0.0, 2022-05-17 14:14:18.755
98.0, 51525.24131837384, 43322.844007354266, -1800.5000711083499, -15284.636948661442, -187500.02235174447, -18905.820716121285, -686.8914588560414, 31735.274998578432, 0.028, 1.022, 0.212, 192.0, 0.0, 0.0, 0.0, 0.0, 0.0, 0.0, 0.0, 0.0, 0.0, 1.6527896587551117E9, 0.0, 2022-05-17 14:14:18.755
99.0, 51492.33955053563, 43347.497981488465, -1769.721718993392, -15227.282372389123, -187500.02235174447, -18858.725590553953, -929.407886196123, 31556.885726080625, 0.028, 1.022, 0.212, 192.0, 0.0, 0.0, 0.0, 0.0, 0.0, 0.0, 0.0, 0.0, 0.0, 1.652789658755117E9, 0.0, 2022-05-17 14:14:18.755
100.0, 51525.73305675186, 43406.372476383745, -1720.1231980470657, -15161.121208801414, -187500.02235174447, -18785.76949665183, -1069.463916953077, 31426.239779739357, 0.028, 1.022, 0.212, 192.0, 0.0, 0.0, 0.0, 0.0, 0.0, 0.0, 0.0, 0.0, 0.0, 1.652789658755123E9, 0.0, 2022-05-17 14:14:18.755
101.0, 51519.3628095821, 43385.5406505514, -1731.6343464415488, -15181.237778811192, -187500.02235174447, -18774.593624424175, -901.1329294601595, 31532.365862413153, 0.028, 1.022, 0.212, 192.0, 0.0, 0.0, 0.0, 0.0, 0.0, 0.0, 0.0, 0.0, 0.0, 1.6527896587551284E9, 0.0, 2022-05-17 14:14:18.755
102.0, 51458.65547164148, 43319.67005964161, -1795.8285565171907, -15273.25991073369, -187500.02235174447, -18877.07637275176, -657.2306939638489, 31737.867800935248, 0.028, 1.022, 0.212, 192.0, 0.0, 0.0, 0.0, 0.0, 0.0, 0.0, 0.0, 0.0, 0.0, 1.6527896587551336E9, 0.0, 2022-05-17 14:14:18.755
103.0, 51400.07154942412, 43301.632201866174, -1817.4203416610173, -15286.603902173509, -187500.02235174447, -18917.868306382694, -678.129575029561, 31753.37991158723, 0.028, 1.022, 0.212, 192.0, 0.0, 0.0, 0.0, 0.0, 0.0, 0.0, 0.0, 0.0, 0.0, 1.6527896587551389E9, 0.0, 2022-05-17 14:14:18.755
104.0, 51391.44377606437, 43343.36290876423, -1766.7936404697468, -15218.386378095911, -187500.02235174447, -18868.69446858102, -939.4214677121006, 31548.660284121073, 0.028, 1.022, 0.212, 192.0, 0.0, 0.0, 0.0, 0.0, 0.0, 0.0, 0.0, 0.0, 0.0, 1.6527896587551446E9, 0.0, 2022-05-17 14:14:18.755
105.0, 51436.929576030925, 43399.376380369235, -1722.5595381926942, -15163.870473369418, -187500.02235174447, -18780.76270589384, -1077.041158323426, 31422.88701807106, 0.028, 1.022, 0.212, 192.0, 0.0, 0.0, 0.0, 0.0, 0.0, 0.0, 0.0, 0.0, 0.0, 1.65278965875515E9, 0.0, 2022-05-17 14:14:18.755
106.0, 51450.87706457103, 43380.33269409331, -1720.369067236074, -15185.037575368593, -187500.02235174447, -18759.95323180595, -911.213566209503, 31536.456231648473, 0.028, 1.022, 0.212, 192.0, 0.0, 0.0, 0.0, 0.0, 0.0, 0.0, 0.0, 0.0, 0.0, 1.652789658755155E9, 0.0, 2022-05-17 14:14:18.755
107.0, 51391.86845920902, 43289.38344590467, -1778.7741754977912, -15275.673899134863, -187500.02235174447, -18841.71591302346, -681.8176128646867, 31735.766736956448, 0.01, 1.024, 0.22, 192.0, 0.0, 80.0, 32.0, 0.0, 6.0, 224.0, 0.0, 0.0, 0.0, 1.6527896587551627E9, 0.0, 2022-05-17 14:14:18.755
108.0, 51342.962842340814, 43280.93448650056, -1786.9325622239785, -15286.73801264024, -187500.02235174447, -18891.783820603352, -708.5950027221445, 31742.919295182146, 0.01, 1.024, 0.22, 192.0, 0.0, 0.0, 0.0, 0.0, 0.0, 0.0, 0.0, 0.0, 0.0, 1.6527896587551684E9, 0.0, 2022-05-17 14:14:18.755
109.0, 51320.56639439659, 43330.801228380355, -1740.6644512014927, -15226.522413077642, -187500.02235174447, -18856.423360875055, -968.2999215483572, 31546.49216490891, 0.01, 1.024, 0.22, 192.0, 0.0, 0.0, 0.0, 0.0, 0.0, 0.0, 0.0, 0.0, 0.0, 1.6527896587551749E9, 0.0, 2022-05-17 14:14:18.755
110.0, 51335.609118415014, 43382.612572027756, -1689.5460116322056, -15171.894749628873, -187500.02235174447, -18775.241825013378, -1113.8321296968616, 31418.03668952426, 0.01, 1.024, 0.22, 192.0, 0.0, 0.0, 0.0, 0.0, 0.0, 0.0, 0.0, 0.0, 0.0, 1.6527896587551816E9, 0.0, 2022-05-17 14:14:18.755
111.0, 51337.509016693715, 43357.19863858207, -1695.692741357415, -15198.426270297323, -187500.02235174447, -18744.91050778753, -955.3806132531898, 31525.90620826557, 0.01, 1.024, 0.22, 192.0, 0.0, 0.0, 0.0, 0.0, 0.0, 0.0, 0.0, 0.0, 0.0, 1.652789658755188E9, 0.0, 2022-05-17 14:14:18.755
112.0, 51261.35662333448, 43270.42916660657, -1768.715890492903, -15292.750631898718, -187500.02235174447, -18838.43020658853, -737.0264216692951, 31718.33237628131, 0.01, 1.024, 0.22, 192.0, 0.0, 0.0, 0.0, 0.0, 0.0, 0.0, 0.0, 0.0, 0.0, 1.6527896587551937E9, 0.0, 2022-05-17 14:14:18.755
113.0, 51186.2324102202, 43230.955985898494, -1789.6371233030707, -15314.297713553635, -187500.02235174447, -18894.041346793336, -768.2294569289037, 31729.955283398067, 0.01, 1.024, 0.22, 192.0, 0.0, 0.0, 0.0, 0.0, 0.0, 0.0, 0.0, 0.0, 0.0, 1.6527896587552E9, 0.0, 2022-05-17 14:14:18.755
114.0, 51168.50747686714, 43258.649797278624, -1730.9637941078895, -15246.951907509794, -187500.02235174447, -18824.572125026243, -1017.853739005773, 31546.76038584237, 0.01, 1.024, 0.22, 192.0, 0.0, 0.0, 0.0, 0.0, 0.0, 0.0, 0.0, 0.0, 0.0, 1.6527896587552052E9, 0.0, 2022-05-17 14:14:18.755
115.0, 51189.69693061077, 43311.779893848885, -1673.1845346909208, -15181.438944511288, -187500.02235174447, -18732.79586229275, -1156.009871484026, 31422.93172155997, 0.01, 1.024, 0.22, 192.0, 0.0, 0.0, 0.0, 0.0, 0.0, 0.0, 0.0, 0.0, 0.0, 1.652789658755211E9, 0.0, 2022-05-17 14:14:18.755
116.0, 51191.61918063393, 43377.00228416947, -1684.405110407485, -15207.948113435283, -187500.02235174447, -18735.433368138478, -992.2162881155358, 31550.80605158878, 0.002, 1.024, 0.25, 192.0, 0.0, 16.0, 32.0, 0.0, 7.0, 208.0, 0.0, 0.0, 0.0, 1.6527896587552176E9, 0.0, 2022-05-17 14:14:18.755
117.0, 51125.5697757685, 43342.893522130675, -1740.0609541011995, -15290.850733620016, -187500.02235174447, -18832.43993907451, -766.5307243503004, 31755.257458121476, 0.002, 1.024, 0.25, 192.0, 0.0, 0.0, 0.0, 0.0, 0.0, 0.0, 0.0, 0.0, 0.0, 1.6527896587552228E9, 0.0, 2022-05-17 14:14:18.755
118.0, 51056.614644123874, 43305.990792034965, -1754.0531461302216, -15312.330760041566, -187500.02235174447, -18854.791683529817, -778.6677215895321, 31765.20398440409, 0.002, 1.024, 0.25, 192.0, 0.0, 0.0, 0.0, 0.0, 0.0, 0.0, 0.0, 0.0, 0.0, 1.6527896587552285E9, 0.0, 2022-05-17 14:14:18.755
119.0, 51024.62929780833, 43337.77497265041, -1714.043523555222, -15250.997573256205, -187500.02235174447, -18792.720889177428, -1024.2686896644461, 31581.807921148295, 0.002, 1.024, 0.25, 192.0, 0.0, 0.0, 0.0, 0.0, 0.0, 0.0, 0.0, 0.0, 0.0, 1.652789658755234E9, 0.0, 2022-05-17 14:14:18.755
120.0, 51048.61271960887, 43375.884696946705, -1668.6247788220383, -15202.337825577, -187500.02235174447, -18708.94655095894, -1166.2469704445566, 31465.75766393634, 0.002, 1.024, 0.25, 192.0, 0.0, 0.0, 0.0, 0.0, 0.0, 0.0, 0.0, 0.0, 0.0, 1.6527896587552392E9, 0.0, 2022-05-17 14:14:18.755
121.0, 51057.84399006891, 43353.175324580116, -1665.6743485539375, -15235.932497493328, -187500.02235174447, -18677.341184299134, -1029.8119222893622, 31580.891499625624, 0.002, 1.024, 0.25, 192.0, 0.0, 0.0, 0.0, 0.0, 0.0, 0.0, 0.0, 0.0, 0.0, 1.652789659233816E9, 0.0, 2022-05-17 14:14:19.233
122.0, 51006.54673654398, 43268.171640416585, -1706.6227443960602, -15309.693254195841, -187500.02235174447, -18760.422618439512, -801.0641695337498, 31766.52273732695, 0.002, 1.024, 0.25, 192.0, 0.0, 0.0, 0.0, 0.0, 0.0, 0.0, 0.0, 0.0, 0.0, 1.652789659233946E9, 0.0, 2022-05-17 14:14:19.233
123.0, 50960.81506738843, 43218.90839563709, -1744.464247758895, -15342.527966800686, -187500.02235174447, -18817.30780807827, -820.8231116322413, 31807.180560491153, 0.002, 1.024, 0.25, 192.0, 0.0, 0.0, 0.0, 0.0, 0.0, 0.0, 0.0, 0.0, 0.0, 1.6527896592339537E9, 0.0, 2022-05-17 14:14:19.233
124.0, 50982.451556021166, 43261.15319265761, -1690.8424128106133, -15269.504817665198, -187500.02235174447, -18761.875481829105, -1047.6039108757868, 31645.242171912454, 0.002, 1.024, 0.25, 192.0, 0.0, 0.0, 0.0, 0.0, 0.0, 0.0, 0.0, 0.0, 0.0, 1.6527896592339597E9, 0.0, 2022-05-17 14:14:19.233
125.0, 51036.05103922499, 43318.73128637449, -1627.1846446018988, -15206.897581445883, -187500.02235174447, -18669.674535950966, -1193.7172643801289, 31515.266777904842, 0.002, 1.024, 0.25, 192.0, 0.0, 0.0, 0.0, 0.0, 0.0, 0.0, 0.0, 0.0, 0.0, 1.6527896592339656E9, 0.0, 2022-05-17 14:14:19.233
126.0, 51047.09280098591, 43286.99180924795, -1635.9018249394685, -15231.663314302365, -187500.02235174447, -18647.3004397512, -1052.9012743116946, 31632.25580838392, -0.01, 0.9480000000000001, 0.23600000000000002, 192.0, 255.0, 176.0, 29.0, 160.0, 7.0, 96.0, 0.0, 0.0, 0.0, 1.652789659233971E9, 0.0, 2022-05-17 14:14:19.233
127.0, 51017.94612621619, 43208.60424144319, -1702.5323751607389, -15326.993504404249, -187500.02235174447, -18733.712283815417, -832.6471844490987, 31844.932656876168, -0.01, 0.9480000000000001, 0.23600000000000002, 192.0, 0.0, 0.0, 0.0, 0.0, 0.0, 0.0, 0.0, 0.0, 0.0, 1.6527896592339764E9, 0.0, 2022-05-17 14:14:19.233
128.0, 50993.67213173773, 43193.583869169226, -1726.8734248725684, -15346.953612202838, -187500.02235174447, -18753.873557314106, -851.8920364251181, 31865.228040841586, -0.01, 0.9480000000000001, 0.23600000000000002, 192.0, 0.0, 0.0, 0.0, 0.0, 0.0, 0.0, 0.0, 0.0, 0.0, 1.6527896592339935E9, 0.0, 2022-05-17 14:14:19.233
129.0, 51026.1939199202, 43244.47879129396, -1679.018339993756, -15263.872178062462, -187500.02235174447, -18662.633736447544, -1097.0683213553812, 31669.806739068837, -0.01, 0.9480000000000001, 0.23600000000000002, 192.0, 0.0, 0.0, 0.0, 0.0, 0.0, 0.0, 0.0, 0.0, 0.0, 1.652789659233999E9, 0.0, 2022-05-17 14:14:19.233
130.0, 51079.43577521274, 43265.46707933749, -1646.787124489203, -15209.602142524976, -187500.02235174447, -18558.809883452643, -1238.19723584619, 31559.25501099289, -0.01, 0.9480000000000001, 0.23600000000000002, 192.0, 0.0, 0.0, 0.0, 0.0, 0.0, 0.0, 0.0, 0.0, 0.0, 1.6527896592340045E9, 0.0, 2022-05-17 14:14:19.234
131.0, 51140.27722362009, 43240.813105203284, -1655.2360838933091, -15218.945171707293, -187500.02235174447, -18536.458138997335, -1103.4162167806885, 31662.095387231755, -0.01, 0.9480000000000001, 0.23600000000000002, 192.0, 0.0, 0.0, 0.0, 0.0, 0.0, 0.0, 0.0, 0.0, 0.0, 1.6527896592340095E9, 0.0, 2022-05-17 14:14:19.234
132.0, 51141.70773526523, 43143.31479588924, -1750.432163528462, -15307.726300683773, -187500.02235174447, -18612.76699456775, -871.0698331677715, 31869.765444966015, -0.01, 0.9480000000000001, 0.23600000000000002, 192.0, 0.0, 0.0, 0.0, 0.0, 0.0, 0.0, 0.0, 0.0, 0.0, 1.652789659234015E9, 0.0, 2022-05-17 14:14:19.234
133.0, 51131.761208982614, 43107.84257743866, -1814.5146148818274, -15341.432731322377, -187500.02235174447, -18675.754210442807, -867.605312777199, 31918.492247878585, -0.01, 0.9480000000000001, 0.23600000000000002, 192.0, 0.0, 0.0, 0.0, 0.0, 0.0, 0.0, 0.0, 0.0, 0.0, 1.6527896592340205E9, 0.0, 2022-05-17 14:14:19.234
134.0, 51133.77286598359, 43120.11368514463, -1809.8207485462128, -15287.922655096372, -187500.02235174447, -18623.562887139666, -1121.3199640893895, 31739.454774791575, -0.01, 0.9480000000000001, 0.23600000000000002, 192.0, 0.0, 0.0, 0.0, 0.0, 0.0, 0.0, 0.0, 0.0, 0.0, 1.652789659234026E9, 0.0, 2022-05-17 14:14:19.234
135.0, 51236.85911141147, 43139.06796444273, -1798.8907455075678, -15236.983029482726, -187500.02235174447, -18550.67384847091, -1272.0154252070697, 31630.132392660667, -0.01, 0.9480000000000001, 0.23600000000000002, 192.0, 0.0, 0.0, 0.0, 0.0, 0.0, 0.0, 0.0, 0.0, 0.0, 1.6527896592340314E9, 0.0, 2022-05-17 14:14:19.234
136.0, 51364.219351317806, 43108.91546117252, -1830.652574378559, -15251.757532567684, -187500.02235174447, -18534.513537229723, -1114.4579785416101, 31753.37991158723, 0.054, 0.8180000000000001, 0.272, 192.0, 1.0, 176.0, 25.0, 144.0, 8.0, 128.0, 0.0, 0.0, 0.0, 1.6527896592340367E9, 0.0, 2022-05-17 14:14:19.234
137.0, 51399.06572092363, 43017.407419372495, -1911.0965026732092, -15319.237449078257, -187500.02235174447, -18598.037194971705, -857.9940626614169, 31975.75741717308, 0.054, 0.8180000000000001, 0.272, 192.0, 0.0, 0.0, 0.0, 0.0, 0.0, 0.0, 0.0, 0.0, 0.0, 1.652789659234042E9, 0.0, 2022-05-17 14:14:19.234
138.0, 51338.67130740539, 42949.301654017174, -1979.9622273400103, -15349.23349013728, -187500.02235174447, -18691.869818195086, -878.311798371291, 32007.027507666055, 0.054, 0.8180000000000001, 0.272, 192.0, 0.0, 0.0, 0.0, 0.0, 0.0, 0.0, 0.0, 0.0, 0.0, 1.6527896592340474E9, 0.0, 2022-05-17 14:14:19.234
139.0, 51304.67430408887, 42977.91188691997, -1967.847581845234, -15265.436800174333, -187500.02235174447, -18740.954249018938, -1158.5356186074757, 31795.557653374395, 0.054, 0.8180000000000001, 0.272, 192.0, 0.0, 0.0, 0.0, 0.0, 0.0, 0.0, 0.0, 0.0, 0.0, 1.652789659234053E9, 0.0, 2022-05-17 14:14:19.234
140.0, 51336.950223082335, 43025.25288167631, -1950.9273112925664, -15200.952017420772, -187500.02235174447, -18758.23214748289, -1310.0580942700024, 31656.194526695555, 0.054, 0.8180000000000001, 0.272, 192.0, 0.0, 0.0, 0.0, 0.0, 0.0, 0.0, 0.0, 0.0, 0.0, 1.652789659234058E9, 0.0, 2022-05-17 14:14:19.234
141.0, 51364.95695888483, 43061.88739083855, -1969.0545760458203, -15226.053026444082, -187500.02235174447, -18772.134932534093, -1171.2090577136348, 31757.42557733364, 0.054, 0.8180000000000001, 0.272, 192.0, 0.0, 0.0, 0.0, 0.0, 0.0, 0.0, 0.0, 0.0, 0.0, 1.6527896592340634E9, 0.0, 2022-05-17 14:14:19.234
142.0, 51283.66366430088, 42980.81761369915, -2039.7307920135013, -15320.869126423495, -187500.02235174447, -18807.361281795656, -978.9170001646281, 31975.71271368417, 0.054, 0.8180000000000001, 0.272, 192.0, 0.0, 0.0, 0.0, 0.0, 0.0, 0.0, 0.0, 0.0, 0.0, 1.6527896592340689E9, 0.0, 2022-05-17 14:14:19.234
143.0, 51158.538598840074, 42930.012098552244, -2077.4605366540595, -15363.873882755504, -187500.02235174447, -18854.07642770725, -1058.109230769781, 32001.685440741236, 0.054, 0.8180000000000001, 0.272, 192.0, 0.0, 0.0, 0.0, 0.0, 0.0, 0.0, 0.0, 0.0, 0.0, 1.652789659234074E9, 0.0, 2022-05-17 14:14:19.234
144.0, 51063.320167460464, 42986.27143934625, -2043.6870507820906, -15347.870033725505, -187500.02235174447, -18885.74884960042, -1325.7937223665385, 31832.370976492286, 0.054, 0.8180000000000001, 0.272, 192.0, 0.0, 0.0, 0.0, 0.0, 0.0, 0.0, 0.0, 0.0, 0.0, 1.6527896592340794E9, 0.0, 2022-05-17 14:14:19.234
145.0, 50978.16002108574, 43056.545323913735, -1978.0846808057645, -15267.06847751957, -187500.02235174447, -18805.32727305022, -1474.9469131168025, 31727.496591507985, 0.054, 0.8180000000000001, 0.272, 192.0, 0.0, 0.0, 0.0, 0.0, 0.0, 0.0, 0.0, 0.0, 0.0, 1.6527896592340848E9, 0.0, 2022-05-17 14:14:19.234
146.0, 50863.98731040804, 43030.48318987885, -1978.3752534836835, -15284.815762617083, -187500.02235174447, -18739.56844086271, -1344.7256499201835, 31855.661494214713, -0.018000000000000002, 0.9380000000000001, 0.294, 192.0, 255.0, 112.0, 29.0, 80.0, 9.0, 48.0, 0.0, 0.0, 0.0, 1.65278965923409E9, 0.0, 2022-05-17 14:14:19.234
147.0, 50595.565211244255, 42945.4348022264, -2044.4246583491158, -15368.433638624389, -187500.02235174447, -18823.25337210338, -1128.852501970828, 32093.573462197004, -0.018000000000000002, 0.9380000000000001, 0.294, 192.0, 0.0, 0.0, 0.0, 0.0, 0.0, 0.0, 0.0, 0.0, 0.0, 1.6527896592340956E9, 0.0, 2022-05-17 14:14:19.234
148.0, 50315.31903926362, 42930.12385727452, -2063.7589173029564, -15336.761216731218, -187500.02235174447, -18888.811038590793, -1140.7436300210513, 32162.618000819446, -0.018000000000000002, 0.9380000000000001, 0.294, 192.0, 0.0, 0.0, 0.0, 0.0, 0.0, 0.0, 0.0, 0.0, 0.0, 1.6527896592341008E9, 0.0, 2022-05-17 14:14:19.234
149.0, 50186.61769468996, 42973.352131051084, -2006.4937480084598, -15274.176332256358, -187500.02235174447, -18826.36026458267, -1381.7848422270827, 32008.10039139991, -0.018000000000000002, 0.9380000000000001, 0.294, 192.0, 0.0, 0.0, 0.0, 0.0, 0.0, 0.0, 0.0, 0.0, 0.0, 1.6527896592341068E9, 0.0, 2022-05-17 14:14:19.234
150.0, 50102.48572856018, 43034.439448647434, -1930.5648720937816, -15194.268845828636, -187500.02235174447, -18685.14194311404, -1525.1042276745115, 31897.280442390496, -0.018000000000000002, 0.9380000000000001, 0.294, 192.0, 0.0, 0.0, 0.0, 0.0, 0.0, 0.0, 0.0, 0.0, 0.0, 1.6527896592341144E9, 0.0, 2022-05-17 14:14:19.234
151.0, 49969.47049730665, 43026.191654943425, -1932.777694794857, -15219.682779274319, -187500.02235174447, -18643.522994938256, -1390.770243498116, 31994.75639996009, -0.018000000000000002, 0.9380000000000001, 0.294, 192.0, 0.0, 0.0, 0.0, 0.0, 0.0, 0.0, 0.0, 0.0, 0.0, 1.6527896592341197E9, 0.0, 2022-05-17 14:14:19.234
152.0, 49791.14828004221, 42956.11893607604, -1987.8970966216443, -15283.474657949766, -187500.02235174447, -18715.115632428602, -1153.908807505227, 32214.027013066654, -0.018000000000000002, 0.9380000000000001, 0.294, 192.0, 0.0, 0.0, 0.0, 0.0, 0.0, 0.0, 0.0, 0.0, 0.0, 1.652789659234125E9, 0.0, 2022-05-17 14:14:19.234
153.0, 49638.39645843464, 42927.37459270652, -1999.6541142051358, -15314.990617631749, -187328.38330607215, -18780.09215356018, -1157.976824996093, 32255.48949903125, -0.018000000000000002, 0.9380000000000001, 0.294, 192.0, 0.0, 0.0, 0.0, 0.0, 0.0, 0.0, 0.0, 0.0, 0.0, 1.6527896592341304E9, 0.0, 2022-05-17 14:14:19.234
154.0, 49557.17021908405, 42963.20443906837, -1948.2451019579296, -15254.149169224404, -187500.02235174447, -18735.880403027582, -1371.8606676889262, 32124.374166056416, -0.018000000000000002, 0.9380000000000001, 0.294, 192.0, 0.0, 0.0, 0.0, 0.0, 0.0, 0.0, 0.0, 0.0, 0.0, 1.6527896592341356E9, 0.0, 2022-05-17 14:14:19.234
155.0, 49571.117707624166, 43018.88263450654, -1890.3764355631395, -15197.889828430394, -187500.02235174447, -18659.817416646172, -1518.733980504749, 32022.58432180695, -0.018000000000000002, 0.9380000000000001, 0.294, 192.0, 0.0, 0.0, 0.0, 0.0, 0.0, 0.0, 0.0, 0.0, 0.0, 1.652789659234141E9, 0.0, 2022-05-17 14:14:19.234
156.0, 49543.021564843846, 42988.55131728069, -1892.1422233751089, -15209.289218102602, -187500.02235174447, -18577.518293561734, -1375.5040020351414, 32143.64136977689, 0.012, 1.006, 0.28400000000000003, 192.0, 0.0, 96.0, 31.0, 112.0, 8.0, 224.0, 0.0, 0.0, 0.0, 1.6527896592341464E9, 0.0, 2022-05-17 14:14:19.234
157.0, 49485.80109903826, 42916.26577571223, -1941.8301512992564, -15292.325948754067, -187351.85263775024, -18631.45305293239, -1129.9924409380485, 32379.31816331365, 0.012, 1.006, 0.28400000000000003, 192.0, 0.0, 0.0, 0.0, 0.0, 0.0, 0.0, 0.0, 0.0, 0.0, 1.6527896592341516E9, 0.0, 2022-05-17 14:14:19.234
158.0, 49416.71185692691, 42873.6186472915, -1967.3334917227617, -15323.886611924961, -186615.51912015906, -18711.874629482583, -1128.852501970828, 32431.50948661679, 0.012, 1.006, 0.28400000000000003, 192.0, 0.0, 0.0, 0.0, 0.0, 0.0, 0.0, 0.0, 0.0, 0.0, 1.652789659234157E9, 0.0, 2022-05-17 14:14:19.234
159.0, 49394.27070549378, 42909.00145876425, -1926.6980203030134, -15251.019925000659, -187097.04275095975, -18681.74447795683, -1360.7742024390939, 32281.372819110493, 0.012, 1.006, 0.28400000000000003, 192.0, 0.0, 0.0, 0.0, 0.0, 0.0, 0.0, 0.0, 0.0, 0.0, 1.6527896592341623E9, 0.0, 2022-05-17 14:14:19.234
160.0, 49437.54368275925, 42969.41822402695, -1875.3113598002626, -15188.367985292434, -187500.02235174447, -18595.846724015086, -1514.7553699917044, 32168.049474722087, 0.012, 1.006, 0.28400000000000003, 192.0, 0.0, 0.0, 0.0, 0.0, 0.0, 0.0, 0.0, 0.0, 0.0, 1.6527896592341676E9, 0.0, 2022-05-17 14:14:19.234
161.0, 49455.93916844597, 42960.1869535669, -1874.3502347886842, -15200.326168576023, -187500.02235174447, -18569.516369046734, -1380.5107927931301, 32297.01904022921, 0.012, 1.006, 0.28400000000000003, 192.0, 0.0, 0.0, 0.0, 0.0, 0.0, 0.0, 0.0, 0.0, 0.0, 1.6527896592341733E9, 0.0, 2022-05-17 14:14:19.234
162.0, 49430.48053151137, 42908.15209247495, -1914.7845405083349, -15264.095695507014, -186636.73092564713, -18614.331616679625, -1133.725182262085, 32527.800801730253, 0.012, 1.006, 0.28400000000000003, 192.0, 0.0, 0.0, 0.0, 0.0, 0.0, 0.0, 0.0, 0.0, 0.0, 1.6527896592341783E9, 0.0, 2022-05-17 14:14:19.234
163.0, 49391.34262697013, 42855.7148999828, -1964.5171719213931, -15300.93137036936, -185903.16902436843, -18714.55683881722, -1146.1304004347803, 32569.889136539598, 0.012, 1.006, 0.28400000000000003, 192.0, 0.0, 0.0, 0.0, 0.0, 0.0, 0.0, 0.0, 0.0, 0.0, 1.6527896592341835E9, 0.0, 2022-05-17 14:14:19.234
164.0, 49417.047133093736, 42911.840130310076, -1924.7310667909464, -15214.407767582867, -186393.32042852885, -18688.40529780451, -1394.1006534219568, 32406.788457249222, 0.012, 1.006, 0.28400000000000003, 192.0, 0.0, 0.0, 0.0, 0.0, 0.0, 0.0, 0.0, 0.0, 0.0, 1.6527896592341893E9, 0.0, 2022-05-17 14:14:19.234
165.0, 49481.26369491383, 42960.477526244824, -1870.0586998532654, -15144.871490582407, -187245.16776146507, -18602.39578514049, -1512.2966781016205, 32295.007383228232, 0.012, 1.006, 0.28400000000000003, 192.0, 0.0, 0.0, 0.0, 0.0, 0.0, 0.0, 0.0, 0.0, 0.0, 1.6527896592341945E9, 0.0, 2022-05-17 14:14:19.234
166.0, 49527.6882681475, 42937.45522945586, -1879.3793772911285, -15161.009450079138, -187105.02232373029, -18564.219005610827, -1322.8432920984378, 32414.432753852936, 0.008, 1.014, 0.258, 192.0, 0.0, 64.0, 31.0, 176.0, 8.0, 16.0, 0.0, 0.0, 0.0, 1.6527896592342007E9, 0.0, 2022-05-17 14:14:19.234
167.0, 49506.05177951477, 42868.61185653351, -1939.393811153628, -15234.591392826009, -185963.2952169532, -18608.274293932234, -1059.5844459038312, 32654.915172447585, 0.008, 1.014, 0.258, 192.0, 0.0, 0.0, 0.0, 0.0, 0.0, 0.0, 0.0, 0.0, 0.0, 1.6527896592342062E9, 0.0, 2022-05-17 14:14:19.234
168.0, 49481.50956410284, 42844.89665566643, -1967.646416145136, -15256.607861114486, -185195.0210565354, -18672.3567452856, -1036.8974252816947, 32726.932493082586, 0.008, 1.014, 0.258, 192.0, 0.0, 0.0, 0.0, 0.0, 0.0, 0.0, 0.0, 0.0, 0.0, 1.652789659234212E9, 0.0, 2022-05-17 14:14:19.234
169.0, 49497.714578832936, 42878.826603749585, -1935.8175320407788, -15214.921857705338, -185648.2697306001, -18666.522939982766, -1263.6558727807849, 32593.15730251757, 0.008, 1.014, 0.258, 192.0, 0.0, 0.0, 0.0, 0.0, 0.0, 0.0, 0.0, 0.0, 0.0, 1.6527896592342181E9, 0.0, 2022-05-17 14:14:19.234
170.0, 49564.389832543115, 42952.31913951864, -1880.1393366026089, -15129.404083419335, -186497.8148338574, -18541.48728149978, -1418.5981653449733, 32483.320830264194, 0.008, 1.014, 0.258, 192.0, 0.0, 0.0, 0.0, 0.0, 0.0, 0.0, 0.0, 0.0, 0.0, 1.652789659234224E9, 0.0, 2022-05-17 14:14:19.234
171.0, 49606.142891185635, 42957.54944772118, -1887.13543261712, -15141.719894614209, -186367.1018322828, -18525.66224642542, -1277.6704165542624, 32600.332212487727, 0.008, 1.014, 0.258, 192.0, 0.0, 0.0, 0.0, 0.0, 0.0, 0.0, 0.0, 0.0, 0.0, 1.6527896592342315E9, 0.0, 2022-05-17 14:14:19.234
172.0, 49577.97969317195, 42890.6730283109, -1947.3957356686278, -15209.691549502797, -185242.965548392, -18591.175209423927, -1041.211311961569, 32828.20824720958, 0.008, 1.014, 0.258, 192.0, 0.0, 0.0, 0.0, 0.0, 0.0, 0.0, 0.0, 0.0, 0.0, 1.6527896592342367E9, 0.0, 2022-05-17 14:14:19.234
173.0, 49521.25096574437, 42842.281501565165, -1977.9952738279433, -15236.960677738272, -184465.57187623644, -18666.634698705042, -1019.7759890289294, 32900.78436145596, 0.008, 1.014, 0.258, 192.0, 0.0, 0.0, 0.0, 0.0, 0.0, 0.0, 0.0, 0.0, 0.0, 1.652789659234242E9, 0.0, 2022-05-17 14:14:19.234
174.0, 49546.508436978875, 42896.41742663592, -1949.9214827920775, -15179.941377632784, -184906.12475945053, -18631.095425021103, -1242.0640876369582, 32764.259906322946, 0.008, 1.014, 0.258, 192.0, 0.0, 0.0, 0.0, 0.0, 0.0, 0.0, 0.0, 0.0, 0.0, 1.6527896592342474E9, 0.0, 2022-05-17 14:14:19.234
175.0, 49604.53356558485, 42959.13642157751, -1881.0557581252765, -15085.549960798022, -185731.5299786961, -18503.489315925755, -1382.4553945607418, 32668.527384820867, 0.008, 1.014, 0.258, 192.0, 0.0, 0.0, 0.0, 0.0, 0.0, 0.0, 0.0, 0.0, 0.0, 1.652789659234253E9, 0.0, 2022-05-17 14:14:19.234
176.0, 49637.56944388979, 42941.322081246624, -1882.6203802371479, -15093.350719612923, -185615.99381160663, -18489.541827385645, -1257.4197360777541, 32768.81966219183, 0.034, 1.018, 0.262, 192.0, 1.0, 16.0, 31.0, 208.0, 8.0, 48.0, 0.0, 0.0, 0.0, 1.6527896592342584E9, 0.0, 2022-05-17 14:14:19.234
177.0, 49606.92520224157, 42863.85093496453, -1965.0312620438651, -15202.62839825492, -184476.30071357498, -18610.10713697757, -1020.4465413625886, 33005.09995282888, 0.034, 1.018, 0.262, 192.0, 0.0, 0.0, 0.0, 0.0, 0.0, 0.0, 0.0, 0.0, 0.0, 1.6527896592342646E9, 0.0, 2022-05-17 14:14:19.234
178.0, 49577.130326882645, 42834.74896368372, -1989.4393669890603, -15233.742026536707, -183675.12478531897, -18677.207073832404, -1001.9616486980497, 33087.957869524704, 0.034, 1.018, 0.262, 192.0, 0.0, 0.0, 0.0, 0.0, 0.0, 0.0, 0.0, 0.0, 0.0, 1.6527896592342703E9, 0.0, 2022-05-17 14:14:19.234
179.0, 49582.360635085184, 42868.16482164441, -1937.0915814747314, -15168.877264127406, -184108.6145172852, -18622.467651661354, -1234.9562329001706, 32949.24294343507, 0.034, 1.018, 0.262, 192.0, 0.0, 0.0, 0.0, 0.0, 0.0, 0.0, 0.0, 0.0, 0.0, 1.6527896592342758E9, 0.0, 2022-05-17 14:14:19.234
180.0, 49651.02519405189, 42939.82451436812, -1880.5416680028045, -15097.84342024844, -184963.07700432267, -18515.42514746489, -1408.2940111510768, 32824.56491286337, 0.034, 1.018, 0.262, 192.0, 0.0, 0.0, 0.0, 0.0, 0.0, 0.0, 0.0, 0.0, 0.0, 1.6527896592342813E9, 0.0, 2022-05-17 14:14:19.234
181.0, 49693.35939805024, 42945.054822570666, -1891.8292989527345, -15100.458574349712, -184838.10840107303, -18477.13660921295, -1283.168945690268, 32937.48592585158, 0.034, 1.018, 0.262, 192.0, 0.0, 0.0, 0.0, 0.0, 0.0, 0.0, 0.0, 0.0, 0.0, 1.6527896592342868E9, 0.0, 2022-05-17 14:14:19.234
182.0, 49654.71323188701, 42864.119155898, -1946.81459031279, -15174.040517096582, -183674.4989364742, -18538.33568553158, -1009.0471516903821, 33198.24137666719, 0.034, 1.018, 0.262, 192.0, 0.0, 0.0, 0.0, 0.0, 0.0, 0.0, 0.0, 0.0, 0.0, 1.6527896592342923E9, 0.0, 2022-05-17 14:14:19.234
183.0, 49614.591850589735, 42831.351498526514, -1970.7980121133344, -15205.020034911639, -182857.2074004659, -18616.07505274714, -944.9647003370167, 33291.179930112354, 0.034, 1.018, 0.262, 192.0, 0.0, 0.0, 0.0, 0.0, 0.0, 0.0, 0.0, 0.0, 0.0, 1.6527896592342978E9, 0.0, 2022-05-17 14:14:19.234
184.0, 49607.752216786415, 42870.24353387875, -1945.1829129675525, -15140.937583558272, -183265.014978053, -18601.032328728717, -1166.8504675448498, 33163.260896594635, 0.034, 1.018, 0.262, 192.0, 0.0, 0.0, 0.0, 0.0, 0.0, 0.0, 0.0, 0.0, 0.0, 1.6527896592343032E9, 0.0, 2022-05-17 14:14:19.234
185.0, 49669.73360416098, 42931.68847938639, -1876.9653888899552, -15063.578195998454, -184092.208336855, -18512.05003405214, -1321.7033531312172, 33057.87242148786, 0.034, 1.018, 0.262, 192.0, 0.0, 0.0, 0.0, 0.0, 0.0, 0.0, 0.0, 0.0, 0.0, 1.6527896592343094E9, 0.0, 2022-05-17 14:14:19.234
186.0, 49692.08534861629, 42923.64185138248, -1881.100461614187, -15073.658832747798, -183988.65270479355, -18479.282376680658, -1195.5501074254641, 33154.83428893498, 0.048, 0.984, 0.268, 192.0, 1.0, 128.0, 30.0, 192.0, 8.0, 96.0, 0.0, 0.0, 0.0, 1.652789659234315E9, 0.0, 2022-05-17 14:14:19.234
187.0, 49626.23710945095, 42819.482722220746, -1965.1430207661417, -15180.097839843971, -182831.83817050915, -18595.06441295915, -942.3718979802011, 33413.13104786051, 0.048, 0.984, 0.268, 192.0, 0.0, 0.0, 0.0, 0.0, 0.0, 0.0, 0.0, 0.0, 0.0, 1.6527896592343204E9, 0.0, 2022-05-17 14:14:19.234
188.0, 49570.71537622397, 42795.298134720106, -1991.741596667957, -15211.122061147937, -182031.8692364537, -18650.40733223049, -929.698458874042, 33481.88501380503, 0.048, 0.984, 0.268, 192.0, 0.0, 0.0, 0.0, 0.0, 0.0, 0.0, 0.0, 0.0, 0.0, 1.652789659234326E9, 0.0, 2022-05-17 14:14:19.234
189.0, 49545.167332311554, 42835.37481252847, -1961.5667416532924, -15146.056133038537, -182456.3735671489, -18602.73106130732, -1166.8504675448498, 33328.08266020807, 0.048, 0.984, 0.268, 192.0, 0.0, 0.0, 0.0, 0.0, 0.0, 0.0, 0.0, 0.0, 0.0, 1.6527896592343311E9, 0.0, 2022-05-17 14:14:19.234
190.0, 49570.11187912368, 42899.34550515956, -1903.7204270029579, -15072.764762969586, -183284.57275445136, -18527.606848193034, -1322.9550508207144, 33222.4930194012, 0.048, 0.984, 0.268, 192.0, 0.0, 0.0, 0.0, 0.0, 0.0, 0.0, 0.0, 0.0, 0.0, 1.6527896592343369E9, 0.0, 2022-05-17 14:14:19.234
191.0, 49566.87087617766, 42886.35914163103, -1905.8661944706673, -15079.514989795089, -183171.36116878525, -18494.414507676902, -1195.1254242808134, 33335.19051494486, 0.048, 0.984, 0.268, 192.0, 0.0, 0.0, 0.0, 0.0, 0.0, 0.0, 0.0, 0.0, 0.0, 1.6527896592343433E9, 0.0, 2022-05-17 14:14:19.234
192.0, 49505.02359926982, 42812.44192271733, -1969.099279534731, -15158.818979122518, -182029.969338175, -18572.86913071503, -946.0152323264161, 33583.94307898797, 0.048, 0.984, 0.268, 192.0, 0.0, 0.0, 0.0, 0.0, 0.0, 0.0, 0.0, 0.0, 0.0, 1.6527896592343552E9, 0.0, 2022-05-17 14:14:19.234
193.0, 49425.630202964574, 42781.596515369005, -2002.8727654067, -15195.475840029221, -181204.6758776517, -18631.095425021103, -919.7072291025197, 33673.81944344276, 0.048, 0.984, 0.268, 192.0, 0.0, 0.0, 0.0, 0.0, 0.0, 0.0, 0.0, 0.0, 0.0, 1.6527896592343621E9, 0.0, 2022-05-17 14:14:19.234
194.0, 49423.462083752405, 42827.730515924755, -1960.9185410640887, -15136.087255011471, -181614.115132584, -18610.4424131444, -1149.4161068697103, 33526.76731667129, 0.048, 0.984, 0.268, 192.0, 0.0, 0.0, 0.0, 0.0, 0.0, 0.0, 0.0, 0.0, 0.0, 1.6527896592343695E9, 0.0, 2022-05-17 14:14:19.234
195.0, 49473.84291575467, 42884.079263696585, -1902.9157642025668, -15055.308050549991, -182445.9129507438, -18536.167566319415, -1305.9006698013152, 33415.1874083504, 0.048, 0.984, 0.268, 192.0, 0.0, 0.0, 0.0, 0.0, 0.0, 0.0, 0.0, 0.0, 0.0, 1.6527896592343767E9, 0.0, 2022-05-17 14:14:19.234
196.0, 49465.23749413938, 42860.3640628295, -1903.5639647917708, -15078.12918163886, -182334.40009765627, -18504.361033959514, -1180.4179764292212, 33533.45048826343, 0.04, 0.982, 0.29, 192.0, 1.0, 64.0, 30.0, 176.0, 9.0, 16.0, 0.0, 0.0, 0.0, 1.6527896592343845E9, 0.0, 2022-05-17 14:14:19.234
197.0, 49440.0694298827, 42807.3010214926, -1962.1255352646751, -15152.940470330772, -181204.60882241832, -18567.683526001398, -936.5827961662766, 33774.44699698055, 0.04, 0.982, 0.29, 192.0, 0.0, 0.0, 0.0, 0.0, 0.0, 0.0, 0.0, 0.0, 0.0, 1.65278965923439E9, 0.0, 2022-05-17 14:14:19.234
198.0, 49379.65266462001, 42762.03873897061, -2003.6103729737251, -15198.225104597224, -180397.19675745926, -18670.389791773534, -918.0084965239164, 33842.709224547056, 0.04, 0.982, 0.29, 192.0, 0.0, 0.0, 0.0, 0.0, 0.0, 0.0, 0.0, 0.0, 0.0, 1.6527896592343955E9, 0.0, 2022-05-17 14:14:19.234
199.0, 49330.36706809606, 42778.288457189614, -1964.1818957545634, -15126.677170595787, -180762.17839266997, -18666.768809171776, -1124.3598013353112, 33732.38101391566, 0.04, 0.982, 0.29, 192.0, 0.0, 0.0, 0.0, 0.0, 0.0, 0.0, 0.0, 0.0, 0.0, 1.6527896592344012E9, 0.0, 2022-05-17 14:14:19.234
200.0, 49342.3476031241, 42825.8082659016, -1921.5124155893823, -15075.60343451541, -181575.02193153166, -18604.78742179721, -1298.7704633200722, 33636.670844158034, 0.04, 0.982, 0.29, 192.0, 0.0, 0.0, 0.0, 0.0, 0.0, 0.0, 0.0, 0.0, 0.0, 1.6527896592344065E9, 0.0, 2022-05-17 14:14:19.234
201.0, 49362.218303944865, 42823.394277500425, -1923.5464243348151, -15102.291417395047, -181487.80542466705, -18587.509523333254, -1207.1283110533132, 33739.48886865245, 0.04, 0.982, 0.29, 192.0, 0.0, 0.0, 0.0, 0.0, 0.0, 0.0, 0.0, 0.0, 0.0, 1.652789659234412E9, 0.0, 2022-05-17 14:14:19.234
202.0, 49319.95115517988, 42764.877410516434, -1953.743631093935, -15149.721819129209, -180378.91303049482, -18595.399689125978, -952.7207556630083, 33969.48831909756, 0.04, 0.982, 0.29, 192.0, 0.0, 0.0, 0.0, 0.0, 0.0, 0.0, 0.0, 0.0, 0.0, 1.6527896592344193E9, 0.0, 2022-05-17 14:14:19.234
203.0, 49247.33033744459, 42720.88917742839, -1969.7251283794797, -15158.48370295569, -179549.8197734141, -18642.18189027094, -899.9035835151177, 34056.25779107306, 0.04, 0.982, 0.29, 192.0, 0.0, 0.0, 0.0, 0.0, 0.0, 0.0, 0.0, 0.0, 0.0, 1.6527896592344248E9, 0.0, 2022-05-17 14:14:19.234
204.0, 49257.72389861631, 42779.16017522338, -1936.197511696519, -15102.425527861778, -179942.80814442734, -18587.6883372889, -1124.940946691149, 33912.02198410297, 0.04, 0.982, 0.29, 192.0, 0.0, 0.0, 0.0, 0.0, 0.0, 0.0, 0.0, 0.0, 0.0, 1.65278965923443E9, 0.0, 2022-05-17 14:14:19.234
205.0, 49317.2912975897, 42837.40882127391, -1885.749624460891, -15035.504404962589, -180803.64087863456, -18496.60497863352, -1318.2164809961894, 33775.519880714404, 0.036000000000000004, 0.984, 0.296, 192.0, 1.0, 32.0, 30.0, 192.0, 9.0, 64.0, 0.0, 0.0, 0.0, 1.6527896592344356E9, 0.0, 2022-05-17 14:14:19.234
206.0, 49329.98708844031, 42793.554698652595, -1896.4561100549831, -15079.716155495187, -180719.88889216052, -18507.95966481682, -1222.9533461276706, 33889.55848092538, 0.036000000000000004, 0.984, 0.296, 192.0, 0.0, 0.0, 0.0, 0.0, 0.0, 0.0, 0.0, 0.0, 0.0, 1.652789659234441E9, 0.0, 2022-05-17 14:14:19.234
207.0, 49329.24948087329, 42717.31289831554, -1935.8622355296893, -15165.815075137029, -179609.47657936532, -18614.957465524374, -930.9725083079944, 34136.16527750078, 0.036000000000000004, 0.984, 0.296, 192.0, 0.0, 0.0, 0.0, 0.0, 0.0, 0.0, 0.0, 0.0, 0.0, 1.6527896592344463E9, 0.0, 2022-05-17 14:14:19.234
208.0, 49371.96366452738, 42704.17007257582, -1951.3296426927618, -15188.323281803523, -178792.3415055682, -18651.010829330782, -874.1990773915145, 34218.21853139622, 0.036000000000000004, 0.984, 0.296, 192.0, 0.0, 0.0, 0.0, 0.0, 0.0, 0.0, 0.0, 0.0, 0.0, 1.652789659234452E9, 0.0, 2022-05-17 14:14:19.234
209.0, 49490.04793048477, 42752.76276502166, -1913.6669532855694, -15114.406062889822, -179184.32404808095, -18598.752450794276, -1106.1654813486912, 34077.044913416496, 0.036000000000000004, 0.984, 0.296, 192.0, 0.0, 0.0, 0.0, 0.0, 0.0, 0.0, 0.0, 0.0, 0.0, 1.6527896592344587E9, 0.0, 2022-05-17 14:14:19.234
210.0, 49608.646286564624, 42817.76163789769, -1840.6438041500812, -15032.129291549838, -180043.3462909873, -18487.57487387358, -1259.9678349456592, 33943.91792344069, 0.036000000000000004, 0.984, 0.296, 192.0, 0.0, 0.0, 0.0, 0.0, 0.0, 0.0, 0.0, 0.0, 0.0, 1.6527896592344644E9, 0.0, 2022-05-17 14:14:19.234
211.0, 49666.49260121496, 42819.57212919857, -1842.946033828978, -15065.54514951052, -179978.16860415562, -18462.183292172347, -1124.203339124124, 34049.10523284736, 0.036000000000000004, 0.984, 0.296, 192.0, 0.0, 0.0, 0.0, 0.0, 0.0, 0.0, 0.0, 0.0, 0.0, 1.6527896592344697E9, 0.0, 2022-05-17 14:14:19.234
212.0, 49647.024231794385, 42804.887033091436, -1905.3521043481953, -15152.404028463845, -178878.95451533253, -18567.080028901106, -880.926952472562, 34284.670267661844, 0.036000000000000004, 0.984, 0.296, 192.0, 0.0, 0.0, 0.0, 0.0, 0.0, 0.0, 0.0, 0.0, 0.0, 1.6527896592344754E9, 0.0, 2022-05-17 14:14:19.234
213.0, 49583.94760894151, 42809.04445756012, -1940.5784536097592, -15183.42824976781, -178044.6756535382, -18639.20910825838, -849.0980683682047, 34371.81971929309, 0.036000000000000004, 0.984, 0.296, 192.0, 0.0, 0.0, 0.0, 0.0, 0.0, 0.0, 0.0, 0.0, 0.0, 1.6527896592344809E9, 0.0, 2022-05-17 14:14:19.234
214.0, 49604.06417895129, 42877.932533971376, -1894.846784454201, -15110.248638421135, -178444.74952754372, -18629.64256163151, -1090.5416119744316, 34208.65198476934, 0.036000000000000004, 0.984, 0.296, 192.0, 0.0, 0.0, 0.0, 0.0, 0.0, 0.0, 0.0, 0.0, 0.0, 1.6527896592344973E9, 0.0, 2022-05-17 14:14:19.234
215.0, 49686.92209564711, 42944.138401047996, -1857.5193712138382, -15043.394570755312, -179298.96614539222, -18554.473645028313, -1266.8074687489832, 34083.03518093052, 0.042, 0.9580000000000001, 0.318, 192.0, 1.0, 80.0, 29.0, 240.0, 9.0, 240.0, 0.0, 0.0, 0.0, 1.6527896592345026E9, 0.0, 2022-05-17 14:14:19.234
216.0, 49745.99775624249, 42949.860447628555, -1867.4658974964498, -15052.4023237708, -179250.97695004666, -18525.19285979186, -1155.8981127617494, 34182.120464100895, 0.042, 0.9580000000000001, 0.318, 192.0, 0.0, 0.0, 0.0, 0.0, 0.0, 0.0, 0.0, 0.0, 0.0, 1.6527896592345088E9, 0.0, 2022-05-17 14:14:19.234
217.0, 49672.57227570681, 42852.272731336685, -1933.6941163175245, -15150.392371462867, -178163.0057886846, -18590.884636746006, -915.6615633561091, 34416.590263437065, 0.042, 0.9580000000000001, 0.318, 192.0, 0.0, 0.0, 0.0, 0.0, 0.0, 0.0, 0.0, 0.0, 0.0, 1.6527896592345145E9, 0.0, 2022-05-17 14:14:19.234
218.0, 49622.839644293745, 42821.85200713301, -1955.5764741392702, -15170.844217639473, -177356.19722082582, -18649.98264908584, -891.8569555112072, 34481.34326712409, 0.042, 0.9580000000000001, 0.318, 192.0, 0.0, 0.0, 0.0, 0.0, 0.0, 0.0, 0.0, 0.0, 0.0, 1.6527896592345195E9, 0.0, 2022-05-17 14:14:19.234
219.0, 49638.03883052336, 42866.26492336571, -1923.0323342123431, -15104.504240096121, -177744.22350456996, -18618.31022719267, -1112.1557488627136, 34329.619625761465, 0.042, 0.9580000000000001, 0.318, 192.0, 0.0, 0.0, 0.0, 0.0, 0.0, 0.0, 0.0, 0.0, 0.0, 1.6527896592345252E9, 0.0, 2022-05-17 14:14:19.234
220.0, 49715.621735527726, 42932.09081078658, -1861.4085747490615, -15039.415960242268, -178637.42156474848, -18531.116072072517, -1297.6975795862174, 34172.41980700729, 0.042, 0.9580000000000001, 0.318, 192.0, 0.0, 0.0, 0.0, 0.0, 0.0, 0.0, 0.0, 0.0, 0.0, 1.6527896592345307E9, 0.0, 2022-05-17 14:14:19.234
221.0, 49767.41072743067, 42922.6807263709, -1850.8809031106118, -15034.699742162198, -178625.93276809846, -18497.342586200546, -1184.0613107754364, 34257.199973726274, 0.042, 0.9580000000000001, 0.318, 192.0, 0.0, 0.0, 0.0, 0.0, 0.0, 0.0, 0.0, 0.0, 0.0, 1.652789659234536E9, 0.0, 2022-05-17 14:14:19.234
222.0, 49747.137695209705, 42854.73142322677, -1914.8068922527902, -15115.903629768329, -177578.4629676894, -18561.24622359827, -943.4000782251452, 34476.24706938828, 0.042, 0.9580000000000001, 0.318, 192.0, 0.0, 0.0, 0.0, 0.0, 0.0, 0.0, 0.0, 0.0, 0.0, 1.6527896592345417E9, 0.0, 2022-05-17 14:14:19.234
223.0, 49730.79857001288, 42798.24856498821, -1940.2878809318402, -15146.056133038537, -176799.66113563313, -18635.744587867808, -913.761665077408, 34523.58806414462, 0.042, 0.9580000000000001, 0.318, 192.0, 0.0, 0.0, 0.0, 0.0, 0.0, 0.0, 0.0, 0.0, 0.0, 1.6527896592345498E9, 0.0, 2022-05-17 14:14:19.234
224.0, 49765.91316055217, 42808.46331220428, -1889.683531485025, -15070.239015846137, -177175.21514597122, -18597.031366471216, -1114.5026820305206, 34386.951850289326, 0.042, 0.9580000000000001, 0.318, 192.0, 0.0, 0.0, 0.0, 0.0, 0.0, 0.0, 0.0, 0.0, 0.0, 1.6527896592345555E9, 0.0, 2022-05-17 14:14:19.234
225.0, 49841.23853936655, 42860.09584189604, -1827.7468475993692, -15000.948608034685, -178060.72420605712, -18492.246388464737, -1288.8462887819157, 34244.43712764229, 0.022, 0.976, 0.324, 192.0, 0.0, 176.0, 30.0, 128.0, 10.0, 32.0, 0.0, 0.0, 0.0, 1.6527896592345617E9, 0.0, 2022-05-17 14:14:19.234
226.0, 49874.43087988268, 42852.22802784777, -1826.6963156099696, -15025.334361235424, -178064.2781334255, -18454.427236846357, -1173.6006943703526, 34328.12205888296, 0.022, 0.976, 0.324, 192.0, 0.0, 0.0, 0.0, 0.0, 0.0, 0.0, 0.0, 0.0, 0.0, 1.6527896592345676E9, 0.0, 2022-05-17 14:14:19.234
227.0, 49861.53392333197, 42787.72089334976, -1877.2559615678742, -15105.331254640969, -177044.39038567428, -18530.803147650142, -930.4137146966118, 34533.08755553813, 0.022, 0.976, 0.324, 192.0, 0.0, 0.0, 0.0, 0.0, 0.0, 0.0, 0.0, 0.0, 0.0, 1.6527896592345736E9, 0.0, 2022-05-17 14:14:19.234
228.0, 49844.30072835693, 42762.575180837535, -1898.6912845005138, -15150.95116507425, -176247.52834409816, -18621.84180281661, -880.0328826943497, 34599.36047784811, 0.022, 0.976, 0.324, 192.0, 0.0, 0.0, 0.0, 0.0, 0.0, 0.0, 0.0, 0.0, 0.0, 1.652789659234579E9, 0.0, 2022-05-17 14:14:19.234
229.0, 49867.09950770134, 42805.915213336375, -1863.9566736169666, -15093.954216713217, -176646.41757564756, -18611.202372455882, -1108.9594494056046, 34434.96339737933, 0.022, 0.976, 0.324, 192.0, 0.0, 0.0, 0.0, 0.0, 0.0, 0.0, 0.0, 0.0, 0.0, 1.6527896592345848E9, 0.0, 2022-05-17 14:14:19.234
230.0, 49919.3802379823, 42859.98408317377, -1809.2172514459196, -15001.797974323987, -177540.5991125821, -18531.205479050335, -1300.2456784541225, 34289.52059620865, 0.022, 0.976, 0.324, 192.0, 0.0, 0.0, 0.0, 0.0, 0.0, 0.0, 0.0, 0.0, 0.0, 1.65278965923459E9, 0.0, 2022-05-17 14:14:19.234
231.0, 49966.18479087172, 42858.17359187289, -1808.0996642231542, -14999.898076045285, -177580.9663630684, -18496.873199566984, -1215.3090495239555, 34351.993721961226, 0.022, 0.976, 0.324, 192.0, 0.0, 0.0, 0.0, 0.0, 0.0, 0.0, 0.0, 0.0, 0.0, 1.6527896592345953E9, 0.0, 2022-05-17 14:14:19.234
232.0, 49948.86218891886, 42802.96478306827, -1847.2822722533076, -15071.356603068902, -176545.49944943184, -18533.261839540224, -884.6820455410535, 34589.77157947679, 0.022, 0.976, 0.324, 192.0, 0.0, 0.0, 0.0, 0.0, 0.0, 0.0, 0.0, 0.0, 0.0, 1.6527896592346008E9, 0.0, 2022-05-17 14:14:19.234
233.0, 49962.20618035868, 42768.40898614037, -1890.555249518782, -15128.46531015221, -175751.29726544587, -18641.421930959455, -834.636489705621, 34663.10765303465, 0.022, 0.976, 0.324, 192.0, 0.0, 0.0, 0.0, 0.0, 0.0, 0.0, 0.0, 0.0, 0.0, 1.6527896592346065E9, 0.0, 2022-05-17 14:14:19.234
234.0, 50137.60031909947, 42819.77329489867, -1858.7934206477905, -15075.268158348581, -176181.56834621052, -18616.097404491593, -1088.3511410178114, 34476.984676955304, 0.022, 0.976, 0.324, 192.0, 0.0, 0.0, 0.0, 0.0, 0.0, 0.0, 0.0, 0.0, 0.0, 1.6527896592346117E9, 0.0, 2022-05-17 14:14:19.234
235.0, 50364.04584217619, 42887.14145268696, -1800.7682920418135, -14985.078869471416, -177110.28332832854, -18519.783737633676, -1274.9435037307148, 34315.69448896581, 0.014, 0.968, 0.338, 192.0, 0.0, 112.0, 30.0, 64.0, 10.0, 144.0, 0.0, 0.0, 0.0, 1.6527896592346191E9, 0.0, 2022-05-17 14:14:19.234
236.0, 50429.02236330776, 42881.1735369174, -1806.4456351334616, -15013.510288418567, -177207.2228440312, -18513.65935965292, -1190.7891858564838, 34355.145317929426, 0.014, 0.968, 0.338, 192.0, 0.0, 0.0, 0.0, 0.0, 0.0, 0.0, 0.0, 0.0, 0.0, 1.6527896592346249E9, 0.0, 2022-05-17 14:14:19.234
237.0, 50426.74248537332, 42816.30877450809, -1865.3871852621062, -15099.430394104767, -176251.7081203113, -18564.464874799833, -955.112392319726, 34548.376148745556, 0.014, 0.968, 0.338, 192.0, 0.0, 0.0, 0.0, 0.0, 0.0, 0.0, 0.0, 0.0, 0.0, 1.65278965923463E9, 0.0, 2022-05-17 14:14:19.234
238.0, 50411.18567123243, 42770.28653267462, -1897.3054763442847, -15117.870583280395, -175502.7235153584, -18607.760203809765, -907.9055080301176, 34604.68019302848, 0.014, 0.968, 0.338, 192.0, 0.0, 0.0, 0.0, 0.0, 0.0, 0.0, 0.0, 0.0, 0.0, 1.6527896592346354E9, 0.0, 2022-05-17 14:14:19.234
239.0, 50438.49950295681, 42820.08621932104, -1866.1694963180419, -15058.236129073637, -175942.69525321666, -18574.567863293632, -1118.5483477769315, 34431.16360082193, 0.014, 0.968, 0.338, 192.0, 0.0, 0.0, 0.0, 0.0, 0.0, 0.0, 0.0, 0.0, 0.0, 1.6527896592346408E9, 0.0, 2022-05-17 14:14:19.234
240.0, 50517.31175390622, 42896.238612680274, -1810.848928791157, -14975.579378077911, -176903.68615432814, -18471.74983879922, -1289.5391928600304, 34264.30782846306, 0.014, 0.968, 0.338, 192.0, 0.0, 0.0, 0.0, 0.0, 0.0, 0.0, 0.0, 0.0, 0.0, 1.652789659234646E9, 0.0, 2022-05-17 14:14:19.234
241.0, 50579.7401761699, 42895.277487668696, -1807.272649678308, -14984.341261904392, -177031.67224307923, -18443.452530318802, -1191.9961800570704, 34304.116285337965, 0.014, 0.968, 0.338, 192.0, 0.0, 0.0, 0.0, 0.0, 0.0, 0.0, 0.0, 0.0, 0.0, 1.6527896597136486E9, 0.0, 2022-05-17 14:14:19.713
242.0, 50577.169725557535, 42838.03467011865, -1876.2277813229302, -15059.711344207686, -176111.00388896512, -18507.266760738705, -949.4797527169887, 34489.389895128, 0.014, 0.968, 0.338, 192.0, 0.0, 0.0, 0.0, 0.0, 0.0, 0.0, 0.0, 0.0, 0.0, 1.652789659713941E9, 0.0, 2022-05-17 14:14:19.713
243.0, 50558.21544625943, 42818.72276290927, -1904.0780549142428, -15087.31574860999, -175389.51192969226, -18565.71657248933, -898.6295340811652, 34534.49571543881, 0.014, 0.968, 0.338, 192.0, 0.0, 0.0, 0.0, 0.0, 0.0, 0.0, 0.0, 0.0, 0.0, 1.652789659713948E9, 0.0, 2022-05-17 14:14:19.713
244.0, 50601.846051436194, 42868.09776641104, -1867.7564701743688, -15038.968925353161, -175862.43013887765, -18551.970249649316, -1117.3413535763448, 34338.04623342112, 0.014, 0.968, 0.338, 192.0, 0.0, 0.0, 0.0, 0.0, 0.0, 0.0, 0.0, 0.0, 0.0, 1.6527896597139547E9, 0.0, 2022-05-17 14:14:19.713
245.0, 50682.245276241934, 42934.66126139895, -1818.6273358616038, -14979.557988590956, -176836.40740351766, -18457.489425836735, -1292.6237335948626, 34172.30804828501, 0.028, 0.986, 0.324, 192.0, 0.0, 224.0, 30.0, 208.0, 10.0, 32.0, 0.0, 0.0, 0.0, 1.6527896597139611E9, 0.0, 2022-05-17 14:14:19.713
246.0, 50729.22864308699, 42946.4853342158, -1806.4456351334616, -14974.886473999797, -176989.15922512524, -18406.035710100616, -1201.3168574949334, 34209.23313012518, 0.028, 0.986, 0.324, 192.0, 0.0, 0.0, 0.0, 0.0, 0.0, 0.0, 0.0, 0.0, 0.0, 1.652789659713968E9, 0.0, 2022-05-17 14:14:19.713
247.0, 50742.99731767146, 42902.40769414994, -1849.293929254285, -15032.241050272114, -176090.57439453297, -18461.736257283243, -954.2853777748797, 34391.19868173584, 0.028, 0.986, 0.324, 192.0, 0.0, 0.0, 0.0, 0.0, 0.0, 0.0, 0.0, 0.0, 0.0, 1.6527896597139745E9, 0.0, 2022-05-17 14:14:19.713
248.0, 50745.50071305045, 42897.982048747785, -1848.8021908762685, -15043.97571611115, -175376.21264174135, -18520.67780741189, -894.472109612478, 34434.96339737933, 0.028, 0.986, 0.324, 192.0, 0.0, 0.0, 0.0, 0.0, 0.0, 0.0, 0.0, 0.0, 0.0, 1.652789659713981E9, 0.0, 2022-05-17 14:14:19.713
249.0, 50793.400501418175, 42925.58645315009, -1827.523330154816, -15003.764927836053, -175814.44094353213, -18508.674920639387, -1106.5678127488868, 34267.25825873116, 0.028, 0.986, 0.324, 192.0, 0.0, 0.0, 0.0, 0.0, 0.0, 0.0, 0.0, 0.0, 0.0, 1.652789659713987E9, 0.0, 2022-05-17 14:14:19.713
250.0, 50902.58877308235, 42995.726227250845, -1779.4447278314506, -14936.687342725676, -176803.61739440172, -18448.861652476986, -1314.1931669942342, 34084.68921002021, 0.028, 0.986, 0.324, 192.0, 0.0, 0.0, 0.0, 0.0, 0.0, 0.0, 0.0, 0.0, 0.0, 1.6527896597139933E9, 0.0, 2022-05-17 14:14:19.713
251.0, 50975.27664605101, 43020.38020138505, -1742.0726111021772, -14917.24132504956, -176968.19328882615, -18366.696639859278, -1213.7444274120842, 34118.216826703174, 0.028, 0.986, 0.324, 192.0, 0.0, 0.0, 0.0, 0.0, 0.0, 0.0, 0.0, 0.0, 0.0, 1.6527896597139995E9, 0.0, 2022-05-17 14:14:19.713
252.0, 50988.97826540211, 42982.717511977855, -1772.5156870503054, -14981.30142465847, -176061.45007150772, -18425.92876266584, -956.2970347758574, 34310.17360808535, 0.028, 0.986, 0.324, 192.0, 0.0, 0.0, 0.0, 0.0, 0.0, 0.0, 0.0, 0.0, 0.0, 1.6527896597140057E9, 0.0, 2022-05-17 14:14:19.714
253.0, 50988.57593400192, 42960.768098922745, -1806.9150217670228, -15020.68519838872, -175328.60342605156, -18535.273496541202, -907.860804541207, 34360.75560578771, 0.028, 0.986, 0.324, 192.0, 0.0, 0.0, 0.0, 0.0, 0.0, 0.0, 0.0, 0.0, 0.0, 1.652789659714012E9, 0.0, 2022-05-17 14:14:19.714
254.0, 51013.408722091765, 42983.83509920062, -1776.8295737301796, -14982.284901414503, -175777.91819309213, -18524.81288013612, -1134.2616241290123, 34171.413978506804, 0.028, 0.986, 0.324, 192.0, 0.0, 0.0, 0.0, 0.0, 0.0, 0.0, 0.0, 0.0, 0.0, 1.6527896597140193E9, 0.0, 2022-05-17 14:14:19.714
255.0, 51100.46876674519, 43057.41704194749, -1704.7004943729037, -14896.230685261571, -176797.6718303766, -18415.423442771847, -1327.648917156329, 33963.945086472646, 0.03, 0.994, 0.318, 192.0, 0.0, 240.0, 31.0, 16.0, 9.0, 240.0, 0.0, 0.0, 0.0, 1.6527896597140255E9, 0.0, 2022-05-17 14:14:19.714
0.0, 51133.728162494685, 43051.87380932258, -1712.1659770209762, -14904.23260977657, -176966.6733702032, -18396.6926809183, -1245.0592213939692, 34003.35121194735, 0.03, 0.994, 0.318, 192.0, 0.0, 0.0, 0.0, 0.0, 0.0, 0.0, 0.0, 0.0, 0.0, 1.6527896597140477E9, 0.0, 2022-05-17 14:14:19.714
1.0, 51124.273374590084, 42999.078988919144, -1762.2562363453194, -14983.178971192716, -176070.03314137855, -18455.187196157836, -1007.080198178315, 34193.11752237291, 0.03, 0.994, 0.318, 192.0, 0.0, 0.0, 0.0, 0.0, 0.0, 0.0, 0.0, 0.0, 0.0, 1.6527896597140539E9, 0.0, 2022-05-17 14:14:19.714
2.0, 51096.49015623214, 42983.23160210033, -1782.4175098440064, -15022.294523989502, -175345.56840009315, -18513.03351080817, -922.4341419260671, 34238.1339357059, 0.03, 0.994, 0.318, 192.0, 0.0, 0.0, 0.0, 0.0, 0.0, 0.0, 0.0, 0.0, 0.0, 1.65278965971406E9, 0.0, 2022-05-17 14:14:19.714
3.0, 51122.8652146894, 43068.88348685306, -1733.53424472025, -14963.889415727785, -175793.65382118867, -18475.147303956426, -1104.913783659194, 34049.775785181024, 0.03, 0.994, 0.318, 192.0, 0.0, 0.0, 0.0, 0.0, 0.0, 0.0, 0.0, 0.0, 0.0, 1.652789659714066E9, 0.0, 2022-05-17 14:14:19.714
4.0, 51177.358767671445, 43139.246778398374, -1683.9580755183788, -14860.177321455161, -176798.476493177, -18367.613061381944, -1289.7403585601282, 33855.87440203124, 0.03, 0.994, 0.318, 192.0, 0.0, 0.0, 0.0, 0.0, 0.0, 0.0, 0.0, 0.0, 0.0, 1.652789659714072E9, 0.0, 2022-05-17 14:14:19.714
5.0, 51213.41213147785, 43140.47612434341, -1671.374043390041, -14872.269615205481, -176972.41776852822, -18336.365322633425, -1194.0748922914138, 33895.72756239505, 0.03, 0.994, 0.318, 192.0, 0.0, 0.0, 0.0, 0.0, 0.0, 0.0, 0.0, 0.0, 0.0, 1.652789659714078E9, 0.0, 2022-05-17 14:14:19.714
6.0, 51216.85430012397, 43101.785254691276, -1712.0542182986999, -14958.927328458707, -176066.43451052124, -18381.96288132225, -927.5079879174219, 34100.111913694374, 0.03, 0.994, 0.318, 192.0, 0.0, 0.0, 0.0, 0.0, 0.0, 0.0, 0.0, 0.0, 0.0, 1.6527896597140841E9, 0.0, 2022-05-17 14:14:19.714
7.0, 51195.62014289143, 43086.42960625048, -1755.1483816085317, -15019.567611165956, -175304.8882251845, -18475.28141442316, -848.8521991791963, 34173.11271108541, 0.03, 0.994, 0.318, 192.0, 0.0, 0.0, 0.0, 0.0, 0.0, 0.0, 0.0, 0.0, 0.0, 1.65278965971409E9, 0.0, 2022-05-17 14:14:19.714
8.0, 51228.07487584053, 43139.71616503193, -1725.4205614829734, -14948.62317426481, -175728.94552099056, -18449.465149577278, -1057.1034022692922, 33992.98000252009, 0.03, 0.994, 0.318, 192.0, 0.0, 0.0, 0.0, 0.0, 0.0, 0.0, 0.0, 0.0, 0.0, 1.6527896597140963E9, 0.0, 2022-05-17 14:14:19.714
9.0, 51325.8637578325, 43251.18431463055, -1633.4878365382954, -14832.394103097215, -176724.3581085632, -18322.306075371038, -1237.4819800236203, 33802.05140138285, 0.038, 0.988, 0.312, 192.0, 1.0, 48.0, 30.0, 224.0, 9.0, 192.0, 0.0, 0.0, 0.0, 1.6527896597141025E9, 0.0, 2022-05-17 14:14:19.714
10.0, 51399.02101743472, 43267.56814331629, -1625.955298656857, -14848.621469571766, -176896.82416878035, -18278.563711472, -1137.010888697015, 33841.01049196845, 0.038, 0.988, 0.312, 192.0, 0.0, 0.0, 0.0, 0.0, 0.0, 0.0, 0.0, 0.0, 0.0, 1.6527896597141087E9, 0.0, 2022-05-17 14:14:19.714
11.0, 51418.75760778876, 43212.225224044945, -1683.108709229077, -14939.95069741615, -175986.7505415381, -18354.760808320145, -890.9405339885395, 34041.326825776916, 0.038, 0.988, 0.312, 192.0, 0.0, 0.0, 0.0, 0.0, 0.0, 0.0, 0.0, 0.0, 0.0, 1.652789659714115E9, 0.0, 2022-05-17 14:14:19.714
12.0, 51401.25619188025, 43205.83262513073, -1706.9356688184344, -14972.472485598622, -175222.14206721092, -18428.320399322558, -832.1107425821714, 34100.58130032793, 0.038, 0.988, 0.312, 192.0, 0.0, 0.0, 0.0, 0.0, 0.0, 0.0, 0.0, 0.0, 0.0, 1.6527896597141209E9, 0.0, 2022-05-17 14:14:19.714
13.0, 51414.756645531255, 43254.537076298846, -1681.0747004836442, -14927.94781064365, -175604.55806309677, -18413.3447305375, -1041.6359951062198, 33940.27458909447, 0.038, 0.988, 0.312, 192.0, 0.0, 0.0, 0.0, 0.0, 0.0, 0.0, 0.0, 0.0, 0.0, 1.6527896597141268E9, 0.0, 2022-05-17 14:14:19.714
14.0, 51484.0023498538, 43328.0296120679, -1621.5520049991615, -14856.13165570875, -176560.81039438373, -18334.01838946562, -1237.392573045799, 33773.01648533541, 0.038, 0.988, 0.312, 192.0, 0.0, 0.0, 0.0, 0.0, 0.0, 0.0, 0.0, 0.0, 0.0, 1.6527896597141328E9, 0.0, 2022-05-17 14:14:19.714
15.0, 51529.33168760916, 43343.184094808596, -1600.69782742236, -14850.856644017298, -176721.206512595, -18268.013688089097, -1157.5744935958974, 33819.709279502546, 0.038, 0.988, 0.312, 192.0, 0.0, 0.0, 0.0, 0.0, 0.0, 0.0, 0.0, 0.0, 0.0, 1.6527896597141385E9, 0.0, 2022-05-17 14:14:19.714
16.0, 51490.57376272366, 43270.58562881775, -1671.821078279147, -14944.845729451863, -175802.1474840817, -18352.05624724105, -929.7655141074079, 34022.84193311238, 0.038, 0.988, 0.312, 192.0, 0.0, 0.0, 0.0, 0.0, 0.0, 0.0, 0.0, 0.0, 0.0, 1.6527896597141447E9, 0.0, 2022-05-17 14:14:19.714
17.0, 51454.02866053923, 43238.309709824294, -1715.0046485668004, -14989.191590451193, -174981.90551780528, -18430.22029760126, -876.7248245149642, 34122.08367849394, 0.038, 0.988, 0.312, 192.0, 0.0, 0.0, 0.0, 0.0, 0.0, 0.0, 0.0, 0.0, 0.0, 1.6527896597141507E9, 0.0, 2022-05-17 14:14:19.714
18.0, 51449.26773897025, 43295.44076865206, -1670.6140840785604, -14928.774825188499, -175353.57032460812, -18412.942399137308, -1089.625190451764, 33952.85862122281, 0.038, 0.988, 0.312, 192.0, 0.0, 0.0, 0.0, 0.0, 0.0, 0.0, 0.0, 0.0, 0.0, 1.6527896597141564E9, 0.0, 2022-05-17 14:14:19.714
19.0, 51481.96834110837, 43350.023728611915, -1611.3596095275414, -14844.776969525454, -176312.12488557398, -18338.421683123313, -1310.5721843924744, 33768.52378469989, 0.046, 0.998, 0.31, 192.0, 1.0, 112.0, 31.0, 48.0, 9.0, 176.0, 0.0, 0.0, 0.0, 1.6527896597141626E9, 0.0, 2022-05-17 14:14:19.714
20.0, 51523.408475328506, 43372.6883974896, -1585.7892138706702, -14843.659382302689, -176461.4568902799, -18268.930109611763, -1220.360543770855, 33820.67040451412, 0.046, 0.998, 0.31, 192.0, 0.0, 0.0, 0.0, 0.0, 0.0, 0.0, 0.0, 0.0, 0.0, 1.6527896597141685E9, 0.0, 2022-05-17 14:14:19.714
21.0, 51504.029512885754, 43320.161798019624, -1626.3799818015077, -14935.614458991822, -175535.26765528534, -18344.09902621496, -935.018174054405, 34025.814715124936, 0.046, 0.998, 0.31, 192.0, 0.0, 0.0, 0.0, 0.0, 0.0, 0.0, 0.0, 0.0, 0.0, 1.6527896597141745E9, 0.0, 2022-05-17 14:14:19.714
22.0, 51448.75364884778, 43319.80417010834, -1642.3838308315076, -14978.239235668092, -174716.41149716516, -18423.045387631108, -834.6811931945316, 34109.633756832336, 0.046, 0.998, 0.31, 192.0, 0.0, 0.0, 0.0, 0.0, 0.0, 0.0, 0.0, 0.0, 0.0, 1.652789659714183E9, 0.0, 2022-05-17 14:14:19.714
23.0, 51393.41072957644, 43372.73310097851, -1630.9397376703905, -14918.023636105496, -175029.6711957063, -18405.16399206686, -1037.791495059907, 33979.188976191166, 0.046, 0.998, 0.31, 192.0, 0.0, 0.0, 0.0, 0.0, 0.0, 0.0, 0.0, 0.0, 0.0, 1.6527896597141888E9, 0.0, 2022-05-17 14:14:19.714
24.0, 51411.537994329694, 43449.26547399348, -1582.8611353470249, -14866.234644202548, -175942.22586658312, -18336.991171478174, -1244.4780760381313, 33828.31470111784, 0.046, 0.998, 0.31, 192.0, 0.0, 0.0, 0.0, 0.0, 0.0, 0.0, 0.0, 0.0, 0.0, 1.6527896597141948E9, 0.0, 2022-05-17 14:14:19.714
25.0, 51446.0937912576, 43485.76587268899, -1554.921454777891, -14838.362018866781, -176084.49472004114, -18276.373240515382, -1160.5472756084532, 33883.32234422235, 0.046, 0.998, 0.31, 192.0, 0.0, 0.0, 0.0, 0.0, 0.0, 0.0, 0.0, 0.0, 0.0, 1.6527896597142007E9, 0.0, 2022-05-17 14:14:19.714
26.0, 51408.58756406159, 43445.21980824707, -1603.7823681571924, -14904.456127221123, -175126.40954570886, -18352.10095072996, -900.8870602711512, 34107.77856204254, 0.046, 0.998, 0.31, 192.0, 0.0, 0.0, 0.0, 0.0, 0.0, 0.0, 0.0, 0.0, 0.0, 1.6527896597142067E9, 0.0, 2022-05-17 14:14:19.714
27.0, 51327.27191773319, 43422.868063791764, -1637.0864673955998, -14954.6804970122, -174244.94615136937, -18413.747061937698, -817.2244807749369, 34223.06885994302, 0.046, 0.998, 0.31, 192.0, 0.0, 0.0, 0.0, 0.0, 0.0, 0.0, 0.0, 0.0, 0.0, 1.6527896597142131E9, 0.0, 2022-05-17 14:14:19.714
28.0, 51295.3089231621, 43478.859183652305, -1608.051551348156, -14902.6679876647, -174541.442041569, -18412.56241948157, -1022.949936741583, 34068.41714005675, 0.008, 0.972, 0.316, 192.0, 0.0, 64.0, 30.0, 96.0, 9.0, 224.0, 0.0, 0.0, 0.0, 1.652789659714219E9, 0.0, 2022-05-17 14:14:19.714
29.0, 51307.937658779345, 43542.986338494586, -1571.4170421859078, -14824.83921347132, -175443.29022685174, -18328.072825440508, -1209.7881686434948, 33889.35731522529, 0.008, 0.972, 0.316, 192.0, 0.0, 0.0, 0.0, 0.0, 0.0, 0.0, 0.0, 0.0, 0.0, 1.6527896597142253E9, 0.0, 2022-05-17 14:14:19.714
30.0, 51285.87648700196, 43534.89500700176, -1600.2060890443433, -14847.772103282465, -175535.9829111079, -18309.56558103151, -1113.139225618747, 33956.6137142913, 0.008, 0.972, 0.316, 192.0, 0.0, 0.0, 0.0, 0.0, 0.0, 0.0, 0.0, 0.0, 0.0, 1.6527896597142313E9, 0.0, 2022-05-17 14:14:19.714
31.0, 51167.345186155464, 43446.4044507032, -1696.9891425358228, -14958.4802935696, -174542.13494564712, -18381.582901666512, -882.7597955178971, 34181.80753967852, 0.008, 0.972, 0.316, 192.0, 0.0, 0.0, 0.0, 0.0, 0.0, 0.0, 0.0, 0.0, 0.0, 1.6527896597142375E9, 0.0, 2022-05-17 14:14:19.714
32.0, 51064.48245817214, 43380.10917664876, -1759.9540066664229, -15001.39564292379, -173624.9311119236, -18469.64877482042, -835.7764286728417, 34291.12992180943, 0.008, 0.972, 0.316, 192.0, 0.0, 0.0, 0.0, 0.0, 0.0, 0.0, 0.0, 0.0, 0.0, 1.6527896597142432E9, 0.0, 2022-05-17 14:14:19.714
33.0, 51039.67202182675, 43410.17227294115, -1744.307785547708, -14936.597935747855, -173856.6963501807, -18465.93838524084, -1058.2209894920575, 34153.309065498004, 0.008, 0.972, 0.316, 192.0, 0.0, 0.0, 0.0, 0.0, 0.0, 0.0, 0.0, 0.0, 0.0, 1.6527896597142491E9, 0.0, 2022-05-17 14:14:19.714
34.0, 51071.81383035348, 43480.55791623091, -1683.3322266736302, -14860.579652855356, -174686.99660146196, -18378.811285354055, -1249.3731080738435, 34004.558206147936, 0.008, 0.972, 0.316, 192.0, 0.0, 0.0, 0.0, 0.0, 0.0, 0.0, 0.0, 0.0, 0.0, 1.652789659714255E9, 0.0, 2022-05-17 14:14:19.714
35.0, 51060.77206859256, 43486.50348025602, -1682.0134737507672, -14860.087914477339, -174761.71848317605, -18327.469328340212, -1174.584171126386, 34067.5901255119, 0.008, 0.972, 0.316, 192.0, 0.0, 0.0, 0.0, 0.0, 0.0, 0.0, 0.0, 0.0, 0.0, 1.6527896597142613E9, 0.0, 2022-05-17 14:14:19.714
36.0, 50972.25916054955, 43410.35108689679, -1753.0249658852777, -14936.083845625382, -173753.27482858597, -18390.009509326163, -940.5837584237765, 34299.55652946908, 0.008, 0.972, 0.316, 192.0, 0.0, 0.0, 0.0, 0.0, 0.0, 0.0, 0.0, 0.0, 0.0, 1.652789659714269E9, 0.0, 2022-05-17 14:14:19.714
37.0, 50866.11072613129, 43351.700109446065, -1806.9150217670228, -14967.309232629446, -172820.60358769938, -18500.047147279638, -901.0882259712489, 34416.947891348354, 0.008, 0.972, 0.316, 192.0, 0.0, 0.0, 0.0, 0.0, 0.0, 0.0, 0.0, 0.0, 0.0, 1.652789659714275E9, 0.0, 2022-05-17 14:14:19.714
38.0, 50821.787216876415, 43407.22184267305, -1782.68573077747, -14942.029409650495, -173031.8946280354, -18495.219170477292, -1132.3170223614004, 34290.23585203122, -0.008, 0.9460000000000001, 0.318, 192.0, 255.0, 192.0, 29.0, 144.0, 9.0, 240.0, 0.0, 0.0, 0.0, 1.6527896597142808E9, 0.0, 2022-05-17 14:14:19.714
39.0, 50836.181740305634, 43503.4684542976, -1711.853052598602, -14874.61654837329, -173867.40283577476, -18383.058116800563, -1320.675172886273, 34136.72407111217, -0.008, 0.9460000000000001, 0.318, 192.0, 0.0, 0.0, 0.0, 0.0, 0.0, 0.0, 0.0, 0.0, 0.0, 1.6527896597142873E9, 0.0, 2022-05-17 14:14:19.714
40.0, 50850.68802245713, 43524.54614931896, -1690.5518401326945, -14838.69729503361, -173971.18198528077, -18341.528575602602, -1245.8191807054498, 34178.25361231013, -0.008, 0.9460000000000001, 0.318, 192.0, 0.0, 0.0, 0.0, 0.0, 0.0, 0.0, 0.0, 0.0, 0.0, 1.6527896597142932E9, 0.0, 2022-05-17 14:14:19.714
41.0, 50766.1313731827, 43441.17414250066, -1742.6090529691046, -14907.5183162115, -172986.36412457994, -18401.654768187378, -1010.5447185688876, 34386.16953923339, -0.008, 0.9460000000000001, 0.318, 192.0, 0.0, 0.0, 0.0, 0.0, 0.0, 0.0, 0.0, 0.0, 0.0, 1.6527896597143E9, 0.0, 2022-05-17 14:14:19.714
42.0, 50651.712793315986, 43403.422046115644, -1776.0025591853332, -14954.121703400817, -172054.47519474928, -18483.529208127165, -931.0395635413604, 34492.89911900748, -0.008, 0.9460000000000001, 0.318, 192.0, 0.0, 0.0, 0.0, 0.0, 0.0, 0.0, 0.0, 0.0, 0.0, 1.6527896597143056E9, 0.0, 2022-05-17 14:14:19.714
43.0, 50586.11042333966, 43429.97591852855, -1741.4914657463391, -14906.75835690002, -172263.9557437844, -18461.46803634978, -1131.0206211829927, 34356.73229178575, -0.008, 0.9460000000000001, 0.318, 192.0, 0.0, 0.0, 0.0, 0.0, 0.0, 0.0, 0.0, 0.0, 0.0, 1.6527896597143137E9, 0.0, 2022-05-17 14:14:19.714
44.0, 50569.74894639837, 43478.88153539676, -1694.597505879105, -14853.069466718372, -173110.32689932905, -18384.01924181214, -1327.6265654118736, 34191.01645839411, -0.008, 0.9460000000000001, 0.318, 192.0, 0.0, 0.0, 0.0, 0.0, 0.0, 0.0, 0.0, 0.0, 0.0, 1.65278965971432E9, 0.0, 2022-05-17 14:14:19.714
45.0, 50538.94824253896, 43449.37723271576, -1686.014436008267, -14860.177321455161, -173211.3791360115, -18356.794817065576, -1249.48486679612, 34247.29815093257, -0.008, 0.9460000000000001, 0.318, 192.0, 0.0, 0.0, 0.0, 0.0, 0.0, 0.0, 0.0, 0.0, 0.0, 1.652789659714326E9, 0.0, 2022-05-17 14:14:19.714
46.0, 50450.83766589614, 43367.90512417616, -1718.111541046088, -14911.206354046626, -172235.09964169262, -18409.20965781327, -996.1501951396699, 34462.21017387035, -0.008, 0.9460000000000001, 0.318, 192.0, 0.0, 0.0, 0.0, 0.0, 0.0, 0.0, 0.0, 0.0, 0.0, 1.652789659714332E9, 0.0, 2022-05-17 14:14:19.714
47.0, 50322.695114933864, 43279.973361488985, -1752.9355589074564, -14949.606651020844, -171310.36327008763, -18483.70802208281, -908.2184324524919, 34568.60447747761, -0.008, 0.9460000000000001, 0.318, 192.0, 0.0, 0.0, 0.0, 0.0, 0.0, 0.0, 0.0, 0.0, 0.0, 1.652789659714338E9, 0.0, 2022-05-17 14:14:19.714
48.0, 50216.54668051561, 43255.11822165468, -1736.8646546440907, -14918.38126401678, -171524.4929819695, -18488.111315740505, -1120.1800251221687, 34424.61453969652, -0.042, 0.9500000000000001, 0.314, 192.0, 254.0, 176.0, 29.0, 176.0, 9.0, 208.0, 0.0, 0.0, 0.0, 1.652789659714344E9, 0.0, 2022-05-17 14:14:19.714
49.0, 50096.16018487933, 43257.97924494496, -1690.6188953660603, -14858.27742317646, -172398.4908936609, -18397.87732337443, -1340.4564667292198, 34234.66941531532, -0.042, 0.9500000000000001, 0.314, 192.0, 0.0, 0.0, 0.0, 0.0, 0.0, 0.0, 0.0, 0.0, 0.0, 1.65278965971435E9, 0.0, 2022-05-17 14:14:19.714
50.0, 49960.082764635416, 43188.666485389054, -1697.6149913805714, -14881.18796124315, -172515.21170320653, -18333.951334232253, -1273.9600269746813, 34288.82769213053, -0.042, 0.9500000000000001, 0.314, 192.0, 0.0, 0.0, 0.0, 0.0, 0.0, 0.0, 0.0, 0.0, 0.0, 1.652789659714356E9, 0.0, 2022-05-17 14:14:19.714
51.0, 49835.784713719455, 43082.898030626544, -1752.5332275072608, -14970.684346042199, -171555.02546489544, -18366.763695092643, -1043.3570794292784, 34496.296584164695, -0.042, 0.9500000000000001, 0.314, 192.0, 0.0, 0.0, 0.0, 0.0, 0.0, 0.0, 0.0, 0.0, 0.0, 1.652789659714362E9, 0.0, 2022-05-17 14:14:19.714
52.0, 49702.545965021374, 42995.48035806184, -1767.7100619924145, -15006.44713717069, -170646.56116325394, -18416.853954416987, -976.0783286188041, 34586.28470734176, -0.042, 0.9500000000000001, 0.314, 192.0, 0.0, 0.0, 0.0, 0.0, 0.0, 0.0, 0.0, 0.0, 0.0, 1.652789659714368E9, 0.0, 2022-05-17 14:14:19.714
53.0, 49543.42389624404, 42933.87895034301, -1726.269927772275, -14955.976898190607, -170850.40907268634, -18371.68107887281, -1177.691063605674, 34452.5318685212, -0.042, 0.9500000000000001, 0.314, 192.0, 0.0, 0.0, 0.0, 0.0, 0.0, 0.0, 0.0, 0.0, 0.0, 1.6527896597143743E9, 0.0, 2022-05-17 14:14:19.714
54.0, 49396.86350785059, 42892.5729265896, -1685.9697325193565, -14884.719536867087, -171747.40692942226, -18259.27415600707, -1391.8207754875154, 34250.87443004542, -0.042, 0.9500000000000001, 0.314, 192.0, 0.0, 0.0, 0.0, 0.0, 0.0, 0.0, 0.0, 0.0, 0.0, 1.6527896597143805E9, 0.0, 2022-05-17 14:14:19.714
55.0, 49260.786087606684, 42802.11541677897, -1697.883212314035, -14895.336615483358, -171916.36376575992, -18184.865198715353, -1336.3437457494433, 34275.12607277943, -0.042, 0.9500000000000001, 0.314, 192.0, 0.0, 0.0, 0.0, 0.0, 0.0, 0.0, 0.0, 0.0, 0.0, 1.6527896597143862E9, 0.0, 2022-05-17 14:14:19.714
56.0, 49078.70877727375, 42709.15451158935, -1759.1269921215764, -14988.901017773274, -171004.2114262833, -18243.627934888358, -1148.7902580249618, 34459.12563313552, -0.042, 0.9500000000000001, 0.314, 192.0, 0.0, 0.0, 0.0, 0.0, 0.0, 0.0, 0.0, 0.0, 0.0, 1.6527896597143924E9, 0.0, 2022-05-17 14:14:19.714
57.0, 48859.16994323373, 42628.978804228165, -1784.652684289537, -15049.183672569237, -170082.06785703514, -18334.979514477196, -1067.6087221632865, 34575.86879442559, -0.042, 0.9500000000000001, 0.314, 192.0, 0.0, 0.0, 0.0, 0.0, 0.0, 0.0, 0.0, 0.0, 0.0, 1.6527896597143984E9, 0.0, 2022-05-17 14:14:19.714
58.0, 48681.96531319205, 42594.11008287789, -1750.4098117840067, -14995.941817276696, -170292.4424758485, -18345.59659309347, -1279.1232799438574, 34444.217019583826, 0.002, 1.012, 0.314, 192.0, 0.0, 16.0, 31.0, 160.0, 9.0, 208.0, 0.0, 0.0, 0.0, 1.6527896597144043E9, 0.0, 2022-05-17 14:14:19.714
59.0, 48607.53400415588, 42557.319111504454, -1675.307950414175, -14899.38228122977, -171190.46851282936, -18266.359658999405, -1462.8099158775708, 34257.87052605993, 0.002, 1.012, 0.314, 192.0, 0.0, 0.0, 0.0, 0.0, 0.0, 0.0, 0.0, 0.0, 0.0, 1.6527896597144103E9, 0.0, 2022-05-17 14:14:19.714
60.0, 48521.72565719196, 42506.96063124664, -1651.1010111690773, -14873.99069952854, -171374.62453539667, -18204.37827162484, -1346.8267138989825, 34288.55947119707, 0.002, 1.012, 0.314, 192.0, 0.0, 0.0, 0.0, 0.0, 0.0, 0.0, 0.0, 0.0, 0.0, 1.6527896597144165E9, 0.0, 2022-05-17 14:14:19.714
61.0, 48374.33825425366, 42411.004592300014, -1716.8374916121354, -14952.691191755677, -170456.05724526136, -18283.257577807617, -1111.0158098954928, 34489.34519163909, 0.002, 1.012, 0.314, 192.0, 0.0, 0.0, 0.0, 0.0, 0.0, 0.0, 0.0, 0.0, 0.0, 1.6527896597144225E9, 0.0, 2022-05-17 14:14:19.714
62.0, 48249.056726581664, 42388.65284784471, -1768.8723527040904, -15014.44906168569, -169521.2625886515, -18382.34286097799, -1013.9645354705495, 34615.38667862257, 0.002, 1.012, 0.314, 192.0, 0.0, 0.0, 0.0, 0.0, 0.0, 0.0, 0.0, 0.0, 0.0, 1.6527896597144284E9, 0.0, 2022-05-17 14:14:19.714
63.0, 48211.12581624101, 42529.87116931334, -1739.2562913008085, -14979.312119401948, -169712.59352118892, -18385.360346479458, -1202.4791482066094, 34492.76500854075, 0.002, 1.012, 0.314, 192.0, 0.0, 0.0, 0.0, 0.0, 0.0, 0.0, 0.0, 0.0, 0.0, 1.6527896597144344E9, 0.0, 2022-05-17 14:14:19.714
64.0, 48227.666107137935, 42680.231354264186, -1727.6780876729595, -14921.711673940621, -170581.763456078, -18300.13314487137, -1411.7138280527388, 34327.07152689356, 0.002, 1.012, 0.314, 192.0, 0.0, 0.0, 0.0, 0.0, 0.0, 0.0, 0.0, 0.0, 0.0, 1.6527896597144425E9, 0.0, 2022-05-17 14:14:19.714
65.0, 48272.74957570429, 42748.06889868604, -1746.140628593043, -14912.748624414042, -170774.50254851612, -18232.586173127434, -1374.0734903900018, 34346.71871026978, 0.002, 1.012, 0.314, 192.0, 0.0, 0.0, 0.0, 0.0, 0.0, 0.0, 0.0, 0.0, 0.0, 1.6527896597144485E9, 0.0, 2022-05-17 14:14:19.714
66.0, 48270.62615998103, 42684.99227583317, -1774.9073237070231, -14987.5375613615, -169854.46004324677, -18309.163249631318, -1152.2100749266237, 34550.38780574653, 0.002, 1.012, 0.314, 192.0, 0.0, 0.0, 0.0, 0.0, 0.0, 0.0, 0.0, 0.0, 0.0, 1.6527896597144542E9, 0.0, 2022-05-17 14:14:19.714
67.0, 48273.35307280458, 42607.54348129553, -1789.6818267919812, -15016.706587875677, -168929.20958151933, -18383.482799945214, -1070.6709111536636, 34660.023112299816, 0.002, 1.012, 0.314, 192.0, 0.0, 0.0, 0.0, 0.0, 0.0, 0.0, 0.0, 0.0, 0.0, 1.6527896597144601E9, 0.0, 2022-05-17 14:14:19.714
68.0, 48327.37723915306, 42590.869079931865, -1763.820858457191, -14968.24800589657, -169130.97877871737, -18383.54985517858, -1264.1476111588015, 34520.01178503177, 0.002, 0.992, 0.31, 192.0, 0.0, 16.0, 31.0, 0.0, 9.0, 176.0, 0.0, 0.0, 0.0, 1.652789659714466E9, 0.0, 2022-05-17 14:14:19.714
69.0, 48452.703470313965, 42636.19841768723, -1710.1990235089092, -14891.46976369259, -170042.30410364916, -18305.698729240743, -1483.798203921104, 34318.287291322624, 0.002, 0.992, 0.31, 192.0, 0.0, 0.0, 0.0, 0.0, 0.0, 0.0, 0.0, 0.0, 0.0, 1.652789659714472E9, 0.0, 2022-05-17 14:14:19.714
70.0, 48556.37086109768, 42628.554121083514, -1708.634401397038, -14886.977063057073, -170245.16853632554, -18237.481205163145, -1428.6564503498614, 34350.63026554946, 0.002, 0.992, 0.31, 192.0, 0.0, 0.0, 0.0, 0.0, 0.0, 0.0, 0.0, 0.0, 0.0, 1.6527896597144787E9, 0.0, 2022-05-17 14:14:19.714
71.0, 48603.845966320754, 42564.78459415252, -1761.6303875005708, -14952.19945337766, -169346.74016794446, -18294.321691312995, -1195.2148312586346, 34556.690997682934, 0.002, 0.992, 0.31, 192.0, 0.0, 0.0, 0.0, 0.0, 0.0, 0.0, 0.0, 0.0, 0.0, 1.6527896597144847E9, 0.0, 2022-05-17 14:14:19.714
72.0, 48660.95467340406, 42536.062602527454, -1780.137631909565, -14981.860218269852, -168453.49740427703, -18363.321526446525, -1112.8039494519173, 34652.15529825155, 0.002, 0.992, 0.31, 192.0, 0.0, 0.0, 0.0, 0.0, 0.0, 0.0, 0.0, 0.0, 0.0, 1.652789659714491E9, 0.0, 2022-05-17 14:14:19.714
73.0, 48744.19256975563, 42559.95661735018, -1757.2270938428753, -14940.755360216543, -168653.83608982994, -18366.07079101453, -1290.5003178716086, 34524.12450601155, 0.002, 0.992, 0.31, 192.0, 0.0, 0.0, 0.0, 0.0, 0.0, 0.0, 0.0, 0.0, 0.0, 1.6527896597144966E9, 0.0, 2022-05-17 14:14:19.714
74.0, 48865.69665261467, 42611.32092610847, -1710.8472240981132, -14878.014013530496, -169561.49572867106, -18328.49750858516, -1497.3657128054754, 34344.66234977989, 0.002, 0.992, 0.31, 192.0, 0.0, 0.0, 0.0, 0.0, 0.0, 0.0, 0.0, 0.0, 0.0, 1.6527896597145026E9, 0.0, 2022-05-17 14:14:19.714
75.0, 48977.433023146754, 42617.24413838913, -1699.8054623371916, -14873.878940806264, -169814.5845311385, -18310.034967665073, -1453.3551279729759, 34352.75368127271, 0.002, 0.992, 0.31, 192.0, 0.0, 0.0, 0.0, 0.0, 0.0, 0.0, 0.0, 0.0, 0.0, 1.6527896597145083E9, 0.0, 2022-05-17 14:14:19.714
76.0, 49039.28030005459, 42567.15387906479, -1753.1143728630989, -14948.153787631249, -168948.4767852398, -18381.381735966414, -1218.9970873590812, 34550.343102257626, 0.002, 0.992, 0.31, 192.0, 0.0, 0.0, 0.0, 0.0, 0.0, 0.0, 0.0, 0.0, 0.0, 1.6527896597145145E9, 0.0, 2022-05-17 14:14:19.714
77.0, 49096.67957981582, 42526.38429717831, -1810.200728201953, -15023.83679435692, -168041.28653303225, -18492.291091953648, -1134.8874729737609, 34668.33796123719, 0.002, 0.992, 0.31, 192.0, 0.0, 0.0, 0.0, 0.0, 0.0, 0.0, 0.0, 0.0, 0.0, 1.6527896597145205E9, 0.0, 2022-05-17 14:14:19.714
78.0, 49206.62781079148, 42589.14799560881, -1777.5448295527494, -14986.889360772297, -168245.80499479832, -18505.94800781584, -1319.9152135747927, 34538.11669804057, 0.018000000000000002, 0.976, 0.28800000000000003, 192.0, 0.0, 144.0, 30.0, 128.0, 9.0, 0.0, 0.0, 0.0, 0.0, 1.6527896597145264E9, 0.0, 2022-05-17 14:14:19.714
79.0, 49329.62946052903, 42658.59486563145, -1724.8394161271353, -14914.782633159475, -169168.84263382468, -18421.726634708244, -1546.6736610738828, 34354.25124815122, 0.018000000000000002, 0.976, 0.28800000000000003, 192.0, 0.0, 0.0, 0.0, 0.0, 0.0, 0.0, 0.0, 0.0, 0.0, 1.6527896597145324E9, 0.0, 2022-05-17 14:14:19.714
80.0, 49450.91002594352, 42682.041845565065, -1678.5489533601944, -14869.542702381934, -169434.6942823761, -18310.01261592062, -1458.5630844310624, 34368.93634425835, 0.018000000000000002, 0.976, 0.28800000000000003, 192.0, 0.0, 0.0, 0.0, 0.0, 0.0, 0.0, 0.0, 0.0, 0.0, 1.6527896597145383E9, 0.0, 2022-05-17 14:14:19.714
81.0, 49487.38807289459, 42630.87870250687, -1711.6518868985042, -14919.208278561626, -168563.87031839733, -18344.993095993173, -1177.0875665053804, 34576.539346759244, 0.018000000000000002, 0.976, 0.28800000000000003, 192.0, 0.0, 0.0, 0.0, 0.0, 0.0, 0.0, 0.0, 0.0, 0.0, 1.6527896597145445E9, 0.0, 2022-05-17 14:14:19.714
82.0, 49479.69907280196, 42591.56198400998, -1757.4282595429731, -14983.24602642608, -167672.6392117309, -18468.88881550894, -1107.5065860160096, 34668.94145833748, 0.018000000000000002, 0.976, 0.28800000000000003, 192.0, 0.0, 0.0, 0.0, 0.0, 0.0, 0.0, 0.0, 0.0, 0.0, 1.6527896597145507E9, 0.0, 2022-05-17 14:14:19.714
83.0, 49514.3889801966, 42620.01575470159, -1735.4788464878616, -14957.34035460238, -167877.0235630302, -18497.879028067473, -1296.4458818967203, 34526.53849441272, 0.018000000000000002, 0.976, 0.28800000000000003, 192.0, 0.0, 0.0, 0.0, 0.0, 0.0, 0.0, 0.0, 0.0, 0.0, 1.6527896597145567E9, 0.0, 2022-05-17 14:14:19.714
84.0, 49585.98161768694, 42647.46369689271, -1695.402168679496, -14903.47265046509, -168810.00772833917, -18420.139660851917, -1498.863279683981, 34327.876189693954, 0.018000000000000002, 0.976, 0.28800000000000003, 192.0, 0.0, 0.0, 0.0, 0.0, 0.0, 0.0, 0.0, 0.0, 0.0, 1.652789659714563E9, 0.0, 2022-05-17 14:14:19.714
85.0, 49667.654891926635, 42628.86704550589, -1670.7928980342028, -14896.074223050384, -169066.00225758582, -18338.734607545688, -1420.8780432794147, 34352.23959115024, 0.018000000000000002, 0.976, 0.28800000000000003, 192.0, 0.0, 0.0, 0.0, 0.0, 0.0, 0.0, 0.0, 0.0, 0.0, 1.6527896597145693E9, 0.0, 2022-05-17 14:14:19.714
86.0, 49718.46040707355, 42572.42889075624, -1695.2904099572195, -14951.551252788455, -168207.941139691, -18377.358421964458, -1160.1449442082578, 34548.89023886803, 0.018000000000000002, 0.976, 0.28800000000000003, 192.0, 0.0, 0.0, 0.0, 0.0, 0.0, 0.0, 0.0, 0.0, 0.0, 1.652789659714578E9, 0.0, 2022-05-17 14:14:19.714
87.0, 49703.48473828849, 42532.08399201441, -1741.558520979705, -14982.754288048065, -167297.01814615945, -18475.437876634347, -1062.5125244274766, 34653.943437807975, 0.018000000000000002, 0.976, 0.28800000000000003, 192.0, 0.0, 0.0, 0.0, 0.0, 0.0, 0.0, 0.0, 0.0, 0.0, 1.652789659714584E9, 0.0, 2022-05-17 14:14:19.714
88.0, 49717.11930240623, 42536.420230438736, -1740.1056575901102, -14972.96422397664, -167498.11679102384, -18485.831437806064, -1265.7569367595836, 34508.59004361511, 0.016, 0.968, 0.28, 192.0, 0.0, 128.0, 30.0, 64.0, 8.0, 192.0, 0.0, 0.0, 0.0, 1.65278965971459E9, 0.0, 2022-05-17 14:14:19.714
89.0, 49780.486497937025, 42576.675722202745, -1698.7996338367027, -14901.595103930844, -168446.72482570706, -18401.475954231733, -1499.0420936396235, 34297.70133467929, 0.016, 0.968, 0.28, 192.0, 0.0, 0.0, 0.0, 0.0, 0.0, 0.0, 0.0, 0.0, 0.0, 1.652789659714596E9, 0.0, 2022-05-17 14:14:19.714
90.0, 49766.74017509702, 42578.48621350363, -1689.210735465376, -14908.367682500802, -168744.76298627415, -18397.5420472076, -1462.608750177473, 34294.527386966634, 0.016, 0.968, 0.28, 192.0, 0.0, 0.0, 0.0, 0.0, 0.0, 0.0, 0.0, 0.0, 0.0, 1.6527896597146022E9, 0.0, 2022-05-17 14:14:19.714
91.0, 49705.31758133383, 42530.85464606937, -1721.307840503197, -14971.041973953483, -167892.60272891555, -18456.237728147236, -1215.3984565017768, 34494.17316844144, 0.016, 0.968, 0.28, 192.0, 0.0, 0.0, 0.0, 0.0, 0.0, 0.0, 0.0, 0.0, 0.0, 1.6527896597146087E9, 0.0, 2022-05-17 14:14:19.714
92.0, 49626.259461195405, 42480.697331511656, -1765.1172596355987, -15012.01272154006, -166974.8177498362, -18483.596263360534, -1109.205318594613, 34607.56356806321, 0.016, 0.968, 0.28, 192.0, 0.0, 0.0, 0.0, 0.0, 0.0, 0.0, 0.0, 0.0, 0.0, 1.6527896597146144E9, 0.0, 2022-05-17 14:14:19.714
93.0, 49535.91371010706, 42519.723477330626, -1732.3943057530291, -14937.38024680379, -167163.8017492058, -18470.051106220617, -1281.224343922656, 34471.620258286035, 0.016, 0.968, 0.28, 192.0, 0.0, 0.0, 0.0, 0.0, 0.0, 0.0, 0.0, 0.0, 0.0, 1.6527896597146225E9, 0.0, 2022-05-17 14:14:19.714
94.0, 49494.071244486724, 42669.189592503266, -1671.7763747902363, -14847.41447537118, -168107.96178674244, -18390.54595119309, -1485.094605099512, 34270.49926167718, 0.016, 0.968, 0.28, 192.0, 0.0, 0.0, 0.0, 0.0, 0.0, 0.0, 0.0, 0.0, 0.0, 1.6527896597146287E9, 0.0, 2022-05-17 14:14:19.714
95.0, 49465.57277030621, 42814.92296635186, -1665.182610175921, -14864.46885639058, -168401.97663330755, -18357.845349054976, -1433.8420550634928, 34284.670267661844, 0.016, 0.968, 0.28, 192.0, 0.0, 0.0, 0.0, 0.0, 0.0, 0.0, 0.0, 0.0, 0.0, 1.6527896597146456E9, 0.0, 2022-05-17 14:14:19.714
96.0, 49364.78875455722, 42782.82586131404, -1717.105712545599, -14940.800063705454, -167571.2516988816, -18424.6994167208, -1194.588982413886, 34473.31899086464, 0.016, 0.968, 0.28, 192.0, 0.0, 0.0, 0.0, 0.0, 0.0, 0.0, 0.0, 0.0, 0.0, 1.6527896597146518E9, 0.0, 2022-05-17 14:14:19.714
97.0, 49268.340977232576, 42787.34091369402, -1753.404945541018, -14963.285918627493, -166665.17903389683, -18515.849830609543, -1089.2899142849344, 34574.862965925095, 0.016, 0.968, 0.28, 192.0, 0.0, 0.0, 0.0, 0.0, 0.0, 0.0, 0.0, 0.0, 0.0, 1.652789659714658E9, 0.0, 2022-05-17 14:14:19.714
98.0, 49264.04944229716, 43027.733925310844, -1731.433180741451, -14946.320944585914, -166833.80059406767, -18515.15692653143, -1257.643253522307, 34453.29182783268, 0.014, 0.98, 0.27, 192.0, 0.0, 112.0, 30.0, 160.0, 8.0, 112.0, 0.0, 0.0, 0.0, 1.6527896597146642E9, 0.0, 2022-05-17 14:14:19.714
99.0, 49302.025056126724, 43128.696755015466, -1684.2933516852083, -14874.773010584477, -167768.48349195524, -18441.5526320401, -1479.4619654967744, 34258.675188860325, 0.014, 0.98, 0.27, 192.0, 0.0, 0.0, 0.0, 0.0, 0.0, 0.0, 0.0, 0.0, 0.0, 1.6527896597146704E9, 0.0, 2022-05-17 14:14:19.714
100.0, 49342.12408567954, 43110.033048395286, -1649.46933382384, -14844.441693358624, -168088.91810046652, -18369.423552682823, -1430.4222381618308, 34256.90940104835, 0.014, 0.98, 0.27, 192.0, 0.0, 0.0, 0.0, 0.0, 0.0, 0.0, 0.0, 0.0, 0.0, 1.6527896597146766E9, 0.0, 2022-05-17 14:14:19.714
101.0, 49265.77052662022, 42950.79922089568, -1696.0056657797893, -14913.888563381262, -167272.65474470315, -18402.794707154597, -1178.8757060618052, 34440.7301474488, 0.014, 0.98, 0.27, 192.0, 0.0, 0.0, 0.0, 0.0, 0.0, 0.0, 0.0, 0.0, 0.0, 1.6527896597146828E9, 0.0, 2022-05-17 14:14:19.714
102.0, 49259.46733468382, 42821.092047821534, -1736.0599918436997, -14960.62606103731, -166351.3158382554, -18463.479693350757, -1062.1996000051022, 34548.06322432318, 0.014, 0.98, 0.27, 192.0, 0.0, 0.0, 0.0, 0.0, 0.0, 0.0, 0.0, 0.0, 0.0, 1.652789659714689E9, 0.0, 2022-05-17 14:14:19.714
103.0, 49299.81223342565, 42835.01718461719, -1737.8481314001242, -14954.4793313121, -166512.1589913558, -18482.076344737572, -1245.1486283717904, 34417.19376053736, 0.014, 0.98, 0.27, 192.0, 0.0, 0.0, 0.0, 0.0, 0.0, 0.0, 0.0, 0.0, 0.0, 1.6527896597146952E9, 0.0, 2022-05-17 14:14:19.714
104.0, 49302.67325671593, 43157.46345012945, -1709.8637473420797, -14914.872040137298, -167421.02562439747, -18426.644018488412, -1461.7593838881712, 34244.615941597935, 0.014, 0.98, 0.27, 192.0, 0.0, 0.0, 0.0, 0.0, 0.0, 0.0, 0.0, 0.0, 0.0, 1.6527896597147017E9, 0.0, 2022-05-17 14:14:19.714
