%OpenBCI Raw EEG Data
%Number of channels = 8
%Sample Rate = 250 Hz
%Board = OpenBCI_GUI$BoardCytonSerial
Sample Index, EXG Channel 0, EXG Channel 1, EXG Channel 2, EXG Channel 3, EXG Channel 4, EXG Channel 5, EXG Channel 6, EXG Channel 7, Accel Channel 0, Accel Channel 1, Accel Channel 2, Other, Other, Other, Other, Other, Other, Other, Analog Channel 0, Analog Channel 1, Analog Channel 2, Timestamp, Other, Timestamp (Formatted)
0.0, 0.0, 0.0, 0.0, 0.0, 0.0, 0.0, 0.0, 0.0, -0.02, 1.018, 0.064, 192.0, 255.0, 96.0, 31.0, 208.0, 2.0, 0.0, 0.0, 0.0, 0.0, 1.6527834687828152E9, 0.0, 2022-05-17 12:31:08.782
1.0, 38863.514526309315, 60121.90104984058, -35725.21784606193, 17035.56085056792, 32129.716232981234, 11174.374660775025, 33725.67549057907, 16926.327875414834, -0.02, 1.018, 0.064, 192.0, 0.0, 0.0, 0.0, 0.0, 0.0, 0.0, 0.0, 0.0, 0.0, 1.6527834687988584E9, 0.0, 2022-05-17 12:31:08.798
2.0, 38837.05006087424, 60121.74458762939, -35743.188648603995, 17316.455223137764, 32173.391541646906, 11207.589353035612, 33725.42962139006, 16934.195689463104, -0.02, 1.018, 0.064, 192.0, 0.0, 0.0, 0.0, 0.0, 0.0, 0.0, 0.0, 0.0, 0.0, 1.6527834692793405E9, 0.0, 2022-05-17 12:31:09.279
3.0, 38822.32026127819, 60132.65223892358, -35715.00309884585, 17157.959003205182, 31975.42214100625, 11187.584541748112, 33701.17797865605, 16933.88276504073, -0.02, 1.018, 0.064, 192.0, 0.0, 0.0, 0.0, 0.0, 0.0, 0.0, 0.0, 0.0, 0.0, 1.6527834692794733E9, 0.0, 2022-05-17 12:31:09.279
4.0, 38833.07145036119, 60136.87671862564, -35682.235441474375, 16778.09110618724, 31829.845229368835, 11127.994791030264, 33669.818481185255, 16922.237506179514, -0.02, 1.018, 0.064, 192.0, 0.0, 0.0, 0.0, 0.0, 0.0, 0.0, 0.0, 0.0, 0.0, 1.6527834692794857E9, 0.0, 2022-05-17 12:31:09.279
5.0, 38845.633130745075, 60133.211032534964, -35680.82728157369, 16673.350831669668, 31864.44572978565, 11133.068637021619, 33682.31310633577, 16937.950782531596, -0.02, 1.018, 0.064, 192.0, 0.0, 0.0, 0.0, 0.0, 0.0, 0.0, 0.0, 0.0, 0.0, 1.6527834692794924E9, 0.0, 2022-05-17 12:31:09.279
6.0, 38824.667194445996, 60100.912761797044, -35741.512267769845, 17034.59972555634, 32109.93493913829, 11172.430059007414, 33700.23920538893, 16936.006180763983, -0.02, 1.018, 0.064, 192.0, 0.0, 0.0, 0.0, 0.0, 0.0, 0.0, 0.0, 0.0, 0.0, 1.652783469279503E9, 0.0, 2022-05-17 12:31:09.279
7.0, 38800.92964183446, 60104.10906125415, -35756.890267955096, 17311.962522502246, 32162.55094558608, 11211.925591459942, 33719.23818817594, 16938.286058698424, -0.02, 1.018, 0.064, 192.0, 0.0, 0.0, 0.0, 0.0, 0.0, 0.0, 0.0, 0.0, 0.0, 1.652783469279508E9, 0.0, 2022-05-17 12:31:09.279
8.0, 38783.58468813714, 60107.215953733445, -35731.54338974278, 17147.654849011284, 31993.303536570496, 11184.075317868628, 33705.111885680184, 16936.16264297517, 0.022, 1.02, 0.068, 192.0, 0.0, 176.0, 31.0, 224.0, 2.0, 32.0, 0.0, 0.0, 0.0, 1.6527834692795143E9, 0.0, 2022-05-17 12:31:09.279
9.0, 38798.91798483348, 60113.76501485885, -35695.19945325845, 16764.50124555841, 31852.10756684632, 11128.330067197094, 33677.730998722436, 16924.942067258606, 0.022, 1.02, 0.068, 192.0, 0.0, 0.0, 0.0, 0.0, 0.0, 0.0, 0.0, 0.0, 0.0, 1.6527834692795217E9, 0.0, 2022-05-17 12:31:09.279
10.0, 38827.14823808053, 60119.42000620604, -35684.80589208673, 16663.985450742897, 31870.905383933234, 11131.258145720738, 33676.456949288484, 16926.707855070574, 0.022, 1.02, 0.068, 192.0, 0.0, 0.0, 0.0, 0.0, 0.0, 0.0, 0.0, 0.0, 0.0, 1.6527834692795272E9, 0.0, 2022-05-17 12:31:09.279
11.0, 38825.53891247975, 60107.66298862255, -35726.82717166271, 17037.88543199127, 32119.74735495417, 11179.873189911032, 33710.87863574966, 16932.362846417767, 0.022, 1.02, 0.068, 192.0, 0.0, 0.0, 0.0, 0.0, 0.0, 0.0, 0.0, 0.0, 0.0, 1.6527834692795324E9, 0.0, 2022-05-17 12:31:09.279
12.0, 38801.86841510158, 60110.97104680193, -35740.34997705817, 17312.454260880266, 32184.433303407826, 11213.73608276082, 33732.045737748835, 16937.660209853675, 0.022, 1.02, 0.068, 192.0, 0.0, 0.0, 0.0, 0.0, 0.0, 0.0, 0.0, 0.0, 0.0, 1.652783469279538E9, 0.0, 2022-05-17 12:31:09.279
13.0, 38787.49624341682, 60120.82816610672, -35711.29270926627, 17156.774360749052, 32006.33460358794, 11193.016015650752, 33717.45004861952, 16937.92843078714, 0.022, 1.02, 0.068, 192.0, 0.0, 0.0, 0.0, 0.0, 0.0, 0.0, 0.0, 0.0, 0.0, 1.6527834692795427E9, 0.0, 2022-05-17 12:31:09.279
14.0, 38796.19107200993, 60125.90201209808, -35680.33554319567, 16783.120248689684, 31855.281514558974, 11129.134729997484, 33673.70768472048, 16921.522250356942, 0.022, 1.02, 0.068, 192.0, 0.0, 0.0, 0.0, 0.0, 0.0, 0.0, 0.0, 0.0, 0.0, 1.6527834692795475E9, 0.0, 2022-05-17 12:31:09.279
15.0, 38829.07048810369, 60135.75913140287, -35672.13245298057, 16675.138971226093, 31872.31354383392, 11130.25231722025, 33684.503577292395, 16928.697160327098, 0.022, 1.02, 0.068, 192.0, 0.0, 0.0, 0.0, 0.0, 0.0, 0.0, 0.0, 0.0, 0.0, 1.6527834692795525E9, 0.0, 2022-05-17 12:31:09.279
16.0, 38830.36688928209, 60120.96227657346, -35715.8301133907, 17043.04868496045, 32125.447049790273, 11182.667157967944, 33733.34213892724, 16938.286058698424, 0.022, 1.02, 0.068, 192.0, 0.0, 0.0, 0.0, 0.0, 0.0, 0.0, 0.0, 0.0, 0.0, 1.6527834692795572E9, 0.0, 2022-05-17 12:31:09.279
17.0, 38801.42138021247, 60111.46278517995, -35740.61819799164, 17326.178231975824, 32198.358440203483, 11216.12771941754, 33735.0632232503, 16934.86624179676, 0.048, 1.016, 0.066, 192.0, 1.0, 128.0, 31.0, 192.0, 2.0, 16.0, 0.0, 0.0, 0.0, 1.652783469279562E9, 0.0, 2022-05-17 12:31:09.279
18.0, 38784.00937128179, 60116.715445126945, -35715.56189245723, 17166.877349242848, 32009.106219900397, 11184.83527718011, 33703.43550484604, 16928.25012543799, 0.048, 1.016, 0.066, 192.0, 0.0, 0.0, 0.0, 0.0, 0.0, 0.0, 0.0, 0.0, 0.0, 1.6527834692795668E9, 0.0, 2022-05-17 12:31:09.279
19.0, 38801.60019416812, 60128.2936487548, -35674.52408963729, 16789.37873713717, 31861.54000300646, 11140.735285369788, 33693.75719949689, 16932.58636386232, 0.048, 1.016, 0.066, 192.0, 0.0, 0.0, 0.0, 0.0, 0.0, 0.0, 0.0, 0.0, 0.0, 1.6527834692795715E9, 0.0, 2022-05-17 12:31:09.279
20.0, 38819.39218275454, 60124.203279519475, -35677.67568560549, 16676.68124159351, 31888.40679984174, 11127.056017763141, 33692.66196401858, 16925.702026570085, 0.048, 1.016, 0.066, 192.0, 0.0, 0.0, 0.0, 0.0, 0.0, 0.0, 0.0, 0.0, 0.0, 1.652783469279577E9, 0.0, 2022-05-17 12:31:09.279
21.0, 38824.935415379456, 60115.48609918191, -35721.41804950453, 17036.924306979694, 32124.955311412254, 11173.838218908098, 33719.43935387604, 16926.417282392656, 0.048, 1.016, 0.066, 192.0, 0.0, 0.0, 0.0, 0.0, 0.0, 0.0, 0.0, 0.0, 0.0, 1.6527834692795818E9, 0.0, 2022-05-17 12:31:09.279
22.0, 38802.24839475732, 60115.30728522626, -35741.53461951431, 17321.014979006646, 32188.03193426513, 11208.148146646994, 33734.23620870545, 16931.289962683913, 0.048, 1.016, 0.066, 192.0, 0.0, 0.0, 0.0, 0.0, 0.0, 0.0, 0.0, 0.0, 0.0, 1.652783469279607E9, 0.0, 2022-05-17 12:31:09.279
23.0, 38786.266897471774, 60119.26354399485, -35715.56189245723, 17174.096962701915, 32007.80981872199, 11197.016977908252, 33713.33732763974, 16939.984791277027, 0.048, 1.016, 0.066, 192.0, 0.0, 0.0, 0.0, 0.0, 0.0, 0.0, 0.0, 0.0, 0.0, 1.652783469279612E9, 0.0, 2022-05-17 12:31:09.279
24.0, 38797.68863888844, 60121.45401495147, -35677.5192233943, 16797.80534479682, 31859.52834600548, 11149.474817451814, 33694.15953089709, 16934.82153830785, 0.048, 1.016, 0.066, 192.0, 0.0, 0.0, 0.0, 0.0, 0.0, 0.0, 0.0, 0.0, 0.0, 1.6527834692796168E9, 0.0, 2022-05-17 12:31:09.279
25.0, 38816.73232516436, 60117.27423873833, -35677.7203890944, 16672.702631080465, 31875.39808456875, 11131.124035254006, 33694.494807063915, 16918.616523577755, 0.048, 1.016, 0.066, 192.0, 0.0, 0.0, 0.0, 0.0, 0.0, 0.0, 0.0, 0.0, 0.0, 1.652783469279622E9, 0.0, 2022-05-17 12:31:09.279
26.0, 38818.52046472079, 60106.52304965533, -35726.491895495885, 17026.396635341243, 32116.953386897254, 11186.913989414454, 33730.838743548244, 16918.840041022308, 0.048, 1.016, 0.066, 192.0, 0.0, 0.0, 0.0, 0.0, 0.0, 0.0, 0.0, 0.0, 0.0, 1.6527834692796268E9, 0.0, 2022-05-17 12:31:09.279
27.0, 38789.06086552869, 60100.06339550774, -35754.90096269858, 17319.29389468359, 32186.467312153258, 11208.326960602637, 33727.03894699084, 16931.513480128466, 0.06, 1.014, 0.066, 192.0, 1.0, 224.0, 31.0, 176.0, 2.0, 16.0, 0.0, 0.0, 0.0, 1.6527834692796316E9, 0.0, 2022-05-17 12:31:09.279
28.0, 38772.58762986513, 60107.99826478938, -35726.44719200697, 17171.571215578464, 32005.842865209925, 11179.82848642212, 33706.96708046998, 16928.607753349275, 0.06, 1.014, 0.066, 192.0, 0.0, 0.0, 0.0, 0.0, 0.0, 0.0, 0.0, 0.0, 0.0, 1.6527834692796364E9, 0.0, 2022-05-17 12:31:09.279
29.0, 38780.053112513204, 60105.07018626574, -35693.09838927965, 16792.575036594277, 31855.59443898135, 11132.085160265584, 33691.09734190671, 16923.869183524752, 0.06, 1.014, 0.066, 192.0, 0.0, 0.0, 0.0, 0.0, 0.0, 0.0, 0.0, 0.0, 0.0, 1.6527834692796412E9, 0.0, 2022-05-17 12:31:09.279
30.0, 38815.34651700813, 60117.65421839407, -35676.60280187164, 16670.132180468107, 31865.563317008415, 11127.771273585711, 33705.00012695791, 16929.613581849764, 0.06, 1.014, 0.066, 192.0, 0.0, 0.0, 0.0, 0.0, 0.0, 0.0, 0.0, 0.0, 0.0, 1.652783469279646E9, 0.0, 2022-05-17 12:31:09.279
31.0, 38819.92862462147, 60108.110023511654, -35719.58520645919, 17031.246963888047, 32113.84649441797, 11180.87901841152, 33733.856229049714, 16933.63689585172, 0.06, 1.014, 0.066, 192.0, 0.0, 0.0, 0.0, 0.0, 0.0, 0.0, 0.0, 0.0, 0.0, 1.6527834692796507E9, 0.0, 2022-05-17 12:31:09.279
32.0, 38795.498167931815, 60107.70769211146, -35737.935988657, 17328.72633084373, 32198.917233814867, 11216.954733962386, 33732.045737748835, 16945.59507913531, 0.06, 1.014, 0.066, 192.0, 0.0, 0.0, 0.0, 0.0, 0.0, 0.0, 0.0, 0.0, 0.0, 1.6527834692796557E9, 0.0, 2022-05-17 12:31:09.279
33.0, 38771.045359497715, 60106.098366510676, -35717.97588085841, 17187.910340775292, 32027.322891631473, 11187.629245237023, 33712.84558926172, 16940.58828837732, 0.06, 1.014, 0.066, 192.0, 0.0, 0.0, 0.0, 0.0, 0.0, 0.0, 0.0, 0.0, 0.0, 1.6527834692796602E9, 0.0, 2022-05-17 12:31:09.279
34.0, 38786.24454572732, 60115.37434045963, -35678.7709210838, 16806.254304200924, 31872.894689189758, 11139.483587680292, 33694.45010357501, 16939.180128476637, 0.06, 1.014, 0.066, 192.0, 0.0, 0.0, 0.0, 0.0, 0.0, 0.0, 0.0, 0.0, 0.0, 1.652783469279665E9, 0.0, 2022-05-17 12:31:09.279
35.0, 38805.82467387017, 60115.70961662646, -35679.10619725063, 16676.077744493217, 31879.600212526348, 11133.314506210627, 33677.57453651125, 16932.653419095688, 0.06, 1.014, 0.066, 192.0, 0.0, 0.0, 0.0, 0.0, 0.0, 0.0, 0.0, 0.0, 0.0, 1.65278346927967E9, 0.0, 2022-05-17 12:31:09.279
36.0, 38806.42817097047, 60104.0867095097, -35721.41804950453, 17033.280972633478, 32123.25657883365, 11190.356158060571, 33729.34117666974, 16935.000352263494, 0.06, 1.014, 0.066, 192.0, 0.0, 0.0, 0.0, 0.0, 0.0, 0.0, 0.0, 0.0, 0.0, 1.6527834692796745E9, 0.0, 2022-05-17 12:31:09.279
37.0, 38771.179469964445, 60090.51920062533, -35750.5870760187, 17322.19962146278, 32206.405068207394, 11221.715655531367, 33747.62490363418, 16933.703951085085, 0.066, 1.018, 0.07200000000000001, 192.0, 2.0, 16.0, 31.0, 208.0, 2.0, 64.0, 0.0, 0.0, 0.0, 1.6527834692796795E9, 0.0, 2022-05-17 12:31:09.279
38.0, 38762.46228962688, 60105.18194498801, -35718.15469481405, 17181.58479709444, 32024.57362706347, 11197.50871628627, 33720.802810287816, 16940.655343610688, 0.066, 1.018, 0.07200000000000001, 192.0, 0.0, 0.0, 0.0, 0.0, 0.0, 0.0, 0.0, 0.0, 0.0, 1.6527834692796845E9, 0.0, 2022-05-17 12:31:09.279
39.0, 38773.258182198784, 60112.245096235885, -35680.29083970676, 16807.66246410161, 31875.487491546573, 11135.482625422792, 33695.43358033104, 16934.463910396567, 0.066, 1.018, 0.07200000000000001, 192.0, 0.0, 0.0, 0.0, 0.0, 0.0, 0.0, 0.0, 0.0, 0.0, 1.6527834692796893E9, 0.0, 2022-05-17 12:31:09.279
40.0, 38787.675057372464, 60102.14210774209, -35678.659162361524, 16672.076782235716, 31890.329049864897, 11126.430168918392, 33688.638650016626, 16931.20055570609, 0.066, 1.018, 0.07200000000000001, 192.0, 0.0, 0.0, 0.0, 0.0, 0.0, 0.0, 0.0, 0.0, 0.0, 1.6527834692796943E9, 0.0, 2022-05-17 12:31:09.279
41.0, 38800.79553136772, 60104.623151376625, -35715.49483722387, 17019.713463749107, 32142.21085813175, 11177.727422443322, 33721.205141688006, 16935.4473871526, 0.066, 1.018, 0.07200000000000001, 192.0, 0.0, 0.0, 0.0, 0.0, 0.0, 0.0, 0.0, 0.0, 0.0, 1.652783469279699E9, 0.0, 2022-05-17 12:31:09.279
42.0, 38779.829595068644, 60110.076977023724, -35737.51130551235, 17325.2394587087, 32218.51971370217, 11212.663199026967, 33718.411173631095, 16934.150985974193, 0.066, 1.018, 0.07200000000000001, 192.0, 0.0, 0.0, 0.0, 0.0, 0.0, 0.0, 0.0, 0.0, 0.0, 1.6527834692797043E9, 0.0, 2022-05-17 12:31:09.279
43.0, 38762.216420437864, 60118.10125328318, -35708.521092953815, 17201.611960126396, 32035.28011265756, 11203.946018689398, 33708.79992351531, 16938.956611032085, 0.066, 1.018, 0.07200000000000001, 192.0, 0.0, 0.0, 0.0, 0.0, 0.0, 0.0, 0.0, 0.0, 0.0, 1.652783469279712E9, 0.0, 2022-05-17 12:31:09.279
44.0, 38764.16102220548, 60115.48609918191, -35679.173252484, 16819.307722962825, 31883.109436405834, 11135.706142867344, 33689.01862967237, 16935.089759241317, 0.066, 1.018, 0.07200000000000001, 192.0, 0.0, 0.0, 0.0, 0.0, 0.0, 0.0, 0.0, 0.0, 0.0, 1.6527834692797172E9, 0.0, 2022-05-17 12:31:09.279
45.0, 38789.39614169552, 60120.96227657346, -35665.09165347715, 16677.552959627268, 31887.98211669709, 11130.58759338708, 33684.28005984784, 16929.59123010531, 0.066, 1.018, 0.07200000000000001, 192.0, 0.0, 0.0, 0.0, 0.0, 0.0, 0.0, 0.0, 0.0, 0.0, 1.6527834692797225E9, 0.0, 2022-05-17 12:31:09.279
46.0, 38784.43405442644, 60103.10323275367, -35710.7786191438, 17029.436472587167, 32134.74537548368, 11175.581654975613, 33729.877618536666, 16938.01783776496, 0.066, 1.018, 0.07200000000000001, 192.0, 0.0, 0.0, 0.0, 0.0, 0.0, 0.0, 0.0, 0.0, 0.0, 1.6527834692797272E9, 0.0, 2022-05-17 12:31:09.279
47.0, 38756.15909769048, 60096.442412905984, -35733.130363599106, 17329.53099364412, 32212.7529636327, 11212.350274604592, 33738.617150618695, 16939.78362557693, 0.068, 1.018, 0.07200000000000001, 192.0, 2.0, 32.0, 31.0, 208.0, 2.0, 64.0, 0.0, 0.0, 0.0, 1.652783469279732E9, 0.0, 2022-05-17 12:31:09.279
48.0, 38733.7402980018, 60099.54930538527, -35711.73974415538, 17193.721794333673, 32032.37438587837, 11195.40765230747, 33719.528760853864, 16944.83511982383, 0.068, 1.018, 0.07200000000000001, 192.0, 0.0, 0.0, 0.0, 0.0, 0.0, 0.0, 0.0, 0.0, 0.0, 1.6527834692797368E9, 0.0, 2022-05-17 12:31:09.279
49.0, 38747.28545514172, 60112.46861368044, -35668.28795293426, 16810.61289436971, 31877.052113658443, 11146.34557322807, 33706.54239732533, 16949.618393137265, 0.068, 1.018, 0.07200000000000001, 192.0, 0.0, 0.0, 0.0, 0.0, 0.0, 0.0, 0.0, 0.0, 0.0, 1.6527834692797415E9, 0.0, 2022-05-17 12:31:09.279
50.0, 38773.66051359898, 60115.19552650399, -35659.59312434115, 16671.652099091065, 31889.814959742424, 11135.504977167247, 33702.22851064545, 16946.22092798006, 0.068, 1.018, 0.07200000000000001, 192.0, 0.0, 0.0, 0.0, 0.0, 0.0, 0.0, 0.0, 0.0, 0.0, 1.6527834692797465E9, 0.0, 2022-05-17 12:31:09.279
51.0, 38779.986057279835, 60107.73004385592, -35701.68145915049, 17025.971952196593, 32129.246846347673, 11181.25899806726, 33737.87954305167, 16942.01880002246, 0.068, 1.018, 0.07200000000000001, 192.0, 0.0, 0.0, 0.0, 0.0, 0.0, 0.0, 0.0, 0.0, 0.0, 1.6527834692797513E9, 0.0, 2022-05-17 12:31:09.279
52.0, 38759.4001006365, 60105.71838685494, -35724.21201756144, 17342.450301939287, 32219.19026603583, 11222.877946243043, 33750.68709262456, 16947.4502739251, 0.068, 1.018, 0.07200000000000001, 192.0, 0.0, 0.0, 0.0, 0.0, 0.0, 0.0, 0.0, 0.0, 0.0, 1.6527834692797563E9, 0.0, 2022-05-17 12:31:09.279
53.0, 38732.98033869032, 60100.353968185664, -35707.58231968669, 17213.54779166553, 32046.970075007688, 11195.899390685487, 33719.48405736495, 16943.024628522948, 0.068, 1.018, 0.07200000000000001, 192.0, 0.0, 0.0, 0.0, 0.0, 0.0, 0.0, 0.0, 0.0, 0.0, 1.6527834692797613E9, 0.0, 2022-05-17 12:31:09.279
54.0, 38738.90355097098, 60107.506526411365, -35671.52895588028, 16825.14152826566, 31889.54673880896, 11138.991849302274, 33684.70474299249, 16931.915811528663, 0.068, 1.018, 0.07200000000000001, 192.0, 0.0, 0.0, 0.0, 0.0, 0.0, 0.0, 0.0, 0.0, 0.0, 1.652783469279766E9, 0.0, 2022-05-17 12:31:09.279
55.0, 38758.170754691455, 60111.485136924406, -35665.650447088534, 16668.880482778608, 31889.79260799797, 11131.34755269856, 33681.86607144667, 16932.184032462126, 0.068, 1.018, 0.07200000000000001, 192.0, 0.0, 0.0, 0.0, 0.0, 0.0, 0.0, 0.0, 0.0, 0.0, 1.6527834692797716E9, 0.0, 2022-05-17 12:31:09.279
56.0, 38754.57212383415, 60090.49684888087, -35714.28784302328, 17000.736832706552, 32122.831895689, 11170.038422350695, 33702.07204843427, 16921.008160234473, 0.068, 1.018, 0.07200000000000001, 192.0, 0.0, 0.0, 0.0, 0.0, 0.0, 0.0, 0.0, 0.0, 0.0, 1.6527834692797763E9, 0.0, 2022-05-17 12:31:09.279
57.0, 38725.82778046463, 60080.930302254004, -35739.768831702335, 17323.56307787455, 32210.38367872044, 11195.7429284743, 33720.847513776724, 16924.83030853633, 0.066, 1.018, 0.07200000000000001, 192.0, 2.0, 16.0, 31.0, 208.0, 2.0, 64.0, 0.0, 0.0, 0.0, 1.6527834692797809E9, 0.0, 2022-05-17 12:31:09.279
58.0, 38705.57709998812, 60087.94875001297, -35711.8291511332, 17198.281550202555, 32029.91569398829, 11182.801268434676, 33707.503522336905, 16935.49209064151, 0.066, 1.018, 0.07200000000000001, 192.0, 0.0, 0.0, 0.0, 0.0, 0.0, 0.0, 0.0, 0.0, 0.0, 1.6527834692797856E9, 0.0, 2022-05-17 12:31:09.279
59.0, 38727.839437465605, 60109.27231422333, -35674.09940649264, 16818.100728762238, 31868.98313391008, 11129.782930586689, 33691.14204539562, 16927.221945193047, 0.066, 1.018, 0.07200000000000001, 192.0, 0.0, 0.0, 0.0, 0.0, 0.0, 0.0, 0.0, 0.0, 0.0, 1.6527834692797909E9, 0.0, 2022-05-17 12:31:09.279
60.0, 38763.93750476092, 60123.53272718582, -35666.18688895546, 16665.81829378823, 31873.811110712424, 11117.310657180627, 33688.39278082762, 16929.79239580541, 0.066, 1.018, 0.07200000000000001, 192.0, 0.0, 0.0, 0.0, 0.0, 0.0, 0.0, 0.0, 0.0, 0.0, 1.6527834692797956E9, 0.0, 2022-05-17 12:31:09.279
61.0, 38753.968626733855, 60098.94580828498, -35705.88358710809, 17010.16926886669, 32120.887293921387, 11177.503904998768, 33734.61618836119, 16937.72726508704, 0.066, 1.018, 0.07200000000000001, 192.0, 0.0, 0.0, 0.0, 0.0, 0.0, 0.0, 0.0, 0.0, 0.0, 1.652783469279801E9, 0.0, 2022-05-17 12:31:09.279
62.0, 38728.264120610256, 60098.29760769578, -35715.74070641288, 17335.364798946954, 32204.259300739683, 11227.258888156282, 33728.692976080536, 16942.577593633843, 0.066, 1.018, 0.07200000000000001, 192.0, 0.0, 0.0, 0.0, 0.0, 0.0, 0.0, 0.0, 0.0, 0.0, 1.6527834692798057E9, 0.0, 2022-05-17 12:31:09.279
63.0, 38714.406039047964, 60104.936075799, -35696.45115094795, 17215.626503899875, 32046.59009535195, 11193.910085428965, 33698.78634199934, 16937.436692409123, 0.066, 1.018, 0.07200000000000001, 192.0, 0.0, 0.0, 0.0, 0.0, 0.0, 0.0, 0.0, 0.0, 0.0, 1.6527834692798104E9, 0.0, 2022-05-17 12:31:09.279
64.0, 38706.87350116653, 60092.955540770956, -35663.88465927657, 16823.934534065073, 31892.20659639914, 11129.760578842233, 33675.94285916601, 16922.416320135155, 0.066, 1.018, 0.07200000000000001, 192.0, 0.0, 0.0, 0.0, 0.0, 0.0, 0.0, 0.0, 0.0, 0.0, 1.6527834692798173E9, 0.0, 2022-05-17 12:31:09.279
65.0, 38735.97547244734, 60103.930247298515, -35656.19565918394, 16671.473285135424, 31882.17066313871, 11117.44476764736, 33676.47930103294, 16923.511555613466, 0.066, 1.018, 0.07200000000000001, 192.0, 0.0, 0.0, 0.0, 0.0, 0.0, 0.0, 0.0, 0.0, 0.0, 1.652783469279822E9, 0.0, 2022-05-17 12:31:09.279
66.0, 38740.691690527405, 60090.005110502854, -35703.80487487374, 16997.808754182908, 32115.8805031634, 11168.362041516548, 33706.8553217477, 16927.177241704136, 0.066, 1.018, 0.07200000000000001, 192.0, 0.0, 0.0, 0.0, 0.0, 0.0, 0.0, 0.0, 0.0, 0.0, 1.6527834692798269E9, 0.0, 2022-05-17 12:31:09.279
67.0, 38703.297222053676, 60075.8788080071, -35726.60365421816, 17322.266676696145, 32213.065888055076, 11200.056815154174, 33712.264443905886, 16930.328837672336, 0.066, 1.022, 0.066, 192.0, 2.0, 16.0, 31.0, 240.0, 2.0, 16.0, 0.0, 0.0, 0.0, 1.6527834692798316E9, 0.0, 2022-05-17 12:31:09.279
68.0, 38691.94253587038, 60091.8826570371, -35697.50168293735, 17202.327215948968, 32041.9632842497, 11173.145314829984, 33691.2538041179, 16920.24820092299, 0.066, 1.022, 0.066, 192.0, 0.0, 0.0, 0.0, 0.0, 0.0, 0.0, 0.0, 0.0, 0.0, 1.6527834692798362E9, 0.0, 2022-05-17 12:31:09.279
69.0, 38702.06787610863, 60093.35787217115, -35658.67670281848, 16822.973409053495, 31883.109436405834, 11124.396160172959, 33686.22466161545, 16930.17237546115, 0.066, 1.022, 0.066, 192.0, 0.0, 0.0, 0.0, 0.0, 0.0, 0.0, 0.0, 0.0, 0.0, 1.652783469279841E9, 0.0, 2022-05-17 12:31:09.279
70.0, 38725.64896650898, 60094.56486637174, -35646.74087127935, 16664.76776179883, 31886.752770752046, 11129.49235790877, 33688.213966871976, 16935.69325634161, 0.066, 1.022, 0.066, 192.0, 0.0, 0.0, 0.0, 0.0, 0.0, 0.0, 0.0, 0.0, 0.0, 1.6527834692798457E9, 0.0, 2022-05-17 12:31:09.279
71.0, 38725.13487638651, 60078.44925861946, -35695.31121198073, 17001.586198995854, 32122.49661952217, 11175.49224799779, 33719.953443998515, 16928.048959737895, 0.066, 1.022, 0.066, 192.0, 0.0, 0.0, 0.0, 0.0, 0.0, 0.0, 0.0, 0.0, 0.0, 1.6527834692798502E9, 0.0, 2022-05-17 12:31:09.279
72.0, 38698.826873162616, 60076.6834708075, -35719.696965181465, 17318.578638861018, 32226.722803917266, 11213.55726880518, 33736.180810473066, 16940.141253488215, 0.066, 1.022, 0.066, 192.0, 0.0, 0.0, 0.0, 0.0, 0.0, 0.0, 0.0, 0.0, 0.0, 1.6527834692798548E9, 0.0, 2022-05-17 12:31:09.279
73.0, 38675.245782762264, 60081.22087493192, -35705.25773826334, 17203.91418980529, 32059.06236875801, 11175.961634631352, 33710.297490393816, 16923.10922421327, 0.066, 1.022, 0.066, 192.0, 0.0, 0.0, 0.0, 0.0, 0.0, 0.0, 0.0, 0.0, 0.0, 1.6527834692798595E9, 0.0, 2022-05-17 12:31:09.279
74.0, 38692.881309137505, 60091.346215170175, -35662.588258098156, 16826.348522466247, 31905.639994816782, 11121.691599093867, 33676.97103941096, 16921.231677679025, 0.066, 1.022, 0.066, 192.0, 0.0, 0.0, 0.0, 0.0, 0.0, 0.0, 0.0, 0.0, 0.0, 1.652783469279864E9, 0.0, 2022-05-17 12:31:09.279
75.0, 38723.10086764108, 60102.29856995327, -35644.50569683382, 16665.81829378823, 31893.435942344186, 11117.042436247164, 33690.8514727177, 16931.602887106288, 0.066, 1.022, 0.066, 192.0, 0.0, 0.0, 0.0, 0.0, 0.0, 0.0, 0.0, 0.0, 0.0, 1.6527834692798693E9, 0.0, 2022-05-17 12:31:09.279
76.0, 38726.83360896511, 60086.80881104575, -35683.8224153307, 17000.60272223982, 32129.671529492323, 11166.104515326562, 33725.96606325699, 16938.755445331986, 0.066, 1.022, 0.066, 192.0, 0.0, 0.0, 0.0, 0.0, 0.0, 0.0, 0.0, 0.0, 0.0, 1.6527834692798738E9, 0.0, 2022-05-17 12:31:09.279
77.0, 38697.01638186174, 60078.29279640828, -35719.987537859386, 17319.584467361507, 32228.71210917379, 11192.390166806003, 33721.763935299394, 16932.83223305133, 0.07, 1.024, 0.07200000000000001, 192.0, 2.0, 48.0, 32.0, 0.0, 2.0, 64.0, 0.0, 0.0, 0.0, 1.6527834692798784E9, 0.0, 2022-05-17 12:31:09.279
78.0, 38677.41390197443, 60088.194619201975, -35697.7252003819, 17204.49533516113, 32057.140118734853, 11172.74298342979, 33705.49186533593, 16931.87110803975, 0.07, 1.024, 0.07200000000000001, 192.0, 0.0, 0.0, 0.0, 0.0, 0.0, 0.0, 0.0, 0.0, 0.0, 1.6527834692798831E9, 0.0, 2022-05-17 12:31:09.279
79.0, 38682.666561921425, 60091.0332907478, -35667.01390350031, 16825.14152826566, 31894.665288289227, 11115.030779246186, 33680.25674584589, 16923.6456660802, 0.07, 1.024, 0.07200000000000001, 192.0, 0.0, 0.0, 0.0, 0.0, 0.0, 0.0, 0.0, 0.0, 0.0, 1.652783469279888E9, 0.0, 2022-05-17 12:31:09.279
80.0, 38710.85211167957, 60094.40840416055, -35655.77097603929, 16660.29741290777, 31878.370866581306, 11102.491450606758, 33670.42197828555, 16926.663151581663, 0.07, 1.024, 0.07200000000000001, 192.0, 0.0, 0.0, 0.0, 0.0, 0.0, 0.0, 0.0, 0.0, 0.0, 1.6527834692798927E9, 0.0, 2022-05-17 12:31:09.279
81.0, 38715.61303324855, 60085.199485444966, -35701.41323821703, 16989.896236645727, 32120.663776476835, 11157.566148944636, 33711.14685668312, 16930.35118941679, 0.07, 1.024, 0.07200000000000001, 192.0, 0.0, 0.0, 0.0, 0.0, 0.0, 0.0, 0.0, 0.0, 0.0, 1.6527834692798996E9, 0.0, 2022-05-17 12:31:09.279
82.0, 38692.4342742484, 60078.35985164164, -35732.97390138792, 17308.922685256326, 32235.171763321374, 11194.22300985134, 33731.82222030428, 16930.440596394612, 0.07, 1.024, 0.07200000000000001, 192.0, 0.0, 0.0, 0.0, 0.0, 0.0, 0.0, 0.0, 0.0, 0.0, 1.6527834692799044E9, 0.0, 2022-05-17 12:31:09.279
83.0, 38673.74821588376, 60084.97596800041, -35709.79514238777, 17193.63238735585, 32059.19647922474, 11178.196809076884, 33708.129371181654, 16931.625238850742, 0.07, 1.024, 0.07200000000000001, 192.0, 0.0, 0.0, 0.0, 0.0, 0.0, 0.0, 0.0, 0.0, 0.0, 1.65278346927991E9, 0.0, 2022-05-17 12:31:09.279
84.0, 38688.99210560228, 60098.834049562705, -35666.499813377835, 16820.268847974403, 31897.816884257423, 11133.15804399944, 33688.415132572074, 16925.322046914345, 0.07, 1.024, 0.07200000000000001, 192.0, 0.0, 0.0, 0.0, 0.0, 0.0, 0.0, 0.0, 0.0, 0.0, 1.6527834692799146E9, 0.0, 2022-05-17 12:31:09.279
85.0, 38715.63538499301, 60108.7358723564, -35656.77680453978, 16642.460720832434, 31883.668230017214, 11111.119223966507, 33679.675600490045, 16919.331779400323, 0.07, 1.024, 0.07200000000000001, 192.0, 0.0, 0.0, 0.0, 0.0, 0.0, 0.0, 0.0, 0.0, 0.0, 1.6527834692799191E9, 0.0, 2022-05-17 12:31:09.279
86.0, 38722.47501879633, 60105.94190429949, -35696.31704048122, 16975.278195771956, 32116.7298694527, 11162.461180980346, 33713.67260380657, 16924.316218413856, 0.07, 1.024, 0.07200000000000001, 192.0, 0.0, 0.0, 0.0, 0.0, 0.0, 0.0, 0.0, 0.0, 0.0, 1.6527834692799253E9, 0.0, 2022-05-17 12:31:09.279
87.0, 38694.133006827, 60093.313168682245, -35730.00111937537, 17303.29004565359, 32218.586768935536, 11193.97714066233, 33733.655063349615, 16921.96928524605, 0.062, 1.018, 0.07200000000000001, 192.0, 1.0, 240.0, 31.0, 208.0, 2.0, 64.0, 0.0, 0.0, 0.0, 1.65278346927993E9, 0.0, 2022-05-17 12:31:09.279
88.0, 38669.724901881804, 60090.94388376998, -35714.533712212295, 17201.410794426298, 32055.329627433974, 11179.694375955389, 33713.382031128654, 16925.366750403256, 0.062, 1.018, 0.07200000000000001, 192.0, 0.0, 0.0, 0.0, 0.0, 0.0, 0.0, 0.0, 0.0, 0.0, 1.6527834692799346E9, 0.0, 2022-05-17 12:31:09.279
89.0, 38679.49261420877, 60092.50850588185, -35678.54740363925, 16831.33296147978, 31902.019012215023, 11120.238735704272, 33690.62795527315, 16907.664168794654, 0.062, 1.018, 0.07200000000000001, 192.0, 0.0, 0.0, 0.0, 0.0, 0.0, 0.0, 0.0, 0.0, 0.0, 1.6527834692799392E9, 0.0, 2022-05-17 12:31:09.279
90.0, 38708.14755060048, 60100.55513388576, -35666.58922035566, 16644.025342944307, 31889.144407408767, 11109.800471043643, 33686.29171684882, 16912.559200830365, 0.062, 1.018, 0.07200000000000001, 192.0, 0.0, 0.0, 0.0, 0.0, 0.0, 0.0, 0.0, 0.0, 0.0, 1.652783469279944E9, 0.0, 2022-05-17 12:31:09.279
91.0, 38714.04841113668, 60087.27819767931, -35706.21886327492, 16961.710686887585, 32126.92226492432, 11162.058849580151, 33726.83778129075, 16924.96441900306, 0.062, 1.018, 0.07200000000000001, 192.0, 0.0, 0.0, 0.0, 0.0, 0.0, 0.0, 0.0, 0.0, 0.0, 1.6527834692799487E9, 0.0, 2022-05-17 12:31:09.279
92.0, 38684.52175671122, 60074.64946206206, -35741.15463985856, 17289.70018502476, 32231.841353397533, 11185.997567891785, 33728.02242374688, 16903.4396890926, 0.062, 1.018, 0.07200000000000001, 192.0, 0.0, 0.0, 0.0, 0.0, 0.0, 0.0, 0.0, 0.0, 0.0, 1.6527834692799532E9, 0.0, 2022-05-17 12:31:09.279
93.0, 38665.679236135395, 60081.46674412093, -35722.133305327094, 17198.79564032503, 32057.72126409069, 11167.467971738335, 33697.06525767628, 16911.531020585422, 0.062, 1.018, 0.07200000000000001, 192.0, 0.0, 0.0, 0.0, 0.0, 0.0, 0.0, 0.0, 0.0, 0.0, 1.6527834692799578E9, 0.0, 2022-05-17 12:31:09.279
94.0, 38673.6811606504, 60084.148953455566, -35685.96818279841, 16823.353388709234, 31880.78485498248, 11109.621657088, 33669.01381838487, 16915.219058420545, 0.062, 1.018, 0.07200000000000001, 192.0, 0.0, 0.0, 0.0, 0.0, 0.0, 0.0, 0.0, 0.0, 0.0, 1.6527834692799623E9, 0.0, 2022-05-17 12:31:09.279
95.0, 38698.44689350687, 60087.81463954624, -35664.08582497666, 16637.163357396526, 31863.86458442981, 11103.720796551801, 33671.919545164055, 16921.790471290406, 0.062, 1.018, 0.07200000000000001, 192.0, 0.0, 0.0, 0.0, 0.0, 0.0, 0.0, 0.0, 0.0, 0.0, 1.652783469279967E9, 0.0, 2022-05-17 12:31:09.279
96.0, 38707.32053605563, 60082.60668308815, -35701.21207251693, 16957.88853858573, 32102.424753001305, 11158.169646044928, 33701.53560656734, 16921.790471290406, 0.062, 1.018, 0.07200000000000001, 192.0, 0.0, 0.0, 0.0, 0.0, 0.0, 0.0, 0.0, 0.0, 0.0, 1.6527834692799716E9, 0.0, 2022-05-17 12:31:09.279
97.0, 38687.65100093496, 60088.686357579994, -35725.03903210629, 17306.46399336624, 32218.586768935536, 11206.069434412651, 33718.03119397535, 16928.227773693536, 0.066, 1.022, 0.066, 192.0, 2.0, 16.0, 31.0, 240.0, 2.0, 16.0, 0.0, 0.0, 0.0, 1.6527834692799764E9, 0.0, 2022-05-17 12:31:09.279
98.0, 38670.61897166002, 60099.90693329656, -35701.68145915049, 17223.963704581703, 32059.308237947018, 11189.372681304536, 33708.688164793035, 16934.709779585573, 0.066, 1.022, 0.066, 192.0, 0.0, 0.0, 0.0, 0.0, 0.0, 0.0, 0.0, 0.0, 0.0, 1.652783469279981E9, 0.0, 2022-05-17 12:31:09.279
99.0, 38692.0319428482, 60114.212049747955, -35656.82150802869, 16850.734275666986, 31900.49909359206, 11139.796512102666, 33684.48122554794, 16933.100453984793, 0.066, 1.022, 0.066, 192.0, 0.0, 0.0, 0.0, 0.0, 0.0, 0.0, 0.0, 0.0, 0.0, 1.6527834692799857E9, 0.0, 2022-05-17 12:31:09.279
100.0, 38714.9871844038, 60117.60951490516, -35646.00326371232, 16669.90866302355, 31904.36594538283, 11131.526366654201, 33698.562824554785, 16940.856509310783, 0.066, 1.022, 0.066, 192.0, 0.0, 0.0, 0.0, 0.0, 0.0, 0.0, 0.0, 0.0, 0.0, 1.65278346927999E9, 0.0, 2022-05-17 12:31:09.279
101.0, 38701.17380633042, 60085.91474126754, -35697.456979448434, 16976.55224520591, 32145.675378522323, 11164.651651936967, 33724.04381323383, 16934.553317374386, 0.066, 1.022, 0.066, 192.0, 0.0, 0.0, 0.0, 0.0, 0.0, 0.0, 0.0, 0.0, 0.0, 1.6527834692799947E9, 0.0, 2022-05-17 12:31:09.279
102.0, 38663.80168960115, 60068.770953270316, -35736.8854566676, 17304.206467176256, 32251.220315840284, 11198.35808257557, 33723.507371366904, 16928.71951207155, 0.066, 1.022, 0.066, 192.0, 0.0, 0.0, 0.0, 0.0, 0.0, 0.0, 0.0, 0.0, 0.0, 1.6527834692799997E9, 0.0, 2022-05-17 12:31:09.279
103.0, 38642.612235857516, 60080.013880731334, -35716.05363083525, 17201.03081477056, 32065.522022905592, 11185.908160913965, 33697.8028652433, 16928.630105093733, 0.066, 1.022, 0.066, 192.0, 0.0, 0.0, 0.0, 0.0, 0.0, 0.0, 0.0, 0.0, 0.0, 1.6527834692800045E9, 0.0, 2022-05-17 12:31:09.280
104.0, 38660.27011397721, 60090.1839244585, -35672.087749491664, 16835.400978970647, 31900.25322440305, 11131.951049798852, 33683.72126623646, 16926.774910303942, 0.066, 1.022, 0.066, 192.0, 0.0, 0.0, 0.0, 0.0, 0.0, 0.0, 0.0, 0.0, 0.0, 1.6527834692800093E9, 0.0, 2022-05-17 12:31:09.280
105.0, 38685.192309044876, 60092.463802392944, -35657.80498478472, 16655.558843083243, 31885.63518352928, 11108.548773354147, 33676.34519056621, 16924.53973585841, 0.066, 1.022, 0.066, 192.0, 0.0, 0.0, 0.0, 0.0, 0.0, 0.0, 0.0, 0.0, 0.0, 1.6527834692800138E9, 0.0, 2022-05-17 12:31:09.280
106.0, 38685.57228870062, 60073.5318748393, -35700.966203327924, 16965.30931774489, 32114.427639773807, 11150.63710816349, 33720.7581067989, 16925.21028819207, 0.074, 1.024, 0.064, 192.0, 2.0, 80.0, 32.0, 0.0, 2.0, 0.0, 0.0, 0.0, 0.0, 1.6527834692800183E9, 0.0, 2022-05-17 12:31:09.280
107.0, 38658.25845697623, 60070.35792712664, -35729.911712397545, 17309.347368400977, 32229.449716740815, 11202.068472155152, 33732.26925519339, 16929.63593359422, 0.074, 1.024, 0.064, 192.0, 0.0, 0.0, 0.0, 0.0, 0.0, 0.0, 0.0, 0.0, 0.0, 1.6527834692800248E9, 0.0, 2022-05-17 12:31:09.280
108.0, 38642.947512024344, 60083.70191856646, -35705.436552218984, 17224.813070871005, 32064.337380449462, 11201.442623310402, 33700.68624027804, 16923.712721313565, 0.074, 1.024, 0.064, 192.0, 0.0, 0.0, 0.0, 0.0, 0.0, 0.0, 0.0, 0.0, 0.0, 1.6527834692800295E9, 0.0, 2022-05-17 12:31:09.280
109.0, 38653.49753540725, 60086.875866279115, -35663.974066254385, 16851.4271797451, 31905.751753539058, 11142.232852248295, 33682.402513313595, 16924.40562539168, 0.074, 1.024, 0.064, 192.0, 0.0, 0.0, 0.0, 0.0, 0.0, 0.0, 0.0, 0.0, 0.0, 1.652783469280034E9, 0.0, 2022-05-17 12:31:09.280
110.0, 38680.878422365, 60090.04981399177, -35647.6125893131, 16657.034058217294, 31892.899500477255, 11121.19986071585, 33692.550205296306, 16935.514442385967, 0.074, 1.024, 0.064, 192.0, 0.0, 0.0, 0.0, 0.0, 0.0, 0.0, 0.0, 0.0, 0.0, 1.6527834692800388E9, 0.0, 2022-05-17 12:31:09.280
111.0, 38690.73554166979, 60087.25584593485, -35687.51045316583, 16962.69416364362, 32119.188561342784, 11170.6866229399, 33719.752278298416, 16941.63882036672, 0.074, 1.024, 0.064, 192.0, 0.0, 0.0, 0.0, 0.0, 0.0, 0.0, 0.0, 0.0, 0.0, 1.6527834692800431E9, 0.0, 2022-05-17 12:31:09.280
112.0, 38663.95815181234, 60080.95265399846, -35721.26158729334, 17303.826487520517, 32239.32918779006, 11209.779823992232, 33721.92039751058, 16933.860413296272, 0.074, 1.024, 0.064, 192.0, 0.0, 0.0, 0.0, 0.0, 0.0, 0.0, 0.0, 0.0, 0.0, 1.652783469280048E9, 0.0, 2022-05-17 12:31:09.280
113.0, 38641.561703868116, 60082.29375866578, -35705.16833128552, 17213.97247481018, 32075.15562476583, 11186.578713247623, 33718.45587712, 16933.05575049588, 0.074, 1.024, 0.064, 192.0, 0.0, 0.0, 0.0, 0.0, 0.0, 0.0, 0.0, 0.0, 0.0, 1.652783469280053E9, 0.0, 2022-05-17 12:31:09.280
114.0, 38659.42074768791, 60093.20140995996, -35665.49398487735, 16844.565194197323, 31906.779933784, 11130.073503264608, 33696.21589138697, 16924.53973585841, 0.074, 1.024, 0.064, 192.0, 0.0, 0.0, 0.0, 0.0, 0.0, 0.0, 0.0, 0.0, 0.0, 1.6527834692800574E9, 0.0, 2022-05-17 12:31:09.280
115.0, 38689.2826782802, 60098.208200717956, -35651.1665166815, 16657.25757566185, 31893.011259199535, 11116.841270547066, 33686.06819940427, 16928.272477182447, 0.074, 1.024, 0.064, 192.0, 0.0, 0.0, 0.0, 0.0, 0.0, 0.0, 0.0, 0.0, 0.0, 1.6527834692800622E9, 0.0, 2022-05-17 12:31:09.280
116.0, 38702.89489065348, 60089.06633723573, -35692.07020903471, 16961.531872931944, 32118.96504389823, 11164.361079259048, 33715.57250208527, 16930.3958929057, 0.07200000000000001, 1.022, 0.07200000000000001, 192.0, 2.0, 64.0, 31.0, 240.0, 2.0, 64.0, 0.0, 0.0, 0.0, 1.6527834692800667E9, 0.0, 2022-05-17 12:31:09.280
117.0, 38686.89104162348, 60080.41621213153, -35724.390831517085, 17302.775955531117, 32242.70430120281, 11207.343483846604, 33733.45389764952, 16932.474605140043, 0.07200000000000001, 1.022, 0.07200000000000001, 192.0, 0.0, 0.0, 0.0, 0.0, 0.0, 0.0, 0.0, 0.0, 0.0, 1.6527834692800715E9, 0.0, 2022-05-17 12:31:09.280
118.0, 38682.666561921425, 60096.95650302846, -35712.365593000126, 17211.759652109107, 32078.843662600957, 11182.801268434676, 33711.61624331668, 16930.01591324996, 0.07200000000000001, 1.022, 0.07200000000000001, 192.0, 0.0, 0.0, 0.0, 0.0, 0.0, 0.0, 0.0, 0.0, 0.0, 1.6527834692800765E9, 0.0, 2022-05-17 12:31:09.280
119.0, 38701.01734411924, 60111.50748866886, -35677.832147816676, 16843.6264209302, 31911.429096630705, 11122.473910149803, 33682.44721680251, 16920.896401512196, 0.07200000000000001, 1.022, 0.07200000000000001, 192.0, 0.0, 0.0, 0.0, 0.0, 0.0, 0.0, 0.0, 0.0, 0.0, 1.6527834692800813E9, 0.0, 2022-05-17 12:31:09.280
120.0, 38704.4371610209, 60101.47155540843, -35657.983798740366, 16646.998124956863, 31892.20659639914, 11113.130880967485, 33682.31310633577, 16928.96538126056, 0.07200000000000001, 1.022, 0.07200000000000001, 192.0, 0.0, 0.0, 0.0, 0.0, 0.0, 0.0, 0.0, 0.0, 0.0, 1.6527834692800858E9, 0.0, 2022-05-17 12:31:09.280
121.0, 38702.134931342, 60084.95361625596, -35697.85931084863, 16948.389047192224, 32133.672491749825, 11157.901425111464, 33723.55207485582, 16930.082968483326, 0.07200000000000001, 1.022, 0.07200000000000001, 192.0, 0.0, 0.0, 0.0, 0.0, 0.0, 0.0, 0.0, 0.0, 0.0, 1.6527834692800903E9, 0.0, 2022-05-17 12:31:09.280
122.0, 38692.99306785978, 60096.66593035054, -35723.65322395006, 17301.971292730726, 32253.276676330173, 11214.518393816757, 33728.04477549133, 16939.40364592119, 0.07200000000000001, 1.022, 0.07200000000000001, 192.0, 0.0, 0.0, 0.0, 0.0, 0.0, 0.0, 0.0, 0.0, 0.0, 1.652783469280095E9, 0.0, 2022-05-17 12:31:09.280
123.0, 38687.60629744605, 60114.74849161488, -35700.139188783076, 17243.007390857627, 32082.35288648044, 11205.868268712553, 33716.667737563585, 16945.72918960204, 0.07200000000000001, 1.022, 0.07200000000000001, 192.0, 0.0, 0.0, 0.0, 0.0, 0.0, 0.0, 0.0, 0.0, 0.0, 1.6527834697587707E9, 0.0, 2022-05-17 12:31:09.758
124.0, 38699.54212898519, 60120.939924829, -35660.64365633055, 16878.33868006929, 31920.16862871273, 11158.080239067107, 33709.06814444878, 16943.73988434552, 0.07200000000000001, 1.022, 0.07200000000000001, 192.0, 0.0, 0.0, 0.0, 0.0, 0.0, 0.0, 0.0, 0.0, 0.0, 1.6527834697589152E9, 0.0, 2022-05-17 12:31:09.758
125.0, 38730.16401888896, 60125.9914190759, -35646.45029860143, 16673.01555550284, 31897.235738901585, 11142.590480159579, 33707.078839192254, 16945.863300068773, 0.07200000000000001, 1.022, 0.07200000000000001, 192.0, 0.0, 0.0, 0.0, 0.0, 0.0, 0.0, 0.0, 0.0, 0.0, 1.652783469758921E9, 0.0, 2022-05-17 12:31:09.758
126.0, 38744.35737661808, 60115.19552650399, -35688.33746771067, 16972.663041670687, 32118.272139820117, 11182.957730645863, 33733.56565637179, 16946.377390191246, 0.07, 1.02, 0.07, 192.0, 2.0, 48.0, 31.0, 224.0, 2.0, 48.0, 0.0, 0.0, 0.0, 1.652783469758927E9, 0.0, 2022-05-17 12:31:09.758
127.0, 38740.199952149385, 60122.1916225185, -35715.56189245723, 17317.706920827262, 32239.128022089964, 11229.248193412805, 33743.95921754351, 16942.242317467015, 0.07, 1.02, 0.07, 192.0, 0.0, 0.0, 0.0, 0.0, 0.0, 0.0, 0.0, 0.0, 0.0, 1.6527834697589333E9, 0.0, 2022-05-17 12:31:09.758
128.0, 38721.17861761792, 60128.606573177174, -35696.20528175894, 17255.54671949705, 32088.58902318347, 11220.240440397316, 33731.755165070914, 16947.807901836386, 0.07, 1.02, 0.07, 192.0, 0.0, 0.0, 0.0, 0.0, 0.0, 0.0, 0.0, 0.0, 0.0, 1.6527834697589705E9, 0.0, 2022-05-17 12:31:09.758
129.0, 38728.13001014352, 60130.081788311225, -35663.12469996508, 16870.560272998842, 31922.783782814004, 11153.654593664956, 33701.87088273417, 16946.042114024414, 0.07, 1.02, 0.07, 192.0, 0.0, 0.0, 0.0, 0.0, 0.0, 0.0, 0.0, 0.0, 0.0, 1.652783469758975E9, 0.0, 2022-05-17 12:31:09.758
130.0, 38755.779118034734, 60131.78052088983, -35650.60772307011, 16645.634668545088, 31889.256166131043, 11121.088101993573, 33687.6998767495, 16933.547488873897, 0.07, 1.02, 0.07, 192.0, 0.0, 0.0, 0.0, 0.0, 0.0, 0.0, 0.0, 0.0, 0.0, 1.65278346975898E9, 0.0, 2022-05-17 12:31:09.758
131.0, 38769.61484785257, 60125.36557023115, -35687.71161886593, 16950.06542802637, 32118.182732842295, 11171.40187876247, 33723.999109744924, 16934.620372607755, 0.07, 1.02, 0.07, 192.0, 0.0, 0.0, 0.0, 0.0, 0.0, 0.0, 0.0, 0.0, 0.0, 1.6527834697589846E9, 0.0, 2022-05-17 12:31:09.758
132.0, 38751.86756275506, 60118.34712247219, -35725.55312222876, 17304.877019509917, 32244.850068670523, 11210.830355981632, 33736.20316221752, 16927.11018647077, 0.07, 1.02, 0.07, 192.0, 0.0, 0.0, 0.0, 0.0, 0.0, 0.0, 0.0, 0.0, 0.0, 1.6527834697589896E9, 0.0, 2022-05-17 12:31:09.758
133.0, 38735.52843755823, 60126.438453965005, -35702.866101606625, 17240.07931233398, 32081.704685891236, 11203.163707633461, 33720.46753412098, 16940.118901743757, 0.07, 1.02, 0.07, 192.0, 0.0, 0.0, 0.0, 0.0, 0.0, 0.0, 0.0, 0.0, 0.0, 1.6527834697589943E9, 0.0, 2022-05-17 12:31:09.758
134.0, 38742.926864972935, 60131.42289297854, -35662.945886009446, 16876.14820911267, 31916.994681000077, 11144.356267971549, 33694.89713846411, 16939.02366626545, 0.07, 1.02, 0.07, 192.0, 0.0, 0.0, 0.0, 0.0, 0.0, 0.0, 0.0, 0.0, 0.0, 1.652783469758999E9, 0.0, 2022-05-17 12:31:09.758
135.0, 38769.86071704158, 60130.46176796696, -35653.491098104845, 16652.67546804851, 31903.49422734907, 11121.445729904859, 33686.47053080446, 16927.91484927116, 0.07, 1.02, 0.07, 192.0, 0.0, 0.0, 0.0, 0.0, 0.0, 0.0, 0.0, 0.0, 0.0, 1.6527834697590039E9, 0.0, 2022-05-17 12:31:09.759
136.0, 38781.90830730299, 60117.18483176051, -35694.394790458064, 16939.470701154554, 32118.294491564575, 11169.300814783672, 33715.57250208527, 16928.07131148235, 0.068, 1.02, 0.07200000000000001, 192.0, 2.0, 32.0, 31.0, 224.0, 2.0, 64.0, 0.0, 0.0, 0.0, 1.6527834697590086E9, 0.0, 2022-05-17 12:31:09.759
137.0, 38765.88210652854, 60113.25092473638, -35729.21880831943, 17296.1821909168, 32244.447737270326, 11212.953771704886, 33729.028252247364, 16932.094625484304, 0.068, 1.02, 0.07200000000000001, 192.0, 0.0, 0.0, 0.0, 0.0, 0.0, 0.0, 0.0, 0.0, 0.0, 1.6527834697590132E9, 0.0, 2022-05-17 12:31:09.759
138.0, 38763.51282161627, 60139.06718958225, -35700.407409716536, 17240.280478034078, 32092.858206374432, 11209.913934458964, 33728.98354875846, 16942.77875933394, 0.068, 1.02, 0.07200000000000001, 192.0, 0.0, 0.0, 0.0, 0.0, 0.0, 0.0, 0.0, 0.0, 0.0, 1.6527834697590182E9, 0.0, 2022-05-17 12:31:09.759
139.0, 38774.68869384393, 60145.32567802974, -35669.58435411267, 16882.54080802689, 31936.46305042065, 11153.162855286939, 33706.92237698107, 16945.77389309095, 0.068, 1.02, 0.07200000000000001, 192.0, 0.0, 0.0, 0.0, 0.0, 0.0, 0.0, 0.0, 0.0, 0.0, 1.6527834697590227E9, 0.0, 2022-05-17 12:31:09.759
140.0, 38791.67601962996, 60140.14007331611, -35663.43762438746, 16659.04571521827, 31913.88778852079, 11133.828596333098, 33698.47341757696, 16944.052808767894, 0.068, 1.02, 0.07200000000000001, 192.0, 0.0, 0.0, 0.0, 0.0, 0.0, 0.0, 0.0, 0.0, 0.0, 1.6527834697590275E9, 0.0, 2022-05-17 12:31:09.759
141.0, 38799.16385402249, 60129.18771853301, -35704.43072371849, 16937.839023809316, 32128.88921843639, 11179.202637577371, 33724.78142080086, 16926.998427748495, 0.068, 1.02, 0.07200000000000001, 192.0, 0.0, 0.0, 0.0, 0.0, 0.0, 0.0, 0.0, 0.0, 0.0, 1.6527834697590322E9, 0.0, 2022-05-17 12:31:09.759
142.0, 38781.237754969334, 60123.488023696904, -35732.0351281208, 17298.193847917777, 32255.936533920354, 11209.757472247777, 33730.77168831488, 16922.95276200208, 0.068, 1.02, 0.07200000000000001, 192.0, 0.0, 0.0, 0.0, 0.0, 0.0, 0.0, 0.0, 0.0, 0.0, 1.652783469759037E9, 0.0, 2022-05-17 12:31:09.759
143.0, 38761.81408903767, 60129.791215633304, -35708.722258653914, 17236.771254154595, 32092.43352322978, 11192.278408083726, 33702.407324601096, 16925.098529469793, 0.068, 1.02, 0.07200000000000001, 192.0, 0.0, 0.0, 0.0, 0.0, 0.0, 0.0, 0.0, 0.0, 0.0, 1.6527834697590418E9, 0.0, 2022-05-17 12:31:09.759
144.0, 38771.82767055365, 60140.90003262759, -35669.42789190148, 16874.829456189807, 31923.588445614394, 11141.964631314831, 33678.625068500645, 16914.68261655362, 0.068, 1.02, 0.07200000000000001, 192.0, 0.0, 0.0, 0.0, 0.0, 0.0, 0.0, 0.0, 0.0, 0.0, 1.6527834697590468E9, 0.0, 2022-05-17 12:31:09.759
145.0, 38795.60992665409, 60142.017619850354, -35652.798194026735, 16657.726962295408, 31897.36984936832, 11133.046285277163, 33675.272306832354, 16917.230715421523, 0.068, 1.02, 0.07200000000000001, 192.0, 0.0, 0.0, 0.0, 0.0, 0.0, 0.0, 0.0, 0.0, 0.0, 1.6527834697590516E9, 0.0, 2022-05-17 12:31:09.759
146.0, 38807.165778537485, 60132.316962756755, -35687.48810142137, 16940.320067443856, 32119.50148576516, 11170.418402006437, 33711.48213284995, 16916.716625299054, 0.064, 1.022, 0.066, 192.0, 2.0, 0.0, 31.0, 240.0, 2.0, 16.0, 0.0, 0.0, 0.0, 1.6527834697590563E9, 0.0, 2022-05-17 12:31:09.759
147.0, 38785.1046067601, 60125.47732895343, -35720.00988960384, 17293.164705415333, 32245.47591751527, 11213.669027527456, 33724.58025510076, 16913.989712475504, 0.064, 1.022, 0.066, 192.0, 0.0, 0.0, 0.0, 0.0, 0.0, 0.0, 0.0, 0.0, 0.0, 1.652783469759061E9, 0.0, 2022-05-17 12:31:09.759
148.0, 38766.88793502902, 60139.313058771266, -35696.65231664805, 17235.74307390965, 32097.73088666569, 11202.291989599704, 33708.7552200264, 16923.712721313565, 0.064, 1.022, 0.066, 192.0, 0.0, 0.0, 0.0, 0.0, 0.0, 0.0, 0.0, 0.0, 0.0, 1.6527834697590656E9, 0.0, 2022-05-17 12:31:09.759
149.0, 38783.539984648225, 60153.55111998929, -35645.802098012224, 16893.314348854346, 31943.526201668526, 11159.019012334229, 33697.020554187366, 16931.915811528663, 0.064, 1.022, 0.066, 192.0, 0.0, 0.0, 0.0, 0.0, 0.0, 0.0, 0.0, 0.0, 0.0, 1.65278346975907E9, 0.0, 2022-05-17 12:31:09.759
150.0, 38806.94226109293, 60152.43353276653, -35630.15587689351, 16673.708459580954, 31904.343593638372, 11137.226061490306, 33690.67265876206, 16926.73020681503, 0.064, 1.022, 0.066, 192.0, 0.0, 0.0, 0.0, 0.0, 0.0, 0.0, 0.0, 0.0, 0.0, 1.6527834697590773E9, 0.0, 2022-05-17 12:31:09.759
151.0, 38815.90531061951, 60143.626945451135, -35668.13149072308, 16948.143178003214, 32121.26727357713, 11173.659404952456, 33732.64923484912, 16923.511555613466, 0.064, 1.022, 0.066, 192.0, 0.0, 0.0, 0.0, 0.0, 0.0, 0.0, 0.0, 0.0, 0.0, 1.6527834697590823E9, 0.0, 2022-05-17 12:31:09.759
152.0, 38796.01225805429, 60137.50256747039, -35700.07213354971, 17317.28223768261, 32267.76060673721, 11227.527109089746, 33731.53164762636, 16936.810843564373, 0.064, 1.022, 0.066, 192.0, 0.0, 0.0, 0.0, 0.0, 0.0, 0.0, 0.0, 0.0, 0.0, 1.6527834697590876E9, 0.0, 2022-05-17 12:31:09.759
153.0, 38772.431167653944, 60142.799930906294, -35684.40356068654, 17271.885844693883, 32125.894084679378, 11223.07911194314, 33720.3110719098, 16942.421131422656, 0.064, 1.022, 0.066, 192.0, 0.0, 0.0, 0.0, 0.0, 0.0, 0.0, 0.0, 0.0, 0.0, 1.652783469759092E9, 0.0, 2022-05-17 12:31:09.759
154.0, 38770.01717925277, 60139.17894830453, -35655.34629289464, 16904.937255971105, 31962.547536199992, 11151.575881430612, 33695.45593207549, 16928.205421949082, 0.064, 1.022, 0.066, 192.0, 0.0, 0.0, 0.0, 0.0, 0.0, 0.0, 0.0, 0.0, 0.0, 1.6527834697590969E9, 0.0, 2022-05-17 12:31:09.759
155.0, 38790.91606031848, 60142.866986139656, -35641.66702528799, 16666.891177522084, 31917.68758507819, 11130.92286955391, 33685.37529532615, 16922.751596301987, 0.064, 1.022, 0.066, 192.0, 0.0, 0.0, 0.0, 0.0, 0.0, 0.0, 0.0, 0.0, 0.0, 1.6527834697591014E9, 0.0, 2022-05-17 12:31:09.759
156.0, 38809.691525660935, 60141.43647449452, -35674.79231057076, 16941.30354419989, 32110.717250194222, 11180.63314922251, 33715.550150340816, 16928.96538126056, 0.07, 1.022, 0.07200000000000001, 192.0, 2.0, 48.0, 31.0, 240.0, 2.0, 64.0, 0.0, 0.0, 0.0, 1.6527834697591064E9, 0.0, 2022-05-17 12:31:09.759
157.0, 38786.49041491633, 60130.059436566764, -35709.996308087866, 17309.034443978602, 32257.568211265592, 11221.626248553544, 33732.78334531586, 16931.96051501757, 0.07, 1.022, 0.07200000000000001, 192.0, 0.0, 0.0, 0.0, 0.0, 0.0, 0.0, 0.0, 0.0, 0.0, 1.652783469759111E9, 0.0, 2022-05-17 12:31:09.759
158.0, 38762.59640009361, 60131.86992786764, -35693.54542416876, 17264.80034170155, 32110.56078798304, 11203.387225078015, 33720.154609698606, 16924.807956791872, 0.07, 1.022, 0.07200000000000001, 192.0, 0.0, 0.0, 0.0, 0.0, 0.0, 0.0, 0.0, 0.0, 0.0, 1.6527834697591157E9, 0.0, 2022-05-17 12:31:09.759
159.0, 38769.16781296347, 60133.25573602388, -35655.10042370563, 16909.184087417612, 31945.426099947228, 11164.785762403699, 33689.84564421721, 16926.596096348298, 0.07, 1.022, 0.07200000000000001, 192.0, 0.0, 0.0, 0.0, 0.0, 0.0, 0.0, 0.0, 0.0, 0.0, 1.6527834697591207E9, 0.0, 2022-05-17 12:31:09.759
160.0, 38783.74115034832, 60126.88548885411, -35640.54943806522, 16670.467456634935, 31907.428134373207, 11143.886881337987, 33677.46277778897, 16920.896401512196, 0.07, 1.022, 0.07200000000000001, 192.0, 0.0, 0.0, 0.0, 0.0, 0.0, 0.0, 0.0, 0.0, 0.0, 1.6527834697591257E9, 0.0, 2022-05-17 12:31:09.759
161.0, 38783.71879860387, 60112.401558447076, -35681.56488914071, 16944.946878546107, 32135.59474177298, 11186.243437080793, 33731.755165070914, 16930.53000337243, 0.07, 1.022, 0.07200000000000001, 192.0, 0.0, 0.0, 0.0, 0.0, 0.0, 0.0, 0.0, 0.0, 0.0, 1.6527834697591305E9, 0.0, 2022-05-17 12:31:09.759
162.0, 38768.787833307724, 60113.04975903628, -35715.517188968326, 17305.391109632386, 32279.450569087337, 11237.741856305822, 33739.935903541555, 16931.625238850742, 0.07, 1.022, 0.07200000000000001, 192.0, 0.0, 0.0, 0.0, 0.0, 0.0, 0.0, 0.0, 0.0, 0.0, 1.6527834697591355E9, 0.0, 2022-05-17 12:31:09.759
163.0, 38751.26406565477, 60122.23632600741, -35697.76990387081, 17264.286251579077, 32119.881465420898, 11228.152957934495, 33712.30914739479, 16931.602887106288, 0.07, 1.022, 0.07200000000000001, 192.0, 0.0, 0.0, 0.0, 0.0, 0.0, 0.0, 0.0, 0.0, 0.0, 1.6527834697591407E9, 0.0, 2022-05-17 12:31:09.759
164.0, 38767.2008594514, 60136.25086978089, -35654.25105741633, 16915.911962498663, 31946.856611592368, 11178.06269861015, 33705.111885680184, 16936.564974375364, 0.07, 1.022, 0.07200000000000001, 192.0, 0.0, 0.0, 0.0, 0.0, 0.0, 0.0, 0.0, 0.0, 0.0, 1.652783469759146E9, 0.0, 2022-05-17 12:31:09.759
165.0, 38793.35240046411, 60138.128416315136, -35643.790441011246, 16683.34206144119, 31917.709936822648, 11159.39899198997, 33711.63859506114, 16934.86624179676, 0.07, 1.022, 0.07200000000000001, 192.0, 0.0, 0.0, 0.0, 0.0, 0.0, 0.0, 0.0, 0.0, 0.0, 1.6527834697591505E9, 0.0, 2022-05-17 12:31:09.759
166.0, 38791.228984740854, 60116.17900326002, -35696.58526141468, 16936.095587741806, 32120.127334609908, 11193.843030195598, 33722.76976379988, 16919.555296844876, 0.07200000000000001, 1.022, 0.07, 192.0, 2.0, 64.0, 31.0, 240.0, 2.0, 48.0, 0.0, 0.0, 0.0, 1.6527834697591553E9, 0.0, 2022-05-17 12:31:09.759
167.0, 38773.973438021356, 60112.84859333618, -35726.60365421816, 17310.934342257304, 32262.06091190111, 11241.385190652036, 33731.553999370815, 16920.851698023285, 0.07200000000000001, 1.022, 0.07, 192.0, 0.0, 0.0, 0.0, 0.0, 0.0, 0.0, 0.0, 0.0, 0.0, 1.6527834697591596E9, 0.0, 2022-05-17 12:31:09.759
168.0, 38762.350530904594, 60128.740683643904, -35696.697020136955, 17277.049097663057, 32105.889273391876, 11237.093655716617, 33713.53849333984, 16928.428939393634, 0.07200000000000001, 1.022, 0.07, 192.0, 0.0, 0.0, 0.0, 0.0, 0.0, 0.0, 0.0, 0.0, 0.0, 1.6527834697591643E9, 0.0, 2022-05-17 12:31:09.759
169.0, 38767.29026642922, 60128.71833189945, -35660.263676674804, 16923.01981723545, 31938.87703882182, 11173.033556107708, 33686.314068593274, 16915.241410165003, 0.07200000000000001, 1.022, 0.07, 192.0, 0.0, 0.0, 0.0, 0.0, 0.0, 0.0, 0.0, 0.0, 0.0, 1.6527834697591696E9, 0.0, 2022-05-17 12:31:09.759
170.0, 38792.48068243035, 60130.059436566764, -35644.79626951173, 16676.435372404503, 31895.872282489814, 11152.469951208825, 33688.88451920563, 16920.628180578733, 0.07200000000000001, 1.022, 0.07, 192.0, 0.0, 0.0, 0.0, 0.0, 0.0, 0.0, 0.0, 0.0, 0.0, 1.6527834697591748E9, 0.0, 2022-05-17 12:31:09.759
171.0, 38817.53698796475, 60139.46952098245, -35666.81273780021, 16946.01976227996, 32105.911625136334, 11208.684588513923, 33737.231342462466, 16942.331724444834, 0.07200000000000001, 1.022, 0.07, 192.0, 0.0, 0.0, 0.0, 0.0, 0.0, 0.0, 0.0, 0.0, 0.0, 1.652783469759182E9, 0.0, 2022-05-17 12:31:09.759
172.0, 38793.06182778619, 60128.606573177174, -35706.978822586396, 17319.04802549458, 32255.86947868699, 11242.122798219061, 33738.63950236315, 16935.603849363786, 0.07200000000000001, 1.022, 0.07, 192.0, 0.0, 0.0, 0.0, 0.0, 0.0, 0.0, 0.0, 0.0, 0.0, 1.6527834697591865E9, 0.0, 2022-05-17 12:31:09.759
173.0, 38781.14834799151, 60138.93307911552, -35684.94000255346, 17289.09668792447, 32113.377107784407, 11243.955641264396, 33718.67939456456, 16942.86816631176, 0.07200000000000001, 1.022, 0.07, 192.0, 0.0, 0.0, 0.0, 0.0, 0.0, 0.0, 0.0, 0.0, 0.0, 1.6527834697591908E9, 0.0, 2022-05-17 12:31:09.759
174.0, 38781.75184509181, 60135.78148314732, -35654.65338881652, 16931.53583187292, 31943.123870268333, 11181.97425388983, 33695.43358033104, 16924.83030853633, 0.07200000000000001, 1.022, 0.07, 192.0, 0.0, 0.0, 0.0, 0.0, 0.0, 0.0, 0.0, 0.0, 0.0, 1.6527834697591956E9, 0.0, 2022-05-17 12:31:09.759
175.0, 38801.175511023466, 60136.13911105861, -35640.79530725424, 16684.884331808607, 31901.75079128156, 11162.662346680445, 33694.09247566372, 16925.50086086999, 0.07200000000000001, 1.022, 0.07, 192.0, 0.0, 0.0, 0.0, 0.0, 0.0, 0.0, 0.0, 0.0, 0.0, 1.6527834697592003E9, 0.0, 2022-05-17 12:31:09.759
176.0, 38812.574900695676, 60130.86409936716, -35678.23447921687, 16942.331724444834, 32106.090439091975, 11211.947943204397, 33726.34604291273, 16930.261782438967, 0.07200000000000001, 1.022, 0.076, 192.0, 2.0, 64.0, 31.0, 240.0, 2.0, 96.0, 0.0, 0.0, 0.0, 1.652783469759205E9, 0.0, 2022-05-17 12:31:09.759
177.0, 38793.03947604173, 60120.33642772871, -35717.7300116694, 17306.598103832974, 32251.24266758474, 11244.670897086966, 33739.242999463444, 16925.478509125533, 0.07200000000000001, 1.022, 0.076, 192.0, 0.0, 0.0, 0.0, 0.0, 0.0, 0.0, 0.0, 0.0, 0.0, 1.65278346975921E9, 0.0, 2022-05-17 12:31:09.759
178.0, 38779.60607762409, 60134.70859941347, -35693.59012765767, 17276.155027884844, 32112.237168817184, 11242.882757530542, 33732.69393833804, 16946.556204146887, 0.07200000000000001, 1.022, 0.076, 192.0, 0.0, 0.0, 0.0, 0.0, 0.0, 0.0, 0.0, 0.0, 0.0, 1.6527834697592154E9, 0.0, 2022-05-17 12:31:09.759
179.0, 38787.02685678325, 60141.7941024058, -35654.58633358316, 16928.36188416027, 31945.403748202774, 11189.238570837804, 33716.28775790784, 16936.497919142, 0.07200000000000001, 1.022, 0.076, 192.0, 0.0, 0.0, 0.0, 0.0, 0.0, 0.0, 0.0, 0.0, 0.0, 1.6527834697592201E9, 0.0, 2022-05-17 12:31:09.759
180.0, 38806.338763992644, 60140.52005297185, -35643.365757866595, 16680.525741639824, 31910.713840808137, 11155.912119854942, 33717.24888291942, 16926.01495099246, 0.07200000000000001, 1.022, 0.076, 192.0, 0.0, 0.0, 0.0, 0.0, 0.0, 0.0, 0.0, 0.0, 0.0, 1.6527834697592251E9, 0.0, 2022-05-17 12:31:09.759
181.0, 38815.68179317496, 60127.556041187774, -35681.0731507627, 16933.703951085085, 32117.087497363987, 11198.983931420318, 33740.20412447502, 16922.930410257628, 0.07200000000000001, 1.022, 0.076, 192.0, 0.0, 0.0, 0.0, 0.0, 0.0, 0.0, 0.0, 0.0, 0.0, 1.6527834697592301E9, 0.0, 2022-05-17 12:31:09.759
182.0, 38798.04626679972, 60121.94575332949, -35720.345165770676, 17307.38041488891, 32267.022999170185, 11243.21803369737, 33738.751261085425, 16918.460061366568, 0.07200000000000001, 1.022, 0.076, 192.0, 0.0, 0.0, 0.0, 0.0, 0.0, 0.0, 0.0, 0.0, 0.0, 1.652783469759236E9, 0.0, 2022-05-17 12:31:09.759
183.0, 38774.86750779957, 60127.46663420995, -35711.06919182172, 17277.652594763353, 32121.870770677422, 11227.929440489941, 33710.25278690491, 16917.498936354987, 0.07200000000000001, 1.022, 0.076, 192.0, 0.0, 0.0, 0.0, 0.0, 0.0, 0.0, 0.0, 0.0, 0.0, 1.6527834697592409E9, 0.0, 2022-05-17 12:31:09.759
184.0, 38784.47875791535, 60140.67651518304, -35664.93519126597, 16926.752558559485, 31944.308512724463, 11172.54181772969, 33704.01665020188, 16917.118956699247, 0.07200000000000001, 1.022, 0.076, 192.0, 0.0, 0.0, 0.0, 0.0, 0.0, 0.0, 0.0, 0.0, 0.0, 1.6527834697592456E9, 0.0, 2022-05-17 12:31:09.759
185.0, 38810.675002416974, 60150.04189610981, -35641.890542732544, 16679.095229994684, 31902.73426803759, 11146.770256372722, 33711.75035378341, 16921.812823034863, 0.07, 1.02, 0.07200000000000001, 192.0, 2.0, 48.0, 31.0, 224.0, 2.0, 64.0, 0.0, 0.0, 0.0, 1.65278346975925E9, 0.0, 2022-05-17 12:31:09.759
186.0, 38824.935415379456, 60146.89030014161, -35677.25100246084, 16921.96928524605, 32111.83483741699, 11198.626303509034, 33744.02627277688, 16923.19863119109, 0.07, 1.02, 0.07200000000000001, 192.0, 0.0, 0.0, 0.0, 0.0, 0.0, 0.0, 0.0, 0.0, 0.0, 1.6527834697592547E9, 0.0, 2022-05-17 12:31:09.759
187.0, 38813.80424664071, 60148.18670132002, -35705.660069663536, 17300.540781085587, 32269.727560249277, 11245.408504653991, 33759.53838342886, 16931.334666172825, 0.07, 1.02, 0.07200000000000001, 192.0, 0.0, 0.0, 0.0, 0.0, 0.0, 0.0, 0.0, 0.0, 0.0, 1.6527834697592597E9, 0.0, 2022-05-17 12:31:09.759
188.0, 38785.73045560485, 60144.16338731807, -35696.96524107042, 17289.2307983912, 32129.582122514505, 11242.569833108168, 33739.10888899671, 16929.881802783228, 0.07, 1.02, 0.07200000000000001, 192.0, 0.0, 0.0, 0.0, 0.0, 0.0, 0.0, 0.0, 0.0, 0.0, 1.6527834697592647E9, 0.0, 2022-05-17 12:31:09.759
189.0, 38784.165833492974, 60144.63277395163, -35667.1703657115, 16933.21221270707, 31960.155899543275, 11182.868323668043, 33709.42577236006, 16917.118956699247, 0.07, 1.02, 0.07200000000000001, 192.0, 0.0, 0.0, 0.0, 0.0, 0.0, 0.0, 0.0, 0.0, 0.0, 1.6527834697592695E9, 0.0, 2022-05-17 12:31:09.759
190.0, 38800.750827878815, 60140.22948029393, -35657.425005128986, 16672.121485724627, 31913.12782920931, 11145.809131361144, 33679.45208304549, 16909.497011839987, 0.07, 1.02, 0.07200000000000001, 192.0, 0.0, 0.0, 0.0, 0.0, 0.0, 0.0, 0.0, 0.0, 0.0, 1.6527834697592745E9, 0.0, 2022-05-17 12:31:09.759
191.0, 38811.59142393964, 60134.10510231318, -35688.98566829988, 16914.637913064707, 32103.341174523972, 11190.847896438587, 33719.97579574297, 16921.701064312587, 0.07, 1.02, 0.07200000000000001, 192.0, 0.0, 0.0, 0.0, 0.0, 0.0, 0.0, 0.0, 0.0, 0.0, 1.6527834697592793E9, 0.0, 2022-05-17 12:31:09.759
192.0, 38785.998676538315, 60127.60074467668, -35724.815514661736, 17290.437792591787, 32265.927763691878, 11240.535824362734, 33743.48983090995, 16923.57861084683, 0.07, 1.02, 0.07200000000000001, 192.0, 0.0, 0.0, 0.0, 0.0, 0.0, 0.0, 0.0, 0.0, 0.0, 1.652783469759286E9, 0.0, 2022-05-17 12:31:09.759
193.0, 38762.216420437864, 60139.40246574909, -35707.85054062016, 17272.444638305264, 32124.68709047879, 11239.239423184326, 33721.65217657712, 16929.837099294316, 0.07, 1.02, 0.07200000000000001, 192.0, 0.0, 0.0, 0.0, 0.0, 0.0, 0.0, 0.0, 0.0, 0.0, 1.6527834697592905E9, 0.0, 2022-05-17 12:31:09.759
194.0, 38772.230001953845, 60146.33150653023, -35672.53478438077, 16927.758387059974, 31954.456204707174, 11183.471820768336, 33696.327650109255, 16918.080081710825, 0.07, 1.02, 0.07200000000000001, 192.0, 0.0, 0.0, 0.0, 0.0, 0.0, 0.0, 0.0, 0.0, 0.0, 1.652783469759295E9, 0.0, 2022-05-17 12:31:09.759
195.0, 38794.022952797764, 60144.20809080698, -35658.00615048482, 16670.310994423748, 31905.282366905496, 11136.175529500906, 33681.486091790925, 16905.138421671203, 0.07200000000000001, 1.018, 0.068, 192.0, 2.0, 64.0, 31.0, 208.0, 2.0, 32.0, 0.0, 0.0, 0.0, 1.6527834697592995E9, 0.0, 2022-05-17 12:31:09.759
196.0, 38806.003487825816, 60137.39080874811, -35685.14116825356, 16908.848811250784, 32105.911625136334, 11185.550533002679, 33709.06814444878, 16914.14617468669, 0.07200000000000001, 1.018, 0.068, 192.0, 0.0, 0.0, 0.0, 0.0, 0.0, 0.0, 0.0, 0.0, 0.0, 1.652783469759304E9, 0.0, 2022-05-17 12:31:09.759
197.0, 38782.86943231457, 60130.081788311225, -35725.21784606193, 17298.439717106787, 32275.80723474112, 11245.252042442804, 33714.34315614023, 16914.570857831342, 0.07200000000000001, 1.018, 0.068, 192.0, 0.0, 0.0, 0.0, 0.0, 0.0, 0.0, 0.0, 0.0, 0.0, 1.6527834697593086E9, 0.0, 2022-05-17 12:31:09.759
198.0, 38765.43507163943, 60142.308192528275, -35704.49777895186, 17291.95771121475, 32148.9387332128, 11236.288992916227, 33717.517103852886, 16922.036340479415, 0.07200000000000001, 1.018, 0.068, 192.0, 0.0, 0.0, 0.0, 0.0, 0.0, 0.0, 0.0, 0.0, 0.0, 1.6527834697593136E9, 0.0, 2022-05-17 12:31:09.759
199.0, 38766.23973443982, 60143.00109660639, -35666.09748197764, 16933.88276504073, 31981.345353286906, 11180.744907944789, 33710.163379927086, 16907.10537518327, 0.07200000000000001, 1.018, 0.068, 192.0, 0.0, 0.0, 0.0, 0.0, 0.0, 0.0, 0.0, 0.0, 0.0, 1.652783469759318E9, 0.0, 2022-05-17 12:31:09.759
200.0, 38791.318391718676, 60146.778541419335, -35644.34923462263, 16671.026250246316, 31925.823620059924, 11152.425247719913, 33694.89713846411, 16913.29680839739, 0.07200000000000001, 1.018, 0.068, 192.0, 0.0, 0.0, 0.0, 0.0, 0.0, 0.0, 0.0, 0.0, 0.0, 1.6527834697593231E9, 0.0, 2022-05-17 12:31:09.759
201.0, 38808.0598483157, 60140.765922160856, -35678.457996661426, 16916.38134913222, 32124.30711082305, 11191.920780172442, 33721.02632773237, 16916.82838402133, 0.07200000000000001, 1.018, 0.068, 192.0, 0.0, 0.0, 0.0, 0.0, 0.0, 0.0, 0.0, 0.0, 0.0, 1.652783469759328E9, 0.0, 2022-05-17 12:31:09.759
202.0, 38795.229946998355, 60137.77078840385, -35708.230520275894, 17301.591313074983, 32287.944231980353, 11243.486254630836, 33734.415022661095, 16916.604866576778, 0.07200000000000001, 1.018, 0.068, 192.0, 0.0, 0.0, 0.0, 0.0, 0.0, 0.0, 0.0, 0.0, 0.0, 1.6527834697593324E9, 0.0, 2022-05-17 12:31:09.759
203.0, 38775.649818855505, 60146.37621001914, -35686.281107220784, 17294.103478682457, 32153.27497163713, 11250.169426222972, 33730.88344703716, 16932.943991773605, 0.07200000000000001, 1.018, 0.068, 192.0, 0.0, 0.0, 0.0, 0.0, 0.0, 0.0, 0.0, 0.0, 0.0, 1.6527834697593372E9, 0.0, 2022-05-17 12:31:09.759
204.0, 38777.54971713421, 60151.740628688414, -35649.89246724755, 16950.959497804582, 31983.155844587785, 11195.631169752023, 33710.297490393816, 16927.53486961542, 0.07200000000000001, 1.018, 0.068, 192.0, 0.0, 0.0, 0.0, 0.0, 0.0, 0.0, 0.0, 0.0, 0.0, 1.6527834697593417E9, 0.0, 2022-05-17 12:31:09.759
205.0, 38801.91311859049, 60152.38882927762, -35631.72049900538, 16688.88529406611, 31920.258035690553, 11159.488398967791, 33700.68624027804, 16916.20253517658, 0.068, 1.02, 0.068, 192.0, 2.0, 32.0, 31.0, 224.0, 2.0, 32.0, 0.0, 0.0, 0.0, 1.6527834697593465E9, 0.0, 2022-05-17 12:31:09.759
206.0, 38815.011240841304, 60142.03997159481, -35663.77290055429, 16911.463965352057, 32112.751258939657, 11196.949922674887, 33732.02338600437, 16922.01398873496, 0.068, 1.02, 0.068, 192.0, 0.0, 0.0, 0.0, 0.0, 0.0, 0.0, 0.0, 0.0, 0.0, 1.6527834697593513E9, 0.0, 2022-05-17 12:31:09.759
207.0, 38800.750827878815, 60140.81062564977, -35697.926366082, 17302.060699708545, 32275.360199852017, 11250.012964011785, 33738.8630198077, 16926.774910303942, 0.068, 1.02, 0.068, 192.0, 0.0, 0.0, 0.0, 0.0, 0.0, 0.0, 0.0, 0.0, 0.0, 1.652783469759356E9, 0.0, 2022-05-17 12:31:09.759
208.0, 38778.95787703489, 60150.26541355436, -35683.1742147415, 17306.15106894387, 32138.969855185733, 11242.726295319355, 33722.6580050776, 16921.030511978926, 0.068, 1.02, 0.068, 192.0, 0.0, 0.0, 0.0, 0.0, 0.0, 0.0, 0.0, 0.0, 0.0, 1.6527834697593603E9, 0.0, 2022-05-17 12:31:09.759
209.0, 38781.595382880616, 60153.506416500386, -35651.83706901516, 16961.77774212095, 31962.681646666726, 11184.008262635263, 33700.015687944375, 16913.09564269729, 0.068, 1.02, 0.068, 192.0, 0.0, 0.0, 0.0, 0.0, 0.0, 0.0, 0.0, 0.0, 0.0, 1.6527834697593682E9, 0.0, 2022-05-17 12:31:09.759
210.0, 38796.50399643231, 60149.52780598734, -35639.74477526484, 16682.939730040995, 31905.014145972033, 11149.452465707358, 33666.130443350135, 16908.290017639403, 0.068, 1.02, 0.068, 192.0, 0.0, 0.0, 0.0, 0.0, 0.0, 0.0, 0.0, 0.0, 0.0, 1.6527834697593732E9, 0.0, 2022-05-17 12:31:09.759
211.0, 38803.25422325781, 60138.06136108177, -35675.70873209342, 16914.97318923154, 32100.43544774478, 11203.87896345603, 33713.382031128654, 16913.363863630755, 0.068, 1.02, 0.068, 192.0, 0.0, 0.0, 0.0, 0.0, 0.0, 0.0, 0.0, 0.0, 0.0, 1.652783469759378E9, 0.0, 2022-05-17 12:31:09.759
212.0, 38785.708103860394, 60135.26739302486, -35713.81845638972, 17302.507734597653, 32278.04240918665, 11255.019754769773, 33745.23326697746, 16917.67775031063, 0.068, 1.02, 0.068, 192.0, 0.0, 0.0, 0.0, 0.0, 0.0, 0.0, 0.0, 0.0, 0.0, 1.652783469759383E9, 0.0, 2022-05-17 12:31:09.759
213.0, 38773.45934789888, 60156.85917816868, -35694.86417709162, 17298.50677234015, 32143.104927909964, 11252.51635939078, 33717.070068963774, 16933.525137129443, 0.068, 1.02, 0.068, 192.0, 0.0, 0.0, 0.0, 0.0, 0.0, 0.0, 0.0, 0.0, 0.0, 1.652783469759388E9, 0.0, 2022-05-17 12:31:09.759
214.0, 38783.49528115932, 60164.83875093923, -35659.05668247422, 16945.460968668576, 31970.638867692815, 11200.816774465655, 33692.01376342938, 16927.378407404234, 0.068, 1.02, 0.068, 192.0, 0.0, 0.0, 0.0, 0.0, 0.0, 0.0, 0.0, 0.0, 0.0, 1.652783469759395E9, 0.0, 2022-05-17 12:31:09.759
215.0, 38799.58853716714, 60154.1993205785, -35635.40853684051, 16678.514084638846, 31914.357175154353, 11170.328995028614, 33685.21883311497, 16926.35022715929, 0.068, 1.022, 0.066, 192.0, 2.0, 32.0, 31.0, 240.0, 2.0, 16.0, 0.0, 0.0, 0.0, 1.6527834697593997E9, 0.0, 2022-05-17 12:31:09.759
216.0, 38790.02199054027, 60117.006017804866, -35672.98181926987, 16911.06163395186, 32111.901892650356, 11212.394978093504, 33714.365507884686, 16924.852660280783, 0.068, 1.022, 0.066, 192.0, 0.0, 0.0, 0.0, 0.0, 0.0, 0.0, 0.0, 0.0, 0.0, 1.652783469759404E9, 0.0, 2022-05-17 12:31:09.759
217.0, 38772.29705718721, 60106.8359740777, -35711.35976449964, 17287.1297344124, 32281.305763877128, 11253.298670446715, 33730.39170865914, 16913.654436308676, 0.068, 1.022, 0.066, 192.0, 0.0, 0.0, 0.0, 0.0, 0.0, 0.0, 0.0, 0.0, 0.0, 1.6527834697594087E9, 0.0, 2022-05-17 12:31:09.759
218.0, 38751.62169356605, 60116.22370674893, -35699.73685738288, 17285.028670433603, 32143.17198314333, 11223.12381543205, 33719.2605399204, 16911.39691011869, 0.068, 1.022, 0.066, 192.0, 0.0, 0.0, 0.0, 0.0, 0.0, 0.0, 0.0, 0.0, 0.0, 1.6527834697594137E9, 0.0, 2022-05-17 12:31:09.759
219.0, 38750.10177494309, 60110.635770635105, -35660.39778714154, 16948.813730336875, 31966.48144322413, 11171.357175273559, 33695.72415300896, 16903.529096070422, 0.068, 1.022, 0.066, 192.0, 0.0, 0.0, 0.0, 0.0, 0.0, 0.0, 0.0, 0.0, 0.0, 1.652783469759419E9, 0.0, 2022-05-17 12:31:09.759
220.0, 38785.17166199347, 60123.2421545079, -35625.79728672472, 16677.06122124925, 31907.338727395385, 11152.82757912011, 33691.58908028473, 16906.3901193607, 0.068, 1.022, 0.066, 192.0, 0.0, 0.0, 0.0, 0.0, 0.0, 0.0, 0.0, 0.0, 0.0, 1.6527834697594237E9, 0.0, 2022-05-17 12:31:09.759
221.0, 38794.82761559816, 60110.300494468276, -35661.761243553316, 16899.30461636837, 32114.49469500717, 11191.093765627595, 33718.81350503129, 16915.621389820742, 0.068, 1.022, 0.066, 192.0, 0.0, 0.0, 0.0, 0.0, 0.0, 0.0, 0.0, 0.0, 0.0, 1.6527834697594292E9, 0.0, 2022-05-17 12:31:09.759
222.0, 38765.300961172696, 60095.883619294604, -35703.87193010711, 17282.83819947698, 32292.61574657151, 11228.979972479341, 33732.29160693784, 16907.552410072378, 0.068, 1.022, 0.066, 192.0, 0.0, 0.0, 0.0, 0.0, 0.0, 0.0, 0.0, 0.0, 0.0, 1.652783469759434E9, 0.0, 2022-05-17 12:31:09.759
223.0, 38739.90937947147, 60101.89623855308, -35691.667877634514, 17284.26871112212, 32157.700617039278, 11233.27150741476, 33712.77853402836, 16921.008160234473, 0.068, 1.022, 0.066, 192.0, 0.0, 0.0, 0.0, 0.0, 0.0, 0.0, 0.0, 0.0, 0.0, 1.6527834697594392E9, 0.0, 2022-05-17 12:31:09.759
224.0, 38741.116373672055, 60108.333540956206, -35661.045987730744, 16933.88276504073, 31975.265678795062, 11172.54181772969, 33683.743617980916, 16913.609732819765, 0.068, 1.022, 0.066, 192.0, 0.0, 0.0, 0.0, 0.0, 0.0, 0.0, 0.0, 0.0, 0.0, 1.652783469759444E9, 0.0, 2022-05-17 12:31:09.759
225.0, 38767.58083910714, 60118.57063991674, -35628.4571443149, 16661.90673850855, 31909.439791374185, 11146.122055783517, 33679.85441444569, 16917.00719797697, 0.066, 1.024, 0.07200000000000001, 192.0, 2.0, 16.0, 32.0, 0.0, 2.0, 64.0, 0.0, 0.0, 0.0, 1.6527834697594495E9, 0.0, 2022-05-17 12:31:09.759
226.0, 38773.77227232126, 60106.90302931107, -35666.075130233185, 16881.91495918214, 32109.532607738092, 11176.20750382036, 33706.49769383642, 16910.502840340476, 0.066, 1.024, 0.07200000000000001, 192.0, 0.0, 0.0, 0.0, 0.0, 0.0, 0.0, 0.0, 0.0, 0.0, 1.6527834697594545E9, 0.0, 2022-05-17 12:31:09.759
227.0, 38761.47881287084, 60104.33257869871, -35698.68632539348, 17278.2784436081, 32285.39613311245, 11224.21905091036, 33725.899008023625, 16905.16077341566, 0.066, 1.024, 0.07200000000000001, 192.0, 0.0, 0.0, 0.0, 0.0, 0.0, 0.0, 0.0, 0.0, 0.0, 1.6527834697594595E9, 0.0, 2022-05-17 12:31:09.759
228.0, 38736.33310035862, 60114.52497417033, -35684.49296766436, 17296.85274325046, 32172.676285824335, 11235.305516160193, 33713.22556891746, 16907.48535483901, 0.066, 1.024, 0.07200000000000001, 192.0, 0.0, 0.0, 0.0, 0.0, 0.0, 0.0, 0.0, 0.0, 0.0, 1.6527834697594645E9, 0.0, 2022-05-17 12:31:09.759
229.0, 38730.834571222615, 60114.770843359336, -35656.55328709522, 16953.865224583773, 31989.883719668833, 11177.727422443322, 33674.73586496543, 16898.030566934416, 0.066, 1.024, 0.07200000000000001, 192.0, 0.0, 0.0, 0.0, 0.0, 0.0, 0.0, 0.0, 0.0, 0.0, 1.6527834697594693E9, 0.0, 2022-05-17 12:31:09.759
230.0, 38756.360263390576, 60118.883564339114, -35631.564036794196, 16677.01651776034, 31916.905274022258, 11150.055962807652, 33666.555126494786, 16903.082061181314, 0.066, 1.024, 0.07200000000000001, 192.0, 0.0, 0.0, 0.0, 0.0, 0.0, 0.0, 0.0, 0.0, 0.0, 1.6527834697594743E9, 0.0, 2022-05-17 12:31:09.759
231.0, 38770.7994903087, 60114.52497417033, -35656.10625220612, 16884.77598247242, 32092.522930207604, 11193.105422628572, 33695.0536006753, 16903.596151303787, 0.066, 1.024, 0.07200000000000001, 192.0, 0.0, 0.0, 0.0, 0.0, 0.0, 0.0, 0.0, 0.0, 0.0, 1.6527834697594798E9, 0.0, 2022-05-17 12:31:09.759
232.0, 38750.414699365465, 60104.04200602079, -35698.28399399328, 17276.400897073854, 32272.879156217477, 11229.583469579635, 33714.991356729435, 16910.05580545137, 0.066, 1.024, 0.07200000000000001, 192.0, 0.0, 0.0, 0.0, 0.0, 0.0, 0.0, 0.0, 0.0, 0.0, 1.6527834697594843E9, 0.0, 2022-05-17 12:31:09.759
233.0, 38721.9385769294, 60104.980779287915, -35692.0255055458, 17282.882902965892, 32152.783233259113, 11232.22097542536, 33718.701746309016, 16908.58059031732, 0.066, 1.024, 0.07200000000000001, 192.0, 0.0, 0.0, 0.0, 0.0, 0.0, 0.0, 0.0, 0.0, 0.0, 1.6527834697594893E9, 0.0, 2022-05-17 12:31:09.759
234.0, 38723.838475208104, 60114.30145672578, -35659.68253131897, 16942.823462822853, 31974.23749855012, 11175.179323575418, 33685.88938544862, 16906.613636805254, 0.066, 1.024, 0.07200000000000001, 192.0, 0.0, 0.0, 0.0, 0.0, 0.0, 0.0, 0.0, 0.0, 0.0, 1.6527834697594943E9, 0.0, 2022-05-17 12:31:09.759
235.0, 38752.13578368852, 60123.085692296714, -35632.63692052805, 16671.7862095578, 31928.863457305844, 11146.233814505795, 33676.121673121655, 16911.73218628552, 0.07, 1.024, 0.07200000000000001, 192.0, 2.0, 48.0, 32.0, 0.0, 2.0, 64.0, 0.0, 0.0, 0.0, 1.6527834697595017E9, 0.0, 2022-05-17 12:31:09.759
236.0, 38766.977342006845, 60116.22370674893, -35659.77193829679, 16878.29397658038, 32118.585064242492, 11185.706995213866, 33709.604586315705, 16913.475622353035, 0.07, 1.024, 0.07200000000000001, 192.0, 0.0, 0.0, 0.0, 0.0, 0.0, 0.0, 0.0, 0.0, 0.0, 1.6527834697595077E9, 0.0, 2022-05-17 12:31:09.759
237.0, 38737.71890851485, 60091.59208435918, -35711.426819733, 17267.21433010272, 32294.06860996111, 11227.303591645194, 33722.03215623285, 16897.67293902313, 0.07, 1.024, 0.07200000000000001, 192.0, 0.0, 0.0, 0.0, 0.0, 0.0, 0.0, 0.0, 0.0, 0.0, 1.6527834697595131E9, 0.0, 2022-05-17 12:31:09.759
238.0, 38706.69468721088, 60089.17809595801, -35703.91663359602, 17288.761411757638, 32166.753073543678, 11207.812870480166, 33705.44716184702, 16890.274511608426, 0.07, 1.024, 0.07200000000000001, 192.0, 0.0, 0.0, 0.0, 0.0, 0.0, 0.0, 0.0, 0.0, 0.0, 1.6527834697595184E9, 0.0, 2022-05-17 12:31:09.759
239.0, 38715.098943126075, 60102.63384612011, -35655.033368472265, 16951.83121583834, 31983.155844587785, 11158.527273956213, 33683.43069355854, 16894.20841863256, 0.07, 1.024, 0.07200000000000001, 192.0, 0.0, 0.0, 0.0, 0.0, 0.0, 0.0, 0.0, 0.0, 0.0, 1.6527834697595239E9, 0.0, 2022-05-17 12:31:09.759
240.0, 38746.369033619056, 60112.20039274698, -35625.03732741324, 16663.851340276164, 31914.737154810093, 11139.505939424747, 33673.81944344276, 16899.841058235295, 0.07, 1.024, 0.07200000000000001, 192.0, 0.0, 0.0, 0.0, 0.0, 0.0, 0.0, 0.0, 0.0, 0.0, 1.6527834697595284E9, 0.0, 2022-05-17 12:31:09.759
241.0, 38763.266952427264, 60108.266485722845, -35652.97700798238, 16875.589415501287, 32100.278985533594, 11193.150126117484, 33702.675545534556, 16917.610695077266, 0.07, 1.024, 0.07200000000000001, 192.0, 0.0, 0.0, 0.0, 0.0, 0.0, 0.0, 0.0, 0.0, 0.0, 1.6527834697595336E9, 0.0, 2022-05-17 12:31:09.759
242.0, 38737.67420502594, 60095.59304661668, -35700.139188783076, 17270.544740026562, 32295.47676986179, 11240.357010407091, 33721.6074730882, 16913.363863630755, 0.07, 1.024, 0.07200000000000001, 192.0, 0.0, 0.0, 0.0, 0.0, 0.0, 0.0, 0.0, 0.0, 0.0, 1.6527834697595384E9, 0.0, 2022-05-17 12:31:09.759
243.0, 38715.63538499301, 60103.48321240941, -35688.33746771067, 17291.197751903266, 32173.16802420235, 11233.450321370403, 33696.528815809346, 16913.430918864124, 0.07, 1.024, 0.07200000000000001, 192.0, 0.0, 0.0, 0.0, 0.0, 0.0, 0.0, 0.0, 0.0, 0.0, 1.6527834702381313E9, 0.0, 2022-05-17 12:31:10.238
244.0, 38714.00370764777, 60108.51235491185, -35658.98962724085, 16949.68544837063, 31994.75639996009, 11170.798381662176, 33674.1994230985, 16902.322101869835, 0.07, 1.024, 0.07200000000000001, 192.0, 0.0, 0.0, 0.0, 0.0, 0.0, 0.0, 0.0, 0.0, 0.0, 1.652783470238309E9, 0.0, 2022-05-17 12:31:10.238
245.0, 38734.92494045794, 60106.3889391886, -35638.94011246444, 16660.409171630046, 31927.32118693843, 11135.214404489328, 33667.60565848418, 16903.350282114778, 0.07, 1.022, 0.07, 192.0, 2.0, 48.0, 31.0, 240.0, 2.0, 48.0, 0.0, 0.0, 0.0, 1.6527834702383144E9, 0.0, 2022-05-17 12:31:10.238
246.0, 38743.686824284414, 60094.5872181162, -35669.67376109049, 16857.640964703674, 32106.78334317009, 11175.089916597595, 33703.12258042367, 16910.81576476285, 0.07, 1.022, 0.07, 192.0, 0.0, 0.0, 0.0, 0.0, 0.0, 0.0, 0.0, 0.0, 0.0, 1.6527834702383192E9, 0.0, 2022-05-17 12:31:10.238
247.0, 38716.52945477122, 60078.3822033861, -35724.21201756144, 17250.718742694706, 32293.085133205073, 11208.684588513923, 33716.06424046329, 16901.115107669248, 0.07, 1.022, 0.07, 192.0, 0.0, 0.0, 0.0, 0.0, 0.0, 0.0, 0.0, 0.0, 0.0, 1.6527834702383244E9, 0.0, 2022-05-17 12:31:10.238
248.0, 38694.28946903819, 60083.99249124438, -35713.058497078244, 17274.210426117235, 32170.664628823357, 11221.402731108992, 33684.12359763665, 16903.037357692403, 0.07, 1.022, 0.07, 192.0, 0.0, 0.0, 0.0, 0.0, 0.0, 0.0, 0.0, 0.0, 0.0, 1.6527834702383294E9, 0.0, 2022-05-17 12:31:10.238
249.0, 38700.59266097459, 60091.905008781556, -35672.311266936216, 16944.946878546107, 31996.67864998325, 11180.45433526687, 33683.81067321428, 16900.53396231341, 0.07, 1.022, 0.07, 192.0, 0.0, 0.0, 0.0, 0.0, 0.0, 0.0, 0.0, 0.0, 0.0, 1.6527834702383344E9, 0.0, 2022-05-17 12:31:10.238
250.0, 38730.65575726697, 60098.09644199568, -35643.83514450015, 16652.697819792964, 31921.688547335692, 11146.502035439258, 33683.9000801921, 16903.707910026063, 0.07, 1.022, 0.07, 192.0, 0.0, 0.0, 0.0, 0.0, 0.0, 0.0, 0.0, 0.0, 0.0, 1.6527834702383392E9, 0.0, 2022-05-17 12:31:10.238
251.0, 38744.826763251636, 60091.435622148, -35678.01096177232, 16856.38926701418, 32099.0272878441, 11174.665233452944, 33707.52587408136, 16911.91100024116, 0.07, 1.022, 0.07, 192.0, 0.0, 0.0, 0.0, 0.0, 0.0, 0.0, 0.0, 0.0, 0.0, 1.6527834702383444E9, 0.0, 2022-05-17 12:31:10.238
252.0, 38716.59651000459, 60074.60475857315, -35728.83882866369, 17252.88686190687, 32297.130798951486, 11222.319152631659, 33722.814467288794, 16903.77496525943, 0.07, 1.022, 0.07, 192.0, 0.0, 0.0, 0.0, 0.0, 0.0, 0.0, 0.0, 0.0, 0.0, 1.6527834702383492E9, 0.0, 2022-05-17 12:31:10.238
253.0, 38692.21075680384, 60085.42300288952, -35710.622156932615, 17285.36394660043, 32186.914347042366, 11222.319152631659, 33723.55207485582, 16911.933351985615, 0.07, 1.022, 0.07, 192.0, 0.0, 0.0, 0.0, 0.0, 0.0, 0.0, 0.0, 0.0, 0.0, 1.652783470238354E9, 0.0, 2022-05-17 12:31:10.238
254.0, 38690.80259690316, 60091.681491337, -35671.08192099118, 16948.63491638123, 31995.47165578266, 11172.810038663154, 33709.02344095986, 16905.786622260406, 0.07, 1.022, 0.07, 192.0, 0.0, 0.0, 0.0, 0.0, 0.0, 0.0, 0.0, 0.0, 0.0, 1.6527834702383587E9, 0.0, 2022-05-17 12:31:10.238
255.0, 38706.717038955336, 60091.2344564479, -35654.67574056098, 16659.62686057411, 31929.377547428317, 11141.986983059285, 33693.64544077461, 16912.000407218984, 0.074, 1.024, 0.066, 192.0, 2.0, 80.0, 32.0, 0.0, 2.0, 16.0, 0.0, 0.0, 0.0, 1.6527834702383637E9, 0.0, 2022-05-17 12:31:10.238
0.0, 38725.246635108786, 60090.51920062533, -35679.083845506175, 16849.549633210856, 32100.43544774478, 11193.395995306491, 33714.81254277379, 16916.314293898857, 0.074, 1.024, 0.066, 192.0, 0.0, 0.0, 0.0, 0.0, 0.0, 0.0, 0.0, 0.0, 0.0, 1.6527834702383788E9, 0.0, 2022-05-17 12:31:10.238
1.0, 38706.27000406623, 60079.097459208664, -35718.7805436588, 17249.288231049566, 32294.895624505953, 11226.476577100346, 33740.18177273056, 16915.73314854302, 0.074, 1.024, 0.066, 192.0, 0.0, 0.0, 0.0, 0.0, 0.0, 0.0, 0.0, 0.0, 0.0, 1.6527834702383835E9, 0.0, 2022-05-17 12:31:10.238
2.0, 38679.78318688669, 60082.02553773231, -35706.33062199719, 17276.669118007318, 32183.449826651795, 11224.956658477386, 33732.42571740457, 16918.929448000126, 0.074, 1.024, 0.066, 192.0, 0.0, 0.0, 0.0, 0.0, 0.0, 0.0, 0.0, 0.0, 0.0, 1.652783470238388E9, 0.0, 2022-05-17 12:31:10.238
3.0, 38686.131082312, 60100.219857718934, -35666.9692000114, 16953.01585829447, 32009.352089089407, 11187.562190003657, 33713.11381019519, 16910.43578510711, 0.074, 1.024, 0.066, 192.0, 0.0, 0.0, 0.0, 0.0, 0.0, 0.0, 0.0, 0.0, 0.0, 1.6527834702383928E9, 0.0, 2022-05-17 12:31:10.238
4.0, 38709.04162037869, 60104.89137231009, -35643.857496244615, 16663.11373270914, 31936.37364344283, 11151.151198285961, 33689.64447851711, 16920.181145689625, 0.074, 1.024, 0.066, 192.0, 0.0, 0.0, 0.0, 0.0, 0.0, 0.0, 0.0, 0.0, 0.0, 1.6527834702383971E9, 0.0, 2022-05-17 12:31:10.238
5.0, 38727.213588620856, 60096.33065418371, -35673.87588904809, 16853.28237453489, 32108.236206559686, 11189.082108626617, 33709.895158993626, 16928.16071846017, 0.074, 1.024, 0.066, 192.0, 0.0, 0.0, 0.0, 0.0, 0.0, 0.0, 0.0, 0.0, 0.0, 1.652783470238402E9, 0.0, 2022-05-17 12:31:10.238
6.0, 38716.26123383775, 60087.6805290795, -35713.79610464527, 17258.541853254064, 32306.116200222517, 11234.277335915249, 33732.895104038136, 16923.891535269206, 0.074, 1.024, 0.066, 192.0, 0.0, 0.0, 0.0, 0.0, 0.0, 0.0, 0.0, 0.0, 0.0, 1.6527834702384064E9, 0.0, 2022-05-17 12:31:10.238
7.0, 38685.259364278245, 60085.02067148932, -35712.63381393359, 17286.481533823197, 32192.12230350045, 11233.115045203573, 33713.87376950667, 16915.308465398368, 0.074, 1.024, 0.066, 192.0, 0.0, 0.0, 0.0, 0.0, 0.0, 0.0, 0.0, 0.0, 0.0, 1.652783470238412E9, 0.0, 2022-05-17 12:31:10.238
8.0, 38689.14856781347, 60094.341348927184, -35672.04304600276, 16963.69999214411, 32013.91184495829, 11179.02382362173, 33692.77372274086, 16912.6933112971, 0.074, 1.024, 0.066, 192.0, 0.0, 0.0, 0.0, 0.0, 0.0, 0.0, 0.0, 0.0, 0.0, 1.6527834702384164E9, 0.0, 2022-05-17 12:31:10.238
9.0, 38709.64511747898, 60091.972064014924, -35647.076147446176, 16656.13998843908, 31942.36391095685, 11128.687695108378, 33676.83692894423, 16906.5912850608, 0.074, 1.022, 0.07, 192.0, 2.0, 80.0, 31.0, 240.0, 2.0, 48.0, 0.0, 0.0, 0.0, 1.6527834702384212E9, 0.0, 2022-05-17 12:31:10.238
10.0, 38717.91526292745, 60078.98570048639, -35674.65820010402, 16834.79748187035, 32101.86595938992, 11175.626358464522, 33706.162417669584, 16913.185049675114, 0.074, 1.022, 0.07, 192.0, 0.0, 0.0, 0.0, 0.0, 0.0, 0.0, 0.0, 0.0, 0.0, 1.6527834702384255E9, 0.0, 2022-05-17 12:31:10.238
11.0, 38702.22433831982, 60071.05083120475, -35716.38890700208, 17240.235774545166, 32289.262984903216, 11219.88281248603, 33721.58512134375, 16910.05580545137, 0.074, 1.022, 0.07, 192.0, 0.0, 0.0, 0.0, 0.0, 0.0, 0.0, 0.0, 0.0, 0.0, 1.6527834702384303E9, 0.0, 2022-05-17 12:31:10.238
12.0, 38683.717093910825, 60084.19365694447, -35699.31217423823, 17282.569978543517, 32179.38180916093, 11233.517376603768, 33695.79120824232, 16915.15200318718, 0.074, 1.022, 0.07, 192.0, 0.0, 0.0, 0.0, 0.0, 0.0, 0.0, 0.0, 0.0, 0.0, 1.6527834702384348E9, 0.0, 2022-05-17 12:31:10.238
13.0, 38687.44983523486, 60094.16253497155, -35661.00128424183, 16967.83506486834, 32002.154827374798, 11178.085050354606, 33685.01766741487, 16915.19670667609, 0.074, 1.022, 0.07, 192.0, 0.0, 0.0, 0.0, 0.0, 0.0, 0.0, 0.0, 0.0, 0.0, 1.652783470238439E9, 0.0, 2022-05-17 12:31:10.238
14.0, 38704.45951276535, 60094.27429369382, -35646.360891623604, 16664.67835482101, 31925.465992148638, 11131.079331765097, 33667.98563813992, 16903.10441292577, 0.074, 1.022, 0.07, 192.0, 0.0, 0.0, 0.0, 0.0, 0.0, 0.0, 0.0, 0.0, 0.0, 1.6527834702384443E9, 0.0, 2022-05-17 12:31:10.238
15.0, 38717.78115246072, 60091.435622148, -35673.31709543671, 16839.871327861707, 32090.95830809573, 11163.221140291827, 33696.39470534262, 16911.10633744077, 0.074, 1.022, 0.07, 192.0, 0.0, 0.0, 0.0, 0.0, 0.0, 0.0, 0.0, 0.0, 0.0, 1.652783470238449E9, 0.0, 2022-05-17 12:31:10.238
16.0, 38707.342887800085, 60095.99537801688, -35706.33062199719, 17249.80232117204, 32296.192025684362, 11225.806024766687, 33718.25471141991, 16918.996503233495, 0.074, 1.022, 0.07, 192.0, 0.0, 0.0, 0.0, 0.0, 0.0, 0.0, 0.0, 0.0, 0.0, 1.6527834702384567E9, 0.0, 2022-05-17 12:31:10.238
17.0, 38680.67725666491, 60102.07505250872, -35697.7252003819, 17296.293949639075, 32192.971669789753, 11224.822548010654, 33717.8076765308, 16917.43188112162, 0.074, 1.022, 0.07, 192.0, 0.0, 0.0, 0.0, 0.0, 0.0, 0.0, 0.0, 0.0, 0.0, 1.652783470238466E9, 0.0, 2022-05-17 12:31:10.238
18.0, 38684.52175671122, 60112.22274449143, -35656.709749306414, 16979.525027218464, 32015.029432181054, 11175.961634631352, 33694.18188264154, 16915.35316888728, 0.07, 1.018, 0.074, 192.0, 2.0, 48.0, 31.0, 208.0, 2.0, 80.0, 0.0, 0.0, 0.0, 1.6527834702384713E9, 0.0, 2022-05-17 12:31:10.238
19.0, 38699.13979758499, 60105.94190429949, -35637.93428396396, 16670.95919501295, 31932.46208816315, 11129.224136975305, 33666.66688521706, 16895.214247133048, 0.07, 1.018, 0.074, 192.0, 0.0, 0.0, 0.0, 0.0, 0.0, 0.0, 0.0, 0.0, 0.0, 1.6527834702384768E9, 0.0, 2022-05-17 12:31:10.238
20.0, 38717.15530361597, 60101.24803796387, -35658.475537118386, 16837.03265631588, 32097.417962243315, 11175.559303231157, 33699.47924607745, 16910.078157195825, 0.07, 1.018, 0.074, 192.0, 0.0, 0.0, 0.0, 0.0, 0.0, 0.0, 0.0, 0.0, 0.0, 1.6527834702384815E9, 0.0, 2022-05-17 12:31:10.238
21.0, 38696.34582952807, 60082.807848788245, -35707.55996794224, 17243.968515869205, 32307.278490934194, 11220.039274697217, 33708.978737470956, 16917.364825888257, 0.07, 1.018, 0.074, 192.0, 0.0, 0.0, 0.0, 0.0, 0.0, 0.0, 0.0, 0.0, 0.0, 1.652783470238486E9, 0.0, 2022-05-17 12:31:10.238
22.0, 38676.76570138523, 60099.99634027438, -35692.53959566827, 17296.65157755036, 32200.861835582476, 11229.538766090724, 33695.09830416421, 16918.236543922012, 0.07, 1.018, 0.074, 192.0, 0.0, 0.0, 0.0, 0.0, 0.0, 0.0, 0.0, 0.0, 0.0, 1.652783470238493E9, 0.0, 2022-05-17 12:31:10.238
23.0, 38665.00868380174, 60101.09157575269, -35663.59408659865, 16981.40257375271, 32028.999272465622, 11180.54374224469, 33690.24797561741, 16915.375520631733, 0.07, 1.018, 0.074, 192.0, 0.0, 0.0, 0.0, 0.0, 0.0, 0.0, 0.0, 0.0, 0.0, 1.6527834702384975E9, 0.0, 2022-05-17 12:31:10.238
24.0, 38680.20787003134, 60100.912761797044, -35638.15780140851, 16672.121485724627, 31948.667102893247, 11143.596308660068, 33672.679504475534, 16909.519363584444, 0.07, 1.018, 0.074, 192.0, 0.0, 0.0, 0.0, 0.0, 0.0, 0.0, 0.0, 0.0, 0.0, 1.652783470238502E9, 0.0, 2022-05-17 12:31:10.238
25.0, 38701.79965517517, 60102.05270076427, -35659.660179574515, 16844.52049070841, 32104.279947791096, 11164.003451347764, 33700.14979841111, 16915.48727935401, 0.07, 1.018, 0.074, 192.0, 0.0, 0.0, 0.0, 0.0, 0.0, 0.0, 0.0, 0.0, 0.0, 1.6527834702385068E9, 0.0, 2022-05-17 12:31:10.238
26.0, 38679.872593864515, 60084.19365694447, -35712.8796831226, 17244.88493739187, 32310.29597643566, 11219.815757252665, 33711.25861540539, 16913.900305497686, 0.07, 1.018, 0.074, 192.0, 0.0, 0.0, 0.0, 0.0, 0.0, 0.0, 0.0, 0.0, 0.0, 1.652783470238511E9, 0.0, 2022-05-17 12:31:10.238
27.0, 38648.44604116035, 60084.99831974487, -35707.85054062016, 17299.333786885, 32209.266091497673, 11220.531013075235, 33691.41026632908, 16902.947950714584, 0.07, 1.018, 0.074, 192.0, 0.0, 0.0, 0.0, 0.0, 0.0, 0.0, 0.0, 0.0, 0.0, 1.6527834702385173E9, 0.0, 2022-05-17 12:31:10.238
28.0, 38650.27888420569, 60098.342311184686, -35663.52703136528, 16977.82629463986, 32014.805914736502, 11175.626358464522, 33680.61437375717, 16904.132593170714, 0.076, 1.018, 0.074, 192.0, 2.0, 96.0, 31.0, 208.0, 2.0, 80.0, 0.0, 0.0, 0.0, 1.6527834702385273E9, 0.0, 2022-05-17 12:31:10.238
29.0, 38677.36919848552, 60109.026445034324, -35633.10630716161, 16669.77455255682, 31930.383375928806, 11145.898538338964, 33673.93120216503, 16908.513535083956, 0.076, 1.018, 0.074, 192.0, 0.0, 0.0, 0.0, 0.0, 0.0, 0.0, 0.0, 0.0, 0.0, 1.652783470238536E9, 0.0, 2022-05-17 12:31:10.238
30.0, 38681.12429155401, 60095.34717742768, -35673.20533671443, 16829.298952734345, 32093.908738363833, 11169.010242105753, 33695.16535939758, 16897.315311111844, 0.076, 1.018, 0.074, 192.0, 0.0, 0.0, 0.0, 0.0, 0.0, 0.0, 0.0, 0.0, 0.0, 1.6527834702385435E9, 0.0, 2022-05-17 12:31:10.238
31.0, 38666.55095416915, 60085.691223822985, -35713.97491860091, 17248.908251393827, 32303.657508332435, 11216.910030473475, 33716.175999185565, 16905.607808304765, 0.076, 1.018, 0.074, 192.0, 0.0, 0.0, 0.0, 0.0, 0.0, 0.0, 0.0, 0.0, 0.0, 1.65278347023855E9, 0.0, 2022-05-17 12:31:10.238
32.0, 38636.4208026434, 60088.26167443534, -35709.16929354302, 17305.61462707694, 32204.348707717505, 11231.639830069522, 33695.03124893084, 16912.44744210809, 0.076, 1.018, 0.074, 192.0, 0.0, 0.0, 0.0, 0.0, 0.0, 0.0, 0.0, 0.0, 0.0, 1.6527834702385573E9, 0.0, 2022-05-17 12:31:10.238
33.0, 38638.85714278903, 60098.94580828498, -35668.466766889906, 16989.5609604789, 32026.317063130984, 11186.802230692176, 33681.083760390735, 16914.01206421996, 0.076, 1.018, 0.074, 192.0, 0.0, 0.0, 0.0, 0.0, 0.0, 0.0, 0.0, 0.0, 0.0, 1.6527834702385647E9, 0.0, 2022-05-17 12:31:10.238
34.0, 38664.18166925689, 60104.198468231974, -35643.25399914432, 16686.650119620575, 31939.614646388847, 11154.392201231982, 33676.18872835502, 16914.861430509263, 0.076, 1.018, 0.074, 192.0, 0.0, 0.0, 0.0, 0.0, 0.0, 0.0, 0.0, 0.0, 0.0, 1.652783470238572E9, 0.0, 2022-05-17 12:31:10.238
35.0, 38674.642285661976, 60091.65913959255, -35671.79717681374, 16847.202700043046, 32108.05739260404, 11172.698279940878, 33703.323746123766, 16908.602942061778, 0.076, 1.018, 0.074, 192.0, 0.0, 0.0, 0.0, 0.0, 0.0, 0.0, 0.0, 0.0, 0.0, 1.6527834702385788E9, 0.0, 2022-05-17 12:31:10.238
36.0, 38663.287599478674, 60087.99345350188, -35705.14597954106, 17252.84215841796, 32326.63510163249, 11225.247231155305, 33729.587045858745, 16913.29680839739, 0.076, 1.018, 0.074, 192.0, 0.0, 0.0, 0.0, 0.0, 0.0, 0.0, 0.0, 0.0, 0.0, 1.652783470238588E9, 0.0, 2022-05-17 12:31:10.238
37.0, 38641.78522131267, 60098.36466292914, -35695.53472942528, 17323.786595319103, 32234.925894132364, 11234.165577192973, 33710.655118305105, 16916.090776454304, 0.076, 1.018, 0.074, 192.0, 0.0, 0.0, 0.0, 0.0, 0.0, 0.0, 0.0, 0.0, 0.0, 1.6527834702385993E9, 0.0, 2022-05-17 12:31:10.238
38.0, 38638.36540441101, 60098.409366418055, -35665.382226155074, 17011.108042133816, 32041.359787149406, 11188.188038848406, 33691.03028667335, 16905.317235626844, 0.076, 1.016, 0.074, 192.0, 2.0, 96.0, 31.0, 192.0, 2.0, 80.0, 0.0, 0.0, 0.0, 1.652783470238608E9, 0.0, 2022-05-17 12:31:10.238
39.0, 38666.305084980144, 60106.925381055524, -35637.420193841484, 16685.554884142268, 31947.102480781377, 11148.960727329342, 33667.784472439824, 16913.006235719473, 0.076, 1.016, 0.074, 192.0, 0.0, 0.0, 0.0, 0.0, 0.0, 0.0, 0.0, 0.0, 0.0, 1.6527834702386148E9, 0.0, 2022-05-17 12:31:10.238
40.0, 38685.0805503226, 60098.31995944023, -35661.5153743643, 16843.559365696834, 32097.485017476683, 11173.927625885919, 33692.32668785175, 16914.660264809165, 0.076, 1.016, 0.074, 192.0, 0.0, 0.0, 0.0, 0.0, 0.0, 0.0, 0.0, 0.0, 0.0, 1.652783470238622E9, 0.0, 2022-05-17 12:31:10.238
41.0, 38670.775433871204, 60089.17809595801, -35700.608575416634, 17255.54671949705, 32309.826589802098, 11228.443530612414, 33728.08947898024, 16908.02179670594, 0.076, 1.016, 0.074, 192.0, 0.0, 0.0, 0.0, 0.0, 0.0, 0.0, 0.0, 0.0, 0.0, 1.6527834702386303E9, 0.0, 2022-05-17 12:31:10.238
42.0, 38649.16129698292, 60101.1362792416, -35688.49392992186, 17325.641790108897, 32215.055193311597, 11246.302574432204, 33717.45004861952, 16917.700102055085, 0.076, 1.016, 0.074, 192.0, 0.0, 0.0, 0.0, 0.0, 0.0, 0.0, 0.0, 0.0, 0.0, 1.6527834702386372E9, 0.0, 2022-05-17 12:31:10.238
43.0, 38635.86200903202, 60092.0838227372, -35666.34335116665, 17009.07403338838, 32039.63870282635, 11174.6875851974, 33697.221719887464, 16906.54658157189, 0.076, 1.016, 0.074, 192.0, 0.0, 0.0, 0.0, 0.0, 0.0, 0.0, 0.0, 0.0, 0.0, 1.6527834702386477E9, 0.0, 2022-05-17 12:31:10.238
44.0, 38655.91152380843, 60091.055642492254, -35641.398804354525, 16676.390668915592, 31936.530105654016, 11133.023933532708, 33668.67854221804, 16897.181200645115, 0.076, 1.016, 0.074, 192.0, 0.0, 0.0, 0.0, 0.0, 0.0, 0.0, 0.0, 0.0, 0.0, 1.6527834702386549E9, 0.0, 2022-05-17 12:31:10.238
45.0, 38667.33326522509, 60083.79132554428, -35665.2704674328, 16824.649789887644, 32092.098247062953, 11169.59138746159, 33697.33347860974, 16910.25697115147, 0.076, 1.016, 0.074, 192.0, 0.0, 0.0, 0.0, 0.0, 0.0, 0.0, 0.0, 0.0, 0.0, 1.652783470238661E9, 0.0, 2022-05-17 12:31:10.238
46.0, 38646.63554985947, 60069.91089223754, -35710.264529021326, 17236.435977987763, 32303.5233978657, 11214.496042072302, 33730.25759819241, 16908.491183339498, 0.076, 1.016, 0.074, 192.0, 0.0, 0.0, 0.0, 0.0, 0.0, 0.0, 0.0, 0.0, 0.0, 1.6527834702386682E9, 0.0, 2022-05-17 12:31:10.238
47.0, 38623.523846092685, 60078.65042431956, -35702.93315683999, 17306.307531155056, 32212.574149677057, 11227.683571300933, 33724.1108684672, 16910.45813685157, 0.076, 1.016, 0.074, 192.0, 0.0, 0.0, 0.0, 0.0, 0.0, 0.0, 0.0, 0.0, 0.0, 1.652783470238677E9, 0.0, 2022-05-17 12:31:10.238
48.0, 38631.3693083965, 60096.68828209499, -35662.364740653604, 16996.244132071035, 32030.429784110762, 11181.929550400919, 33701.222682144966, 16916.716625299054, 0.07200000000000001, 1.018, 0.078, 192.0, 2.0, 64.0, 31.0, 208.0, 2.0, 112.0, 0.0, 0.0, 0.0, 1.6527834702386844E9, 0.0, 2022-05-17 12:31:10.238
49.0, 38651.374119684, 60091.56973261473, -35640.8623624876, 16677.865884049643, 31952.377492472828, 11138.008372546241, 33683.67656274755, 16910.68165429612, 0.07200000000000001, 1.018, 0.078, 192.0, 0.0, 0.0, 0.0, 0.0, 0.0, 0.0, 0.0, 0.0, 0.0, 1.6527834702386892E9, 0.0, 2022-05-17 12:31:10.238
50.0, 38665.969808813315, 60081.66790982103, -35662.85647903162, 16821.542897408355, 32097.954404110245, 11176.341614287092, 33711.213911916486, 16913.766195030952, 0.07200000000000001, 1.018, 0.078, 192.0, 0.0, 0.0, 0.0, 0.0, 0.0, 0.0, 0.0, 0.0, 0.0, 1.652783470238694E9, 0.0, 2022-05-17 12:31:10.238
51.0, 38651.95526503983, 60073.91185449503, -35711.53857845528, 17236.771254154595, 32308.932520023885, 11225.336638133125, 33732.55982787131, 16914.883782253717, 0.07200000000000001, 1.018, 0.078, 192.0, 0.0, 0.0, 0.0, 0.0, 0.0, 0.0, 0.0, 0.0, 0.0, 1.6527834702386987E9, 0.0, 2022-05-17 12:31:10.238
52.0, 38631.32460490759, 60087.54641861277, -35709.5269214543, 17308.60976083395, 32219.86081836949, 11226.431873611436, 33717.56180734179, 16913.3415118863, 0.07200000000000001, 1.018, 0.078, 192.0, 0.0, 0.0, 0.0, 0.0, 0.0, 0.0, 0.0, 0.0, 0.0, 1.6527834702387035E9, 0.0, 2022-05-17 12:31:10.238
53.0, 38628.64239557295, 60095.4365844055, -35677.87685130559, 16990.700899446118, 32040.01868248209, 11176.49807649828, 33691.11969365116, 16901.919770469638, 0.07200000000000001, 1.018, 0.078, 192.0, 0.0, 0.0, 0.0, 0.0, 0.0, 0.0, 0.0, 0.0, 0.0, 1.6527834702387083E9, 0.0, 2022-05-17 12:31:10.238
54.0, 38640.17589571189, 60093.156706471054, -35649.221914913884, 16675.094267737182, 31965.274449023542, 11141.785817359189, 33681.59785051321, 16903.216171648048, 0.07200000000000001, 1.018, 0.078, 192.0, 0.0, 0.0, 0.0, 0.0, 0.0, 0.0, 0.0, 0.0, 0.0, 1.652783470238713E9, 0.0, 2022-05-17 12:31:10.238
55.0, 38638.901846277935, 60073.75539228385, -35685.029409531286, 16818.592467140254, 32105.866921647423, 11160.091896068085, 33692.86312971868, 16901.696253025086, 0.07200000000000001, 1.018, 0.078, 192.0, 0.0, 0.0, 0.0, 0.0, 0.0, 0.0, 0.0, 0.0, 0.0, 1.6527834702387176E9, 0.0, 2022-05-17 12:31:10.238
56.0, 38634.69971832034, 60078.94099699748, -35720.479276237405, 17235.564259954008, 32307.949043267854, 11225.135472433029, 33715.81837127428, 16909.854639751273, 0.07200000000000001, 1.018, 0.078, 192.0, 0.0, 0.0, 0.0, 0.0, 0.0, 0.0, 0.0, 0.0, 0.0, 1.652783470238722E9, 0.0, 2022-05-17 12:31:10.238
57.0, 38610.69394477534, 60085.9817965009, -35716.768886657825, 17322.669008096338, 32214.69756540031, 11220.866289242065, 33703.18963565703, 16910.525192084933, 0.07200000000000001, 1.018, 0.078, 192.0, 0.0, 0.0, 0.0, 0.0, 0.0, 0.0, 0.0, 0.0, 0.0, 1.6527834702387269E9, 0.0, 2022-05-17 12:31:10.238
58.0, 38617.42181985638, 60099.594008874185, -35672.244211702855, 17016.584219525364, 32022.1596386623, 11178.822657921632, 33685.263536603874, 16911.888648496708, 0.07, 1.022, 0.074, 192.0, 2.0, 48.0, 31.0, 240.0, 2.0, 80.0, 0.0, 0.0, 0.0, 1.6527834702387316E9, 0.0, 2022-05-17 12:31:10.238
59.0, 38642.344014924056, 60108.91468631205, -35644.37158636708, 16686.44895392048, 31928.528181139016, 11130.878166064998, 33674.087664376224, 16905.29488388239, 0.07, 1.022, 0.074, 192.0, 0.0, 0.0, 0.0, 0.0, 0.0, 0.0, 0.0, 0.0, 0.0, 1.652783470238737E9, 0.0, 2022-05-17 12:31:10.238
60.0, 38649.76479408322, 60094.85543904966, -35676.60280187164, 16829.67893239009, 32086.890290604868, 11150.525349441214, 33699.09926642171, 16899.885761724207, 0.07, 1.022, 0.074, 192.0, 0.0, 0.0, 0.0, 0.0, 0.0, 0.0, 0.0, 0.0, 0.0, 1.6527834702387419E9, 0.0, 2022-05-17 12:31:10.238
61.0, 38627.92713975038, 60083.12077321062, -35728.727069941415, 17232.613829685906, 32304.864502533022, 11208.483422813824, 33712.93499623954, 16893.068479665337, 0.07, 1.022, 0.074, 192.0, 0.0, 0.0, 0.0, 0.0, 0.0, 0.0, 0.0, 0.0, 0.0, 1.6527834702387464E9, 0.0, 2022-05-17 12:31:10.238
62.0, 38607.14001740694, 60096.26359895034, -35718.95935761444, 17309.32501665652, 32215.546931689612, 11226.342466633614, 33703.97194671297, 16905.428994349124, 0.07, 1.022, 0.074, 192.0, 0.0, 0.0, 0.0, 0.0, 0.0, 0.0, 0.0, 0.0, 0.0, 1.6527834702387512E9, 0.0, 2022-05-17 12:31:10.238
63.0, 38605.843616228536, 60103.08088100921, -35685.0741130202, 17008.3140740769, 32034.140173690343, 11179.49321025529, 33694.11482740818, 16911.374558374235, 0.07, 1.022, 0.074, 192.0, 0.0, 0.0, 0.0, 0.0, 0.0, 0.0, 0.0, 0.0, 0.0, 1.6527834702387557E9, 0.0, 2022-05-17 12:31:10.238
64.0, 38631.32460490759, 60106.925381055524, -35656.48623186186, 16679.45285790597, 31945.739024369603, 11130.6770003649, 33680.05558014579, 16906.457174594067, 0.07, 1.022, 0.074, 192.0, 0.0, 0.0, 0.0, 0.0, 0.0, 0.0, 0.0, 0.0, 0.0, 1.6527834702387636E9, 0.0, 2022-05-17 12:31:10.238
65.0, 38646.05440450364, 60100.84570656368, -35674.7699588263, 16814.390339182657, 32093.88638661938, 11157.54379720018, 33720.26636842089, 16909.96639847355, 0.07, 1.022, 0.074, 192.0, 0.0, 0.0, 0.0, 0.0, 0.0, 0.0, 0.0, 0.0, 0.0, 1.652783470238768E9, 0.0, 2022-05-17 12:31:10.238
66.0, 38628.59769208404, 60088.46284013544, -35718.1323430696, 17228.098777305935, 32326.076308021107, 11216.462995584368, 33751.827031591776, 16910.3910816182, 0.07, 1.022, 0.074, 192.0, 0.0, 0.0, 0.0, 0.0, 0.0, 0.0, 0.0, 0.0, 0.0, 1.6527834702387729E9, 0.0, 2022-05-17 12:31:10.238
67.0, 38596.679401001864, 60088.90987502455, -35714.62311919012, 17307.670987566828, 32234.09887958752, 11223.280277643238, 33727.24011269094, 16911.598075818787, 0.07, 1.022, 0.074, 192.0, 0.0, 0.0, 0.0, 0.0, 0.0, 0.0, 0.0, 0.0, 0.0, 1.6527834702387776E9, 0.0, 2022-05-17 12:31:10.238
68.0, 38595.40535156791, 60095.66010185005, -35678.167423983505, 17013.902010190726, 32041.605656338415, 11176.319262542638, 33701.44619958952, 16909.67582579563, 0.068, 1.022, 0.07, 192.0, 2.0, 32.0, 31.0, 240.0, 2.0, 48.0, 0.0, 0.0, 0.0, 1.652783470238783E9, 0.0, 2022-05-17 12:31:10.238
69.0, 38614.091409932546, 60102.79030833129, -35648.84193525815, 16687.67829986552, 31959.172422787244, 11135.7284946118, 33695.835911731236, 16904.803145504375, 0.068, 1.022, 0.07, 192.0, 0.0, 0.0, 0.0, 0.0, 0.0, 0.0, 0.0, 0.0, 0.0, 1.6527834702387877E9, 0.0, 2022-05-17 12:31:10.238
70.0, 38623.389735625955, 60088.954578513454, -35679.35206643964, 16812.512792648413, 32095.898043620356, 11162.818808891632, 33716.89125500814, 16904.020834448438, 0.068, 1.022, 0.07, 192.0, 0.0, 0.0, 0.0, 0.0, 0.0, 0.0, 0.0, 0.0, 0.0, 1.6527834702387924E9, 0.0, 2022-05-17 12:31:10.238
71.0, 38612.482084331765, 60078.203389430455, -35722.423878005015, 17216.386463211355, 32305.892682777965, 11213.154937404983, 33739.08653725225, 16903.283226881413, 0.068, 1.022, 0.07, 192.0, 0.0, 0.0, 0.0, 0.0, 0.0, 0.0, 0.0, 0.0, 0.0, 1.652783470238797E9, 0.0, 2022-05-17 12:31:10.238
72.0, 38592.65608699991, 60082.85255227716, -35721.82038090472, 17303.75943228715, 32224.130001560454, 11206.6952832574, 33718.969967242476, 16904.266703637448, 0.068, 1.022, 0.07, 192.0, 0.0, 0.0, 0.0, 0.0, 0.0, 0.0, 0.0, 0.0, 0.0, 1.6527834702388017E9, 0.0, 2022-05-17 12:31:10.238
73.0, 38598.355781836006, 60090.89918028107, -35687.57750839919, 17006.637693242752, 32044.265513928596, 11155.420381476926, 33699.23337688844, 16898.76817450144, 0.068, 1.022, 0.07, 192.0, 0.0, 0.0, 0.0, 0.0, 0.0, 0.0, 0.0, 0.0, 0.0, 1.6527834702388065E9, 0.0, 2022-05-17 12:31:10.238
74.0, 38627.793029283646, 60098.677587351514, -35656.91091500651, 16683.431468419014, 31947.75068137058, 11115.947200768853, 33684.59298427022, 16890.49802905298, 0.068, 1.022, 0.07, 192.0, 0.0, 0.0, 0.0, 0.0, 0.0, 0.0, 0.0, 0.0, 0.0, 1.6527834702388108E9, 0.0, 2022-05-17 12:31:10.238
75.0, 38647.015529515214, 60095.72715708341, -35677.80979607222, 16801.09105123175, 32079.53656667907, 11149.631279663, 33706.38593511414, 16890.833305219807, 0.068, 1.022, 0.07, 192.0, 0.0, 0.0, 0.0, 0.0, 0.0, 0.0, 0.0, 0.0, 0.0, 1.6527834702388155E9, 0.0, 2022-05-17 12:31:10.238
76.0, 38643.95334052484, 60099.169325729534, -35712.142075555574, 17220.476832446675, 32303.34458391006, 11212.529088560235, 33734.16915347209, 16901.785660002908, 0.068, 1.022, 0.07, 192.0, 0.0, 0.0, 0.0, 0.0, 0.0, 0.0, 0.0, 0.0, 0.0, 1.6527834702388203E9, 0.0, 2022-05-17 12:31:10.238
77.0, 38611.990345953745, 60100.577485630216, -35713.773752900815, 17308.09567071148, 32229.203847551806, 11218.161728162971, 33713.71730729548, 16895.147191899683, 0.068, 1.022, 0.07, 192.0, 0.0, 0.0, 0.0, 0.0, 0.0, 0.0, 0.0, 0.0, 0.0, 1.652783470238825E9, 0.0, 2022-05-17 12:31:10.238
78.0, 38614.20316865482, 60110.68047412401, -35675.21699371541, 17006.23536184256, 32044.220810439685, 11176.341614287092, 33683.63185925864, 16886.050031906372, 0.07200000000000001, 1.02, 0.07, 192.0, 2.0, 64.0, 31.0, 224.0, 2.0, 48.0, 0.0, 0.0, 0.0, 1.6527834702388299E9, 0.0, 2022-05-17 12:31:10.238
79.0, 38640.0194335007, 60119.77763411732, -35643.45516484442, 16679.519913139335, 31947.974198815133, 11123.323276439105, 33679.742655723414, 16882.138476626693, 0.07200000000000001, 1.02, 0.07, 192.0, 0.0, 0.0, 0.0, 0.0, 0.0, 0.0, 0.0, 0.0, 0.0, 1.6527834702388344E9, 0.0, 2022-05-17 12:31:10.238
80.0, 38666.81917510262, 60117.54245967179, -35664.17523195448, 16796.441888385045, 32088.54431969456, 11149.452465707358, 33707.369411870175, 16890.766249986442, 0.07200000000000001, 1.02, 0.07, 192.0, 0.0, 0.0, 0.0, 0.0, 0.0, 0.0, 0.0, 0.0, 0.0, 1.6527834702388391E9, 0.0, 2022-05-17 12:31:10.238
81.0, 38659.398395943455, 60102.90206705357, -35712.365593000126, 17207.40106194032, 32313.38051717049, 11216.753568262287, 33732.51512438239, 16901.360976858257, 0.07200000000000001, 1.02, 0.07, 192.0, 0.0, 0.0, 0.0, 0.0, 0.0, 0.0, 0.0, 0.0, 0.0, 1.652783470238846E9, 0.0, 2022-05-17 12:31:10.238
82.0, 38641.69581433485, 60109.585238645705, -35702.53082543979, 17304.005301476158, 32229.96380686329, 11229.248193412805, 33726.726022568466, 16915.040244464904, 0.07200000000000001, 1.02, 0.07, 192.0, 0.0, 0.0, 0.0, 0.0, 0.0, 0.0, 0.0, 0.0, 0.0, 1.6527834702388504E9, 0.0, 2022-05-17 12:31:10.238
83.0, 38644.355671925034, 60118.41417770555, -35664.48815637686, 17018.640580015253, 32043.326740661472, 11180.20846607786, 33702.09440017872, 16912.73801478601, 0.07200000000000001, 1.02, 0.07, 192.0, 0.0, 0.0, 0.0, 0.0, 0.0, 0.0, 0.0, 0.0, 0.0, 1.6527834702388551E9, 0.0, 2022-05-17 12:31:10.238
84.0, 38661.052425033144, 60117.72127362744, -35644.52804857827, 16677.73177358291, 31948.532992426517, 11127.704218352344, 33689.42096107256, 16906.144250171692, 0.07200000000000001, 1.02, 0.07, 192.0, 0.0, 0.0, 0.0, 0.0, 0.0, 0.0, 0.0, 0.0, 0.0, 1.6527834702388597E9, 0.0, 2022-05-17 12:31:10.238
85.0, 38679.51496595323, 60117.90008758308, -35667.50564187833, 16791.211580182502, 32090.15364529534, 11155.822712877121, 33719.886388765146, 16908.44647985059, 0.07200000000000001, 1.02, 0.07, 192.0, 0.0, 0.0, 0.0, 0.0, 0.0, 0.0, 0.0, 0.0, 0.0, 1.6527834702388647E9, 0.0, 2022-05-17 12:31:10.238
86.0, 38672.72003563881, 60108.065320022746, -35711.35976449964, 17207.848096829428, 32322.723546352812, 11222.095635187106, 33748.09429026774, 16907.664168794654, 0.07200000000000001, 1.02, 0.07, 192.0, 0.0, 0.0, 0.0, 0.0, 0.0, 0.0, 0.0, 0.0, 0.0, 1.6527834702388713E9, 0.0, 2022-05-17 12:31:10.238
87.0, 38658.973712798805, 60121.09638704019, -35699.982726571885, 17303.558266587053, 32244.09010935904, 11222.520318331757, 33745.948522800034, 16912.11216594126, 0.07200000000000001, 1.02, 0.07, 192.0, 0.0, 0.0, 0.0, 0.0, 0.0, 0.0, 0.0, 0.0, 0.0, 1.652783470238876E9, 0.0, 2022-05-17 12:31:10.238
88.0, 38656.91735230891, 60125.879660353625, -35665.76220581081, 17022.820356228396, 32059.867031558402, 11174.039384608197, 33737.410156418104, 16910.614599062756, 0.068, 1.022, 0.07200000000000001, 192.0, 2.0, 32.0, 31.0, 240.0, 2.0, 64.0, 0.0, 0.0, 0.0, 1.6527834702388804E9, 0.0, 2022-05-17 12:31:10.238
89.0, 38672.40711121644, 60121.118738784644, -35647.992568968846, 16690.29345396679, 31960.826451876936, 11127.771273585711, 33714.991356729435, 16911.285151396412, 0.068, 1.022, 0.07200000000000001, 192.0, 0.0, 0.0, 0.0, 0.0, 0.0, 0.0, 0.0, 0.0, 0.0, 1.6527834702388852E9, 0.0, 2022-05-17 12:31:10.238
90.0, 38698.37983827351, 60117.90008758308, -35671.23838320236, 16793.156181950115, 32085.839758615468, 11146.591442417079, 33716.06424046329, 16906.144250171692, 0.068, 1.022, 0.07200000000000001, 192.0, 0.0, 0.0, 0.0, 0.0, 0.0, 0.0, 0.0, 0.0, 0.0, 1.6527834702388897E9, 0.0, 2022-05-17 12:31:10.238
91.0, 38693.507157982254, 60106.47834616642, -35722.75915417184, 17205.769384595085, 32308.932520023885, 11198.782765720222, 33753.235191492466, 16905.25018039348, 0.068, 1.022, 0.07200000000000001, 192.0, 0.0, 0.0, 0.0, 0.0, 0.0, 0.0, 0.0, 0.0, 0.0, 1.6527834702388945E9, 0.0, 2022-05-17 12:31:10.238
92.0, 38670.41780595992, 60110.926343313025, -35718.69113668098, 17305.435813121298, 32238.90450464541, 11215.390111850515, 33740.15942098611, 16902.702081525575, 0.068, 1.022, 0.07200000000000001, 192.0, 0.0, 0.0, 0.0, 0.0, 0.0, 0.0, 0.0, 0.0, 0.0, 1.652783470238899E9, 0.0, 2022-05-17 12:31:10.238
93.0, 38674.73169263979, 60125.83495686472, -35675.4181594155, 17026.37428359679, 32061.699874603735, 11178.241512565794, 33717.69591780852, 16899.639892535197, 0.068, 1.022, 0.07200000000000001, 192.0, 0.0, 0.0, 0.0, 0.0, 0.0, 0.0, 0.0, 0.0, 0.0, 1.6527834702389035E9, 0.0, 2022-05-17 12:31:10.238
94.0, 38695.58587021659, 60126.930192343025, -35646.20442941242, 16694.473230179934, 31957.205469275174, 11132.48749166578, 33693.55603379679, 16892.129706398217, 0.068, 1.022, 0.07200000000000001, 192.0, 0.0, 0.0, 0.0, 0.0, 0.0, 0.0, 0.0, 0.0, 0.0, 1.652783470238908E9, 0.0, 2022-05-17 12:31:10.238
95.0, 38709.37689654552, 60117.38599746061, -35671.01486575781, 16788.37290863668, 32085.43742721527, 11148.737209884788, 33709.00108921541, 16891.68267150911, 0.068, 1.022, 0.07200000000000001, 192.0, 0.0, 0.0, 0.0, 0.0, 0.0, 0.0, 0.0, 0.0, 0.0, 1.6527834702389128E9, 0.0, 2022-05-17 12:31:10.238
96.0, 38699.98916387429, 60106.54540139978, -35721.59686346017, 17197.45453565771, 32316.509761394234, 11205.667103012456, 33731.79986855982, 16890.878008708718, 0.068, 1.022, 0.07200000000000001, 192.0, 0.0, 0.0, 0.0, 0.0, 0.0, 0.0, 0.0, 0.0, 0.0, 1.652783470238917E9, 0.0, 2022-05-17 12:31:10.238
97.0, 38683.51592821073, 60115.48609918191, -35715.87481687961, 17307.022786977624, 32241.05027211312, 11225.738969533322, 33730.95050227052, 16897.136497156203, 0.066, 1.02, 0.068, 192.0, 2.0, 16.0, 31.0, 224.0, 2.0, 32.0, 0.0, 0.0, 0.0, 1.652783470238922E9, 0.0, 2022-05-17 12:31:10.238
98.0, 38684.633515433496, 60123.13039578562, -35674.92642103749, 17022.84270797285, 32042.812650539003, 11175.380489275514, 33717.092420708235, 16892.73320349851, 0.066, 1.02, 0.068, 192.0, 0.0, 0.0, 0.0, 0.0, 0.0, 0.0, 0.0, 0.0, 0.0, 1.6527834702389266E9, 0.0, 2022-05-17 12:31:10.238
99.0, 38706.35941104405, 60121.63282890712, -35648.23843815785, 16689.667605122042, 31951.17049827224, 11136.175529500906, 33700.373315855664, 16879.120991125226, 0.066, 1.02, 0.068, 192.0, 0.0, 0.0, 0.0, 0.0, 0.0, 0.0, 0.0, 0.0, 0.0, 1.6527834702389312E9, 0.0, 2022-05-17 12:31:10.238
100.0, 38722.18444611841, 60113.07211078073, -35670.88075529108, 16784.461353357, 32086.35384873794, 11180.87901841152, 33716.466571863486, 16888.62048251873, 0.066, 1.02, 0.068, 192.0, 0.0, 0.0, 0.0, 0.0, 0.0, 0.0, 0.0, 0.0, 0.0, 1.6527834702389357E9, 0.0, 2022-05-17 12:31:10.238
101.0, 38723.145571129986, 60118.16830851654, -35702.7766946288, 17205.16588749479, 32307.904339778943, 11212.774957749243, 33746.61907513369, 16895.147191899683, 0.066, 1.02, 0.068, 192.0, 0.0, 0.0, 0.0, 0.0, 0.0, 0.0, 0.0, 0.0, 0.0, 1.6527834702389405E9, 0.0, 2022-05-17 12:31:10.238
102.0, 38699.56448072964, 60121.118738784644, -35699.8262643607, 17325.2394587087, 32242.816059925088, 11226.677742800444, 33736.963121529, 16895.370709344235, 0.066, 1.02, 0.068, 192.0, 0.0, 0.0, 0.0, 0.0, 0.0, 0.0, 0.0, 0.0, 0.0, 1.652783470238945E9, 0.0, 2022-05-17 12:31:10.238
103.0, 38691.51785272573, 60119.48706143941, -35666.81273780021, 17042.355780882335, 32053.563839622006, 11186.981044647819, 33710.230435160454, 16900.064575679848, 0.066, 1.02, 0.068, 192.0, 0.0, 0.0, 0.0, 0.0, 0.0, 0.0, 0.0, 0.0, 0.0, 1.6527834702389495E9, 0.0, 2022-05-17 12:31:10.238
104.0, 38707.16407384445, 60115.955485815466, -35644.57275206718, 16697.714233125953, 31955.774957630034, 11144.378619716004, 33679.876766190144, 16896.778869244918, 0.066, 1.02, 0.068, 192.0, 0.0, 0.0, 0.0, 0.0, 0.0, 0.0, 0.0, 0.0, 0.0, 1.6527834702389543E9, 0.0, 2022-05-17 12:31:10.238
105.0, 38739.775269004735, 60125.65614290907, -35654.02753997178, 16784.461353357, 32082.799921369544, 11169.189056061394, 33694.494807063915, 16897.784697745406, 0.066, 1.02, 0.068, 192.0, 0.0, 0.0, 0.0, 0.0, 0.0, 0.0, 0.0, 0.0, 0.0, 1.6527834702389588E9, 0.0, 2022-05-17 12:31:10.238
106.0, 38724.57608277513, 60111.01575029085, -35704.27426150731, 17200.427317670266, 32312.888778792476, 11219.368722363559, 33736.314920939796, 16897.985863445505, 0.066, 1.02, 0.068, 192.0, 0.0, 0.0, 0.0, 0.0, 0.0, 0.0, 0.0, 0.0, 0.0, 1.6527834702389636E9, 0.0, 2022-05-17 12:31:10.238
107.0, 38687.09220732358, 60106.05366302177, -35716.72418316891, 17317.975141760726, 32242.860763414, 11223.16851892096, 33720.355775398704, 16891.05682266436, 0.066, 1.018, 0.07, 192.0, 2.0, 16.0, 31.0, 208.0, 2.0, 48.0, 0.0, 0.0, 0.0, 1.6527834707180815E9, 0.0, 2022-05-17 12:31:10.718
108.0, 38689.95323061386, 60116.84955559368, -35679.59793562865, 17039.2712401475, 32060.738749592158, 11188.702128970877, 33711.92916773906, 16890.67684300862, 0.066, 1.018, 0.07, 192.0, 0.0, 0.0, 0.0, 0.0, 0.0, 0.0, 0.0, 0.0, 0.0, 1.6527834707182338E9, 0.0, 2022-05-17 12:31:10.718
109.0, 38709.734524456806, 60119.799985861784, -35654.38516788306, 16691.20987548946, 31959.954733843177, 11141.092913281074, 33700.57448155576, 16886.877046451216, 0.066, 1.018, 0.07, 192.0, 0.0, 0.0, 0.0, 0.0, 0.0, 0.0, 0.0, 0.0, 0.0, 1.6527834707182496E9, 0.0, 2022-05-17 12:31:10.718
110.0, 38723.145571129986, 60106.61245663315, -35679.419121673, 16776.995870708928, 32088.566671439014, 11167.847951394077, 33712.66677530608, 16892.621444776232, 0.066, 1.018, 0.07, 192.0, 0.0, 0.0, 0.0, 0.0, 0.0, 0.0, 0.0, 0.0, 0.0, 1.6527834707182593E9, 0.0, 2022-05-17 12:31:10.718
111.0, 38711.679126224415, 60092.463802392944, -35727.45302050746, 17184.736393062638, 32324.087002764587, 11215.233649639327, 33740.070014008284, 16886.541770284388, 0.066, 1.018, 0.07, 192.0, 0.0, 0.0, 0.0, 0.0, 0.0, 0.0, 0.0, 0.0, 0.0, 1.652783470718269E9, 0.0, 2022-05-17 12:31:10.718
112.0, 38693.75302717126, 60105.09253801019, -35718.95935761444, 17309.056795723056, 32254.6624844864, 11233.517376603768, 33737.45485990702, 16890.766249986442, 0.066, 1.018, 0.07, 192.0, 0.0, 0.0, 0.0, 0.0, 0.0, 0.0, 0.0, 0.0, 0.0, 1.652783470718278E9, 0.0, 2022-05-17 12:31:10.718
113.0, 38693.88713763799, 60117.631866649615, -35680.80492982923, 17039.22653665859, 32064.270325216097, 11194.602989507079, 33711.415077616584, 16893.895494210185, 0.066, 1.018, 0.07, 192.0, 0.0, 0.0, 0.0, 0.0, 0.0, 0.0, 0.0, 0.0, 0.0, 1.6527834707182877E9, 0.0, 2022-05-17 12:31:10.718
114.0, 38719.725754228326, 60127.42193072104, -35650.78653702576, 16696.127259269626, 31966.146167057297, 11147.887843595487, 33686.93991743802, 16897.87410472323, 0.066, 1.018, 0.07, 192.0, 0.0, 0.0, 0.0, 0.0, 0.0, 0.0, 0.0, 0.0, 0.0, 1.6527834707182956E9, 0.0, 2022-05-17 12:31:10.718
115.0, 38742.41277485046, 60129.67945691103, -35664.8681360326, 16779.432210854557, 32088.11963654991, 11188.053928381674, 33709.20225491551, 16907.217133905546, 0.066, 1.018, 0.07, 192.0, 0.0, 0.0, 0.0, 0.0, 0.0, 0.0, 0.0, 0.0, 0.0, 1.6527834707183027E9, 0.0, 2022-05-17 12:31:10.718
116.0, 38732.35448984557, 60121.252849251374, -35710.9797848439, 17200.427317670266, 32321.181275985396, 11243.620365097568, 33747.02140653389, 16903.68555828161, 0.066, 1.018, 0.07, 192.0, 0.0, 0.0, 0.0, 0.0, 0.0, 0.0, 0.0, 0.0, 0.0, 1.6527834707183104E9, 0.0, 2022-05-17 12:31:10.718
117.0, 38706.158245343955, 60120.627000406625, -35714.39960174556, 17328.14518548789, 32261.47976654527, 11244.156806964495, 33736.60549361772, 16910.927523485127, 0.066, 1.018, 0.074, 192.0, 2.0, 16.0, 31.0, 208.0, 2.0, 80.0, 0.0, 0.0, 0.0, 1.6527834707183175E9, 0.0, 2022-05-17 12:31:10.718
118.0, 38690.3332102696, 60115.75432011537, -35691.08673227867, 17043.85334776084, 32073.90392707633, 11197.374605819537, 33703.36844961267, 16903.976130959527, 0.066, 1.018, 0.074, 192.0, 0.0, 0.0, 0.0, 0.0, 0.0, 0.0, 0.0, 0.0, 0.0, 1.6527834707183244E9, 0.0, 2022-05-17 12:31:10.718
119.0, 38712.95317565837, 60122.884526596616, -35653.62520857158, 16693.512105168356, 31964.13451005632, 11143.909233082442, 33676.23343184393, 16889.402793574667, 0.066, 1.018, 0.074, 192.0, 0.0, 0.0, 0.0, 0.0, 0.0, 0.0, 0.0, 0.0, 0.0, 1.6527834707183306E9, 0.0, 2022-05-17 12:31:10.718
120.0, 38737.0930596701, 60125.9914190759, -35663.68349357647, 16781.488571344446, 32098.334383765985, 11170.150181072973, 33714.34315614023, 16901.360976858257, 0.066, 1.018, 0.074, 192.0, 0.0, 0.0, 0.0, 0.0, 0.0, 0.0, 0.0, 0.0, 0.0, 1.652783470718338E9, 0.0, 2022-05-17 12:31:10.718
121.0, 38724.35256533058, 60113.20622124746, -35711.98561334439, 17198.77328858057, 32332.200686001863, 11233.003286481297, 33745.56854314429, 16895.974206444527, 0.066, 1.018, 0.074, 192.0, 0.0, 0.0, 0.0, 0.0, 0.0, 0.0, 0.0, 0.0, 0.0, 1.6527834707183447E9, 0.0, 2022-05-17 12:31:10.718
122.0, 38696.54699522817, 60112.51331716935, -35717.68530818049, 17324.725368586227, 32269.05700791562, 11231.908051002985, 33716.243054418934, 16885.40183131717, 0.066, 1.018, 0.074, 192.0, 0.0, 0.0, 0.0, 0.0, 0.0, 0.0, 0.0, 0.0, 0.0, 1.652783470718352E9, 0.0, 2022-05-17 12:31:10.718
123.0, 38692.07664633711, 60114.413215448054, -35685.387037442575, 17039.025370958494, 32085.146854537354, 11199.07333839814, 33694.42775183055, 16906.613636805254, 0.066, 1.018, 0.074, 192.0, 0.0, 0.0, 0.0, 0.0, 0.0, 0.0, 0.0, 0.0, 0.0, 1.652783470718361E9, 0.0, 2022-05-17 12:31:10.718
124.0, 38716.52945477122, 60121.36460797365, -35649.55719108071, 16685.644291120087, 31980.630097464338, 11146.658497650445, 33687.20813837148, 16907.194782161092, 0.066, 1.018, 0.074, 192.0, 0.0, 0.0, 0.0, 0.0, 0.0, 0.0, 0.0, 0.0, 0.0, 1.6527834707183669E9, 0.0, 2022-05-17 12:31:10.718
125.0, 38729.00172817728, 60111.75335785787, -35671.171327968994, 16762.489588557433, 32117.02044213062, 11162.081201324607, 33706.96708046998, 16904.423165848635, 0.066, 1.018, 0.074, 192.0, 0.0, 0.0, 0.0, 0.0, 0.0, 0.0, 0.0, 0.0, 0.0, 1.6527834707183733E9, 0.0, 2022-05-17 12:31:10.718
126.0, 38712.57319600263, 60097.87292455113, -35716.67947968, 17172.130009189845, 32338.07919479361, 11219.100501430095, 33734.50442963892, 16899.95281695757, 0.066, 1.018, 0.074, 192.0, 0.0, 0.0, 0.0, 0.0, 0.0, 0.0, 0.0, 0.0, 0.0, 1.6527834707183795E9, 0.0, 2022-05-17 12:31:10.718
127.0, 38682.19717528787, 60099.459898407455, -35719.07111633672, 17312.811888791548, 32276.835414986064, 11236.668972571966, 33727.2624644354, 16903.797317003886, 0.07, 1.02, 0.074, 192.0, 2.0, 48.0, 31.0, 224.0, 2.0, 80.0, 0.0, 0.0, 0.0, 1.6527834707183864E9, 0.0, 2022-05-17 12:31:10.718
128.0, 38683.06889332162, 60110.23343923491, -35678.92738329499, 17047.76490304052, 32082.308182991528, 11202.493155299802, 33710.14102818263, 16906.3901193607, 0.07, 1.02, 0.074, 192.0, 0.0, 0.0, 0.0, 0.0, 0.0, 0.0, 0.0, 0.0, 0.0, 1.6527834707184036E9, 0.0, 2022-05-17 12:31:10.718
129.0, 38705.80061743267, 60116.33546547121, -35647.6125893131, 16701.491677938902, 31982.574699231947, 11153.967518087331, 33695.99237394242, 16901.428032091622, 0.07, 1.02, 0.074, 192.0, 0.0, 0.0, 0.0, 0.0, 0.0, 0.0, 0.0, 0.0, 0.0, 1.65278347071841E9, 0.0, 2022-05-17 12:31:10.718
130.0, 38721.62565250703, 60109.7864043458, -35674.457034403924, 16759.69562050052, 32108.25855830414, 11172.02772760722, 33714.834894518244, 16898.991691945994, 0.07, 1.02, 0.074, 192.0, 0.0, 0.0, 0.0, 0.0, 0.0, 0.0, 0.0, 0.0, 0.0, 1.652783470718416E9, 0.0, 2022-05-17 12:31:10.718
131.0, 38712.036754135705, 60097.60470361766, -35720.63573844859, 17172.97937547915, 32334.704081380856, 11224.330809632636, 33739.734737841456, 16894.856619221762, 0.07, 1.02, 0.074, 192.0, 0.0, 0.0, 0.0, 0.0, 0.0, 0.0, 0.0, 0.0, 0.0, 1.6527834707184224E9, 0.0, 2022-05-17 12:31:10.718
132.0, 38687.04750383467, 60104.95842754345, -35718.221750047414, 17321.171441217833, 32282.24453714425, 11239.686458073433, 33727.68714758005, 16900.422203591133, 0.07, 1.02, 0.074, 192.0, 0.0, 0.0, 0.0, 0.0, 0.0, 0.0, 0.0, 0.0, 0.0, 1.65278347071843E9, 0.0, 2022-05-17 12:31:10.718
133.0, 38685.99697184527, 60119.33059922822, -35680.08967400667, 17055.14097871077, 32094.042848830566, 11194.513582529258, 33714.03023171786, 16904.15494491517, 0.07, 1.02, 0.074, 192.0, 0.0, 0.0, 0.0, 0.0, 0.0, 0.0, 0.0, 0.0, 0.0, 1.6527834707184367E9, 0.0, 2022-05-17 12:31:10.718
134.0, 38699.60918421855, 60117.43070094952, -35655.882734761566, 16708.197201275492, 31993.012963892575, 11142.545776670668, 33695.56769079777, 16896.10831691126, 0.07, 1.02, 0.074, 192.0, 0.0, 0.0, 0.0, 0.0, 0.0, 0.0, 0.0, 0.0, 0.0, 1.6527834707184432E9, 0.0, 2022-05-17 12:31:10.718
135.0, 38721.111562384554, 60105.85249732167, -35674.188813470464, 16758.7568472334, 32101.597738456458, 11166.238625793294, 33709.51517933788, 16898.96934020154, 0.07, 1.02, 0.074, 192.0, 0.0, 0.0, 0.0, 0.0, 0.0, 0.0, 0.0, 0.0, 0.0, 1.652783470718449E9, 0.0, 2022-05-17 12:31:10.718
136.0, 38707.87932966701, 60083.99249124438, -35726.17897107351, 17166.273852142556, 32334.569970914123, 11208.572829791645, 33737.65602560712, 16887.838171462798, 0.07, 1.02, 0.074, 192.0, 0.0, 0.0, 0.0, 0.0, 0.0, 0.0, 0.0, 0.0, 0.0, 1.6527834707184556E9, 0.0, 2022-05-17 12:31:10.718
137.0, 38679.716131653324, 60083.50075286636, -35729.30821529725, 17308.028615478113, 32283.987973211766, 11222.945001476408, 33730.45876389251, 16890.743898241984, 0.074, 1.018, 0.07200000000000001, 192.0, 2.0, 80.0, 31.0, 208.0, 2.0, 64.0, 0.0, 0.0, 0.0, 1.6527834707184622E9, 0.0, 2022-05-17 12:31:10.718
138.0, 38678.486785708286, 60088.820468046724, -35692.94192706847, 17045.395618128256, 32103.229415801696, 11188.54566675969, 33704.57544381326, 16895.102488410772, 0.074, 1.018, 0.07200000000000001, 192.0, 0.0, 0.0, 0.0, 0.0, 0.0, 0.0, 0.0, 0.0, 0.0, 1.6527834707184684E9, 0.0, 2022-05-17 12:31:10.718
139.0, 38717.11060012705, 60111.59689564668, -35643.29870263323, 16694.428526691023, 31987.268565567563, 11152.671116908923, 33704.82131300227, 16901.76330825845, 0.074, 1.018, 0.07200000000000001, 192.0, 0.0, 0.0, 0.0, 0.0, 0.0, 0.0, 0.0, 0.0, 0.0, 1.6527834707184749E9, 0.0, 2022-05-17 12:31:10.718
140.0, 38731.750992745285, 60101.89623855308, -35666.72333082239, 16758.198053622014, 32096.30037502055, 11169.21140780585, 33729.25176969192, 16897.091793667292, 0.074, 1.018, 0.07200000000000001, 192.0, 0.0, 0.0, 0.0, 0.0, 0.0, 0.0, 0.0, 0.0, 0.0, 1.6527834707184813E9, 0.0, 2022-05-17 12:31:10.718
141.0, 38717.9376146719, 60091.36856691463, -35723.42970650551, 17162.07172418496, 32320.711889351835, 11212.640847282511, 33739.42181341908, 16885.312424339347, 0.074, 1.018, 0.07200000000000001, 192.0, 0.0, 0.0, 0.0, 0.0, 0.0, 0.0, 0.0, 0.0, 0.0, 1.6527834707184875E9, 0.0, 2022-05-17 12:31:10.718
142.0, 38704.25834706525, 60110.45695667946, -35718.579377958704, 17317.885734782903, 32279.62938304298, 11242.5027778748, 33731.978682515466, 16904.222000148537, 0.074, 1.018, 0.07200000000000001, 192.0, 0.0, 0.0, 0.0, 0.0, 0.0, 0.0, 0.0, 0.0, 0.0, 1.652783470718495E9, 0.0, 2022-05-17 12:31:10.718
143.0, 38697.195195817374, 60115.37434045963, -35686.66108687653, 17062.494702636566, 32091.360639495928, 11198.73806223131, 33702.22851064545, 16898.410546590156, 0.074, 1.018, 0.07200000000000001, 192.0, 0.0, 0.0, 0.0, 0.0, 0.0, 0.0, 0.0, 0.0, 0.0, 1.6527834707185051E9, 0.0, 2022-05-17 12:31:10.718
144.0, 38723.99493741929, 60125.41027372006, -35652.462917859906, 16701.983416316918, 31980.8983183978, 11158.594329189578, 33679.58619351223, 16904.15494491517, 0.074, 1.018, 0.07200000000000001, 192.0, 0.0, 0.0, 0.0, 0.0, 0.0, 0.0, 0.0, 0.0, 0.0, 1.6527834707185123E9, 0.0, 2022-05-17 12:31:10.718
145.0, 38748.78302202022, 60128.22659352143, -35659.4143103855, 16759.516806544878, 32092.701744163245, 11189.015053393252, 33714.79019102934, 16921.075215467838, 0.074, 1.018, 0.07200000000000001, 192.0, 0.0, 0.0, 0.0, 0.0, 0.0, 0.0, 0.0, 0.0, 0.0, 1.6527834707185202E9, 0.0, 2022-05-17 12:31:10.718
146.0, 38735.99782419179, 60113.47444218093, -35711.91855811102, 17174.253424913102, 32332.7818313577, 11227.750626534298, 33747.46844142299, 16913.96736073105, 0.074, 1.018, 0.07200000000000001, 192.0, 0.0, 0.0, 0.0, 0.0, 0.0, 0.0, 0.0, 0.0, 0.0, 1.6527834707185276E9, 0.0, 2022-05-17 12:31:10.718
147.0, 38707.275832566724, 60114.480270681415, -35715.45013373496, 17332.95081054578, 32286.603127313036, 11243.530958119745, 33736.784307573354, 16914.995540975993, 0.074, 1.022, 0.07, 192.0, 2.0, 80.0, 31.0, 240.0, 2.0, 48.0, 0.0, 0.0, 0.0, 1.6527834707185345E9, 0.0, 2022-05-17 12:31:10.718
148.0, 38690.46732073633, 60108.065320022746, -35688.00219154384, 17070.116647495826, 32094.91456686432, 11190.266751082749, 33714.65608056261, 16900.601017546775, 0.074, 1.022, 0.07, 192.0, 0.0, 0.0, 0.0, 0.0, 0.0, 0.0, 0.0, 0.0, 0.0, 1.652783470718544E9, 0.0, 2022-05-17 12:31:10.718
149.0, 38715.05423963717, 60116.156651515565, -35652.64173181554, 16706.900800097086, 31980.831263164433, 11141.808169103644, 33694.56186229728, 16892.979072687518, 0.074, 1.022, 0.07, 192.0, 0.0, 0.0, 0.0, 0.0, 0.0, 0.0, 0.0, 0.0, 0.0, 1.6527834707185495E9, 0.0, 2022-05-17 12:31:10.718
150.0, 38746.25727489678, 60121.92340158504, -35661.0683394752, 16760.053248411805, 32080.87767134639, 11175.514599742246, 33720.847513776724, 16901.83036349182, 0.074, 1.022, 0.07, 192.0, 0.0, 0.0, 0.0, 0.0, 0.0, 0.0, 0.0, 0.0, 0.0, 1.6527834707185578E9, 0.0, 2022-05-17 12:31:10.718
151.0, 38726.27481535373, 60098.1858489735, -35725.77663967331, 17168.754895777096, 32324.10935450904, 11229.203489923893, 33748.764842601406, 16884.217188861036, 0.074, 1.022, 0.07, 192.0, 0.0, 0.0, 0.0, 0.0, 0.0, 0.0, 0.0, 0.0, 0.0, 1.6527834707185633E9, 0.0, 2022-05-17 12:31:10.718
