%OpenBCI Raw EEG Data
%Number of channels = 8
%Sample Rate = 250 Hz
%Board = OpenBCI_GUI$BoardCytonSerial
Sample Index, EXG Channel 0, EXG Channel 1, EXG Channel 2, EXG Channel 3, EXG Channel 4, EXG Channel 5, EXG Channel 6, EXG Channel 7, Accel Channel 0, Accel Channel 1, Accel Channel 2, Other, Other, Other, Other, Other, Other, Other, Analog Channel 0, Analog Channel 1, Analog Channel 2, Timestamp, Other, Timestamp (Formatted)
0.0, 0.0, 0.0, 0.0, 0.0, 0.0, 0.0, 0.0, 0.0, -0.05, 0.9420000000000001, 0.392, 192.0, 254.0, 112.0, 29.0, 112.0, 12.0, 64.0, 0.0, 0.0, 0.0, 1.6541729311561835E9, 0.0, 2022-06-02 14:28:51.156
1.0, 15120.530440870578, 324.01088762413116, -56974.10487819969, -45278.822812893726, -18191.21309414066, -21912.53267676028, 4565.880246863395, -1265.8239919929497, -0.05, 0.9420000000000001, 0.392, 192.0, 0.0, 0.0, 0.0, 0.0, 0.0, 0.0, 0.0, 0.0, 0.0, 1.654172931172208E9, 0.0, 2022-06-02 14:28:51.172
2.0, 15117.244734435646, 310.532785717581, -56950.50143605488, -45283.44962399598, -18183.83701847041, -21901.222694065895, 4583.3369592829895, -1253.4411255647094, -0.05, 0.9420000000000001, 0.392, 192.0, 0.0, 0.0, 0.0, 0.0, 0.0, 0.0, 0.0, 0.0, 0.0, 1.6541729316504612E9, 0.0, 2022-06-02 14:28:51.650
3.0, 15107.164097686304, 317.3947712653603, -56957.60929079167, -45290.26690605484, -18174.851617199376, -21880.033240322264, 4587.024997118116, -1231.6705264652403, -0.05, 0.9420000000000001, 0.392, 192.0, 0.0, 0.0, 0.0, 0.0, 0.0, 0.0, 0.0, 0.0, 0.0, 1.6541729316505592E9, 0.0, 2022-06-02 14:28:51.650
4.0, 15103.587818573455, 319.16055907732954, -56984.56549460477, -45327.616671039665, -18179.21020736816, -21884.168313046495, 4566.908427108339, -1247.3838028173213, -0.05, 0.9420000000000001, 0.392, 192.0, 0.0, 0.0, 0.0, 0.0, 0.0, 0.0, 0.0, 0.0, 0.0, 1.6541729316505702E9, 0.0, 2022-06-02 14:28:51.650
5.0, 15101.531458083566, 305.83891938196655, -57001.843393068724, -45344.71575554797, -18189.715527262157, -21909.626949981088, 4563.399203228856, -1264.5722943034523, -0.05, 0.9420000000000001, 0.392, 192.0, 0.0, 0.0, 0.0, 0.0, 0.0, 0.0, 0.0, 0.0, 0.0, 1.6541729316505783E9, 0.0, 2022-06-02 14:28:51.650
6.0, 15096.301149881025, 291.73496863066777, -57006.09022451523, -45390.93916308155, -18216.671731075257, -21940.561764307233, 4551.508075178633, -1288.0863294704354, -0.05, 0.9420000000000001, 0.392, 192.0, 0.0, 0.0, 0.0, 0.0, 0.0, 0.0, 0.0, 0.0, 0.0, 1.654172931650587E9, 0.0, 2022-06-02 14:28:51.650
7.0, 15120.821013548497, 325.06141961353063, -56953.89890121209, -45345.47571485946, -18188.88851271731, -21901.04388011025, 4583.538124983087, -1252.1894278752122, -0.05, 0.9420000000000001, 0.392, 192.0, 0.0, 0.0, 0.0, 0.0, 0.0, 0.0, 0.0, 0.0, 0.0, 1.6541729316506016E9, 0.0, 2022-06-02 14:28:51.650
8.0, 15114.339007656457, 333.1303993618965, -56953.45186632298, -45294.60314447917, -18160.077114114418, -21874.244138508337, 4592.367064042934, -1216.7395611690952, -0.064, 0.9520000000000001, 0.364, 192.0, 254.0, 0.0, 29.0, 192.0, 11.0, 96.0, 0.0, 0.0, 0.0, 1.6541729316506083E9, 0.0, 2022-06-02 14:28:51.650
9.0, 15094.825934746974, 307.5823554494805, -57012.37106470717, -45361.77013656737, -18188.776753995033, -21897.601711464133, 4552.983290312683, -1237.8172561904498, -0.064, 0.9520000000000001, 0.364, 192.0, 0.0, 0.0, 0.0, 0.0, 0.0, 0.0, 0.0, 0.0, 0.0, 1.654172931650624E9, 0.0, 2022-06-02 14:28:51.650
10.0, 15098.402213859823, 313.5055677301369, -57001.12813724615, -45346.81681952677, -18198.65622504428, -21918.835868696675, 4548.848217588451, -1274.1835444192345, -0.064, 0.9520000000000001, 0.364, 192.0, 0.0, 0.0, 0.0, 0.0, 0.0, 0.0, 0.0, 0.0, 0.0, 1.654172931650637E9, 0.0, 2022-06-02 14:28:51.650
11.0, 15091.294359123036, 310.3763235063939, -57004.793823336826, -45340.24540665691, -18207.66397805977, -21935.264400871325, 4542.3662116964115, -1288.1757364482567, -0.064, 0.9520000000000001, 0.364, 192.0, 0.0, 0.0, 0.0, 0.0, 0.0, 0.0, 0.0, 0.0, 0.0, 1.6541729316506462E9, 0.0, 2022-06-02 14:28:51.650
12.0, 15087.740431754642, 301.34621874644984, -57031.548861449824, -45360.16081096659, -18212.581361839933, -21923.395624565557, 4545.85308383144, -1255.2963203545, -0.064, 0.9520000000000001, 0.364, 192.0, 0.0, 0.0, 0.0, 0.0, 0.0, 0.0, 0.0, 0.0, 0.0, 1.6541729316506596E9, 0.0, 2022-06-02 14:28:51.650
13.0, 15085.214684631192, 306.12949205988554, -56953.0942384117, -45316.88783370112, -18189.31319586196, -21900.596845221145, 4577.14552606887, -1231.8493404208828, -0.064, 0.9520000000000001, 0.364, 192.0, 0.0, 0.0, 0.0, 0.0, 0.0, 0.0, 0.0, 0.0, 0.0, 1.6541729316506715E9, 0.0, 2022-06-02 14:28:51.650
14.0, 15095.98822545865, 312.1644630628184, -56949.0932761542, -45341.78767702433, -18176.058611399963, -21889.599786949133, 4593.752872199163, -1229.0330206195142, -0.064, 0.9520000000000001, 0.364, 192.0, 0.0, 0.0, 0.0, 0.0, 0.0, 0.0, 0.0, 0.0, 0.0, 1.6541729316506813E9, 0.0, 2022-06-02 14:28:51.650
15.0, 15115.836574534962, 312.79031190756706, -56981.88328527013, -45336.11033393268, -18191.905998218775, -21909.71635695891, 4574.3515580119565, -1242.4664190371536, -0.064, 0.9520000000000001, 0.364, 192.0, 0.0, 0.0, 0.0, 0.0, 0.0, 0.0, 0.0, 0.0, 0.0, 1.654172931650692E9, 0.0, 2022-06-02 14:28:51.650
16.0, 15130.298153197546, 314.46669274171506, -56981.32449165875, -45321.58170003673, -18202.25485590158, -21917.561819262723, 4571.3787759994, -1265.9581024596814, -0.064, 0.9520000000000001, 0.364, 192.0, 0.0, 0.0, 0.0, 0.0, 0.0, 0.0, 0.0, 0.0, 0.0, 1.6541729316507025E9, 0.0, 2022-06-02 14:28:51.650
17.0, 15153.879243597896, 331.7222394612121, -56925.46748226494, -45279.29219952729, -18169.77777120802, -21878.08863855465, 4604.548764771076, -1233.8162939329497, -0.076, 0.9540000000000001, 0.358, 192.0, 253.0, 160.0, 29.0, 208.0, 11.0, 48.0, 0.0, 0.0, 0.0, 1.6541729316507185E9, 0.0, 2022-06-02 14:28:51.650
18.0, 15157.902557599851, 336.1925883522735, -56917.7337786834, -45265.434117965, -18142.575698205914, -21853.904051054007, 4619.3903230894, -1204.066122062936, -0.076, 0.9540000000000001, 0.358, 192.0, 0.0, 0.0, 0.0, 0.0, 0.0, 0.0, 0.0, 0.0, 0.0, 1.654172931650726E9, 0.0, 2022-06-02 14:28:51.650
19.0, 15154.102761042448, 321.39573352286027, -56951.79783723329, -45306.24840334039, -18153.17042507773, -21862.442417435937, 4593.685816965797, -1218.0583140919584, -0.076, 0.9540000000000001, 0.358, 192.0, 0.0, 0.0, 0.0, 0.0, 0.0, 0.0, 0.0, 0.0, 0.0, 1.6541729316507344E9, 0.0, 2022-06-02 14:28:51.650
20.0, 15164.51867395862, 327.2518905701507, -56968.427535108036, -45337.898473489106, -18163.854558927367, -21881.597862434133, 4582.576999971509, -1229.1224275973354, -0.076, 0.9540000000000001, 0.358, 192.0, 0.0, 0.0, 0.0, 0.0, 0.0, 0.0, 0.0, 0.0, 0.0, 1.6541729316507428E9, 0.0, 2022-06-02 14:28:51.650
21.0, 15163.311679758035, 320.2781463000949, -56971.24385490941, -45330.008307696386, -18186.02748942703, -21904.75426968983, 4563.734479395685, -1259.6102070343743, -0.076, 0.9540000000000001, 0.358, 192.0, 0.0, 0.0, 0.0, 0.0, 0.0, 0.0, 0.0, 0.0, 0.0, 1.6541729316507492E9, 0.0, 2022-06-02 14:28:51.650
22.0, 15170.374831005913, 328.54829174855854, -56929.58020324472, -45316.32904008973, -18173.73402997661, -21892.885493384063, 4581.727633682208, -1260.5936837904078, -0.076, 0.9540000000000001, 0.358, 192.0, 0.0, 0.0, 0.0, 0.0, 0.0, 0.0, 0.0, 0.0, 0.0, 1.6541729316507888E9, 0.0, 2022-06-02 14:28:51.650
23.0, 15163.401086735856, 329.59882373795796, -56923.32171479723, -45298.179423592024, -18140.094654571374, -21855.625135377068, 4616.998686432682, -1217.298354780478, -0.076, 0.9540000000000001, 0.358, 192.0, 0.0, 0.0, 0.0, 0.0, 0.0, 0.0, 0.0, 0.0, 0.0, 1.6541729316507945E9, 0.0, 2022-06-02 14:28:51.650
24.0, 15158.90838610034, 326.2460620696619, -56957.586939047214, -45322.11814190366, -18148.387151764295, -21856.02746677726, 4601.598334502975, -1213.6997239231735, -0.076, 0.9540000000000001, 0.358, 192.0, 0.0, 0.0, 0.0, 0.0, 0.0, 0.0, 0.0, 0.0, 0.0, 1.6541729316508012E9, 0.0, 2022-06-02 14:28:51.650
25.0, 15155.801493621051, 318.6464689548575, -56982.397375392604, -45334.59041530972, -18170.425971797227, -21885.48706596936, 4573.971578356216, -1238.1301806128242, -0.076, 0.9540000000000001, 0.358, 192.0, 0.0, 0.0, 0.0, 0.0, 0.0, 0.0, 0.0, 0.0, 0.0, 1.6541729316508088E9, 0.0, 2022-06-02 14:28:51.650
26.0, 15138.747112601652, 301.05564606853085, -57001.5528203908, -45318.743028490906, -18186.094544660395, -21911.236275581872, 4567.3778137419, -1261.845381479905, -0.076, 0.9540000000000001, 0.358, 192.0, 0.0, 0.0, 0.0, 0.0, 0.0, 0.0, 0.0, 0.0, 0.0, 1.6541729316508212E9, 0.0, 2022-06-02 14:28:51.650
27.0, 15164.943357103271, 332.21397783922885, -56955.977613446434, -45282.309685028755, -18149.281221542504, -21874.467655952893, 4616.171671887836, -1223.4450845056874, -0.08600000000000001, 0.9460000000000001, 0.35000000000000003, 192.0, 253.0, 80.0, 29.0, 144.0, 10.0, 240.0, 0.0, 0.0, 0.0, 1.6541729316508312E9, 0.0, 2022-06-02 14:28:51.650
28.0, 15160.294194256569, 329.7105824602345, -56914.91745888203, -45280.52154547233, -18130.55045968896, -21849.52310914077, 4629.0015732051825, -1201.3839127282993, -0.08600000000000001, 0.9460000000000001, 0.35000000000000003, 192.0, 0.0, 0.0, 0.0, 0.0, 0.0, 0.0, 0.0, 0.0, 0.0, 1.654172931650842E9, 0.0, 2022-06-02 14:28:51.650
29.0, 15153.834540108985, 323.4520940127485, -56940.666668494545, -45325.180330894036, -18136.31720975843, -21855.111045254595, 4605.062854893548, -1215.845491390883, -0.08600000000000001, 0.9460000000000001, 0.35000000000000003, 192.0, 0.0, 0.0, 0.0, 0.0, 0.0, 0.0, 0.0, 0.0, 0.0, 1.6541729316508577E9, 0.0, 2022-06-02 14:28:51.650
30.0, 15146.033781294082, 310.26456478411734, -56960.6938315265, -45336.132685677134, -18160.30063155897, -21889.599786949133, 4570.060023076538, -1252.39059357531, -0.08600000000000001, 0.9460000000000001, 0.35000000000000003, 192.0, 0.0, 0.0, 0.0, 0.0, 0.0, 0.0, 0.0, 0.0, 0.0, 1.6541729316508677E9, 0.0, 2022-06-02 14:28:51.650
31.0, 15166.61973793742, 327.45305627024845, -56947.28278485332, -45306.00253415138, -18159.205396080662, -21887.811647392708, 4581.079433093004, -1243.6734132377403, -0.08600000000000001, 0.9460000000000001, 0.35000000000000003, 192.0, 0.0, 0.0, 0.0, 0.0, 0.0, 0.0, 0.0, 0.0, 0.0, 1.6541729316508791E9, 0.0, 2022-06-02 14:28:51.650
32.0, 15170.821865895017, 334.00211739565344, -56925.06515086474, -45331.37176410815, -18151.29287854348, -21874.467655952893, 4603.431177548311, -1230.3741252868326, -0.08600000000000001, 0.9460000000000001, 0.35000000000000003, 192.0, 0.0, 0.0, 0.0, 0.0, 0.0, 0.0, 0.0, 0.0, 0.0, 1.654172931650892E9, 0.0, 2022-06-02 14:28:51.650
33.0, 15177.929720631806, 350.22948387020637, -56917.174985072015, -45318.78773197982, -18135.221974280117, -21858.352048200613, 4613.91414569785, -1206.815386630939, -0.08600000000000001, 0.9460000000000001, 0.35000000000000003, 192.0, 0.0, 0.0, 0.0, 0.0, 0.0, 0.0, 0.0, 0.0, 0.0, 1.6541729316509008E9, 0.0, 2022-06-02 14:28:51.650
34.0, 15157.4778744552, 342.4510767997595, -56951.06022966626, -45295.027827623824, -18148.744779675577, -21874.668821652987, 4582.465241249232, -1227.2448810630897, -0.08600000000000001, 0.9460000000000001, 0.35000000000000003, 192.0, 0.0, 0.0, 0.0, 0.0, 0.0, 0.0, 0.0, 0.0, 0.0, 1.6541729316509116E9, 0.0, 2022-06-02 14:28:51.650
35.0, 15152.784008119585, 329.3306028044943, -56965.633567051125, -45342.078249702245, -18160.613555981345, -21887.968109603895, 4563.019223573116, -1250.289529596511, -0.08600000000000001, 0.9460000000000001, 0.35000000000000003, 192.0, 0.0, 0.0, 0.0, 0.0, 0.0, 0.0, 0.0, 0.0, 0.0, 1.6541729316509247E9, 0.0, 2022-06-02 14:28:51.650
36.0, 15158.930737844794, 312.74560841865645, -56951.37315408864, -45319.12300814665, -18162.804026937967, -21900.753307432333, 4564.382679984889, -1261.554808801986, -0.08600000000000001, 0.9460000000000001, 0.35000000000000003, 192.0, 0.0, 0.0, 0.0, 0.0, 0.0, 0.0, 0.0, 0.0, 0.0, 1.6541729316509423E9, 0.0, 2022-06-02 14:28:51.650
37.0, 15151.219386007713, 310.8010066510447, -56929.937831156, -45332.66816528657, -18160.881776914808, -21896.39471726355, 4589.4389855192885, -1274.9435037307148, -0.084, 0.9540000000000001, 0.34800000000000003, 192.0, 253.0, 96.0, 29.0, 208.0, 10.0, 224.0, 0.0, 0.0, 0.0, 1.654172931650952E9, 0.0, 2022-06-02 14:28:51.650
38.0, 15139.28355446858, 304.40840773682686, -56935.637525992104, -45284.92483913003, -18154.913861145244, -21892.885493384063, 4608.4379683063, -1225.1214653398354, -0.084, 0.9540000000000001, 0.34800000000000003, 192.0, 0.0, 0.0, 0.0, 0.0, 0.0, 0.0, 0.0, 0.0, 0.0, 1.6541729316509705E9, 0.0, 2022-06-02 14:28:51.650
39.0, 15130.745188086652, 294.3948262208493, -56974.06017471077, -45330.99178445242, -18172.795256709487, -21898.786353920266, 4594.803404188562, -1209.8999273657712, -0.084, 0.9540000000000001, 0.34800000000000003, 192.0, 0.0, 0.0, 0.0, 0.0, 0.0, 0.0, 0.0, 0.0, 0.0, 1.6541729316509905E9, 0.0, 2022-06-02 14:28:51.650
40.0, 15153.834540108985, 312.79031190756706, -56979.22342767995, -45336.423258355055, -18180.841884713398, -21905.894208657053, 4583.024034860616, -1236.00676488957, -0.084, 0.9540000000000001, 0.34800000000000003, 192.0, 0.0, 0.0, 0.0, 0.0, 0.0, 0.0, 0.0, 0.0, 0.0, 1.6541729316509988E9, 0.0, 2022-06-02 14:28:51.650
41.0, 15153.052229053048, 312.8350153964777, -56975.915369500566, -45311.52341503184, -18195.37051860935, -21936.694912516465, 4573.032805089093, -1292.7578440615946, -0.084, 0.9540000000000001, 0.34800000000000003, 192.0, 0.0, 0.0, 0.0, 0.0, 0.0, 0.0, 0.0, 0.0, 0.0, 1.6541729316510105E9, 0.0, 2022-06-02 14:28:51.651
42.0, 15160.09302855647, 323.7426666906675, -56944.15354062957, -45270.79853663428, -18175.92450093323, -21914.991368650364, 4618.786825989107, -1244.5451312714972, -0.084, 0.9540000000000001, 0.34800000000000003, 192.0, 0.0, 0.0, 0.0, 0.0, 0.0, 0.0, 0.0, 0.0, 0.0, 1.6541729316510217E9, 0.0, 2022-06-02 14:28:51.651
43.0, 15156.494397699165, 324.79319868006695, -56914.112796081645, -45285.01424610785, -18155.427951267713, -21872.433647207457, 4633.181349418324, -1184.1283660088022, -0.084, 0.9540000000000001, 0.34800000000000003, 192.0, 0.0, 0.0, 0.0, 0.0, 0.0, 0.0, 0.0, 0.0, 0.0, 1.6541729316510541E9, 0.0, 2022-06-02 14:28:51.651
44.0, 15143.396275448356, 307.7164659162123, -56959.688003026014, -45344.89456950362, -18171.70002123118, -21876.94869958743, 4583.851049405462, -1198.6122964158412, -0.084, 0.9540000000000001, 0.34800000000000003, 192.0, 0.0, 0.0, 0.0, 0.0, 0.0, 0.0, 0.0, 0.0, 0.0, 1.6541729316510665E9, 0.0, 2022-06-02 14:28:51.651
45.0, 15166.530330959598, 312.3656287629162, -56994.95905577649, -45314.00445866638, -18186.608634782868, -21896.90880738602, 4555.799610114052, -1236.945538156693, -0.084, 0.9540000000000001, 0.34800000000000003, 192.0, 0.0, 0.0, 0.0, 0.0, 0.0, 0.0, 0.0, 0.0, 0.0, 1.6541729316510732E9, 0.0, 2022-06-02 14:28:51.651
46.0, 15164.921005358818, 316.6348119538799, -56969.545122330805, -45319.659450013576, -18193.247102886093, -21925.630799011087, 4570.060023076538, -1263.8570384808825, -0.084, 0.9540000000000001, 0.34800000000000003, 192.0, 0.0, 0.0, 0.0, 0.0, 0.0, 0.0, 0.0, 0.0, 0.0, 1.6541729316510828E9, 0.0, 2022-06-02 14:28:51.651
47.0, 15153.834540108985, 323.1615213348295, -56925.48983400939, -45334.54571182081, -18185.22282662664, -21915.885438428573, 4602.335942070001, -1237.8396079349052, -0.08, 0.96, 0.342, 192.0, 253.0, 128.0, 30.0, 0.0, 10.0, 176.0, 0.0, 0.0, 0.0, 1.6541729316510968E9, 0.0, 2022-06-02 14:28:51.651
48.0, 15161.255319268146, 334.40444879584896, -56922.44999676347, -45357.478601631956, -18155.07032335643, -21873.439475707946, 4619.233860878213, -1194.8348516028943, -0.08, 0.96, 0.342, 192.0, 0.0, 0.0, 0.0, 0.0, 0.0, 0.0, 0.0, 0.0, 0.0, 1.6541729316511168E9, 0.0, 2022-06-02 14:28:51.651
49.0, 15161.903519857351, 322.98270737918705, -56924.90868865355, -45266.14937378757, -18165.93327116171, -21876.121685042584, 4591.182421586803, -1205.9660203416372, -0.08, 0.96, 0.342, 192.0, 0.0, 0.0, 0.0, 0.0, 0.0, 0.0, 0.0, 0.0, 0.0, 1.6541729316511269E9, 0.0, 2022-06-02 14:28:51.651
50.0, 15170.084258327994, 324.1002946019524, -56951.82018897775, -45294.73725494591, -18181.713602747157, -21898.652243453533, 4571.222313788213, -1232.4751892656313, -0.08, 0.96, 0.342, 192.0, 0.0, 0.0, 0.0, 0.0, 0.0, 0.0, 0.0, 0.0, 0.0, 1.6541729316511416E9, 0.0, 2022-06-02 14:28:51.651
51.0, 15178.019127609627, 326.80485568104456, -56941.426627806024, -45278.0852053267, -18184.97695743763, -21910.56572324821, 4576.340863268479, -1250.5801022744301, -0.08, 0.96, 0.342, 192.0, 0.0, 0.0, 0.0, 0.0, 0.0, 0.0, 0.0, 0.0, 0.0, 1.65417293165115E9, 0.0, 2022-06-02 14:28:51.651
52.0, 15177.728554931708, 334.35974530693835, -56917.800833916765, -45264.51769644233, -18174.136361376808, -21903.27905455578, 4595.2504390776685, -1251.0271371635363, -0.08, 0.96, 0.342, 192.0, 0.0, 0.0, 0.0, 0.0, 0.0, 0.0, 0.0, 0.0, 0.0, 1.6541729316511648E9, 0.0, 2022-06-02 14:28:51.651
53.0, 15151.465255196723, 317.59593696545807, -56933.4917585244, -45288.97050487644, -18171.364745064348, -21895.299481785238, 4596.904468167361, -1234.777418944528, -0.08, 0.96, 0.342, 192.0, 0.0, 0.0, 0.0, 0.0, 0.0, 0.0, 0.0, 0.0, 0.0, 1.654172931651172E9, 0.0, 2022-06-02 14:28:51.651
54.0, 15153.901595342351, 324.43557076878204, -56958.88334022562, -45341.40769736859, -18176.59505326689, -21891.276167783282, 4567.824848631007, -1237.1243521123354, -0.08, 0.96, 0.342, 192.0, 0.0, 0.0, 0.0, 0.0, 0.0, 0.0, 0.0, 0.0, 0.0, 1.6541729316511858E9, 0.0, 2022-06-02 14:28:51.651
55.0, 15170.978328106205, 329.4423615267708, -56964.873607739646, -45366.82163081427, -18176.863274200354, -21892.684327683965, 4565.813191630029, -1244.7686487160504, -0.08, 0.96, 0.342, 192.0, 0.0, 0.0, 0.0, 0.0, 0.0, 0.0, 0.0, 0.0, 0.0, 1.6541729316512036E9, 0.0, 2022-06-02 14:28:51.651
56.0, 15184.47878175721, 317.88650964337705, -56967.26524439636, -45306.62838299613, -18185.02166092654, -21911.012758137316, 4574.2397992896795, -1251.742392986106, -0.08, 0.96, 0.342, 192.0, 0.0, 0.0, 0.0, 0.0, 0.0, 0.0, 0.0, 0.0, 0.0, 1.6541729316512203E9, 0.0, 2022-06-02 14:28:51.651
57.0, 15177.952072376262, 321.1275125893966, -56931.77067420133, -45289.26107755436, -18179.27726260153, -21912.890304671564, 4582.487592993688, -1250.3342330854218, -0.078, 0.97, 0.342, 192.0, 253.0, 144.0, 30.0, 80.0, 10.0, 176.0, 0.0, 0.0, 0.0, 1.6541729316512332E9, 0.0, 2022-06-02 14:28:51.651
58.0, 15173.392316507377, 320.9039951448435, -56905.26150527734, -45327.81783673976, -18159.719486203132, -21888.079868326175, 4591.070662864526, -1236.0738201229358, -0.078, 0.97, 0.342, 192.0, 0.0, 0.0, 0.0, 0.0, 0.0, 0.0, 0.0, 0.0, 0.0, 1.6541729316512475E9, 0.0, 2022-06-02 14:28:51.651
59.0, 15168.743153660675, 325.9107859028323, -56946.053438908275, -45316.97724067894, -18161.55232924847, -21900.84271441015, 4578.240761547179, -1253.2846633535223, -0.078, 0.97, 0.342, 192.0, 0.0, 0.0, 0.0, 0.0, 0.0, 0.0, 0.0, 0.0, 0.0, 1.654172931651267E9, 0.0, 2022-06-02 14:28:51.651
60.0, 15167.08912457098, 323.00505912364235, -56987.38181440614, -45327.124932661645, -18176.729163733624, -21925.988426922373, 4579.648921447864, -1245.0815731384246, -0.078, 0.97, 0.342, 192.0, 0.0, 0.0, 0.0, 0.0, 0.0, 0.0, 0.0, 0.0, 0.0, 1.654172931651295E9, 0.0, 2022-06-02 14:28:51.651
61.0, 15176.566264220031, 320.70282944474576, -56942.477159795424, -45363.04418600132, -18184.082887659417, -21935.264400871325, 4589.237819819191, -1236.811427689961, -0.078, 0.97, 0.342, 192.0, 0.0, 0.0, 0.0, 0.0, 0.0, 0.0, 0.0, 0.0, 0.0, 1.6541729316513205E9, 0.0, 2022-06-02 14:28:51.651
62.0, 15194.134735361904, 343.25573960015055, -56899.47240346341, -45354.461116130486, -18167.766114207043, -21920.489897786367, 4602.648866492375, -1239.3818783023214, -0.078, 0.97, 0.342, 192.0, 0.0, 0.0, 0.0, 0.0, 0.0, 0.0, 0.0, 0.0, 0.0, 1.65417293165133E9, 0.0, 2022-06-02 14:28:51.651
63.0, 15197.688662730297, 352.0846786599968, -56909.01659834583, -45304.907298673075, -18145.839052896386, -21892.52786547278, 4627.548709815587, -1213.7220756676288, -0.078, 0.97, 0.342, 192.0, 0.0, 0.0, 0.0, 0.0, 0.0, 0.0, 0.0, 0.0, 0.0, 1.6541729316513388E9, 0.0, 2022-06-02 14:28:51.651
64.0, 15196.258151085158, 342.8310564554997, -56938.09621788219, -45278.755757660365, -18141.81573889443, -21891.343223016647, 4626.341715615001, -1209.944630854682, -0.078, 0.97, 0.342, 192.0, 0.0, 0.0, 0.0, 0.0, 0.0, 0.0, 0.0, 0.0, 0.0, 1.654172931651372E9, 0.0, 2022-06-02 14:28:51.651
65.0, 15206.696415745786, 330.96228014973167, -56945.785217974815, -45312.05985689877, -18161.082942614907, -21912.107993615627, 4594.401072788367, -1233.6151282328522, -0.078, 0.97, 0.342, 192.0, 0.0, 0.0, 0.0, 0.0, 0.0, 0.0, 0.0, 0.0, 0.0, 1.6541729316513813E9, 0.0, 2022-06-02 14:28:51.651
66.0, 15202.449584299278, 330.3140795605278, -56948.60153777618, -45316.3960953231, -18174.516341032548, -21933.029226425795, 4590.310703553046, -1245.0592213939692, -0.078, 0.97, 0.342, 192.0, 0.0, 0.0, 0.0, 0.0, 0.0, 0.0, 0.0, 0.0, 0.0, 1.6541729316514027E9, 0.0, 2022-06-02 14:28:51.651
67.0, 15188.09976435897, 337.80191395305565, -56910.5812204577, -45300.32519105973, -18171.87883518682, -21919.52877277479, 4622.29604986859, -1196.399473714766, -0.078, 0.964, 0.34400000000000003, 192.0, 253.0, 144.0, 30.0, 32.0, 10.0, 192.0, 0.0, 0.0, 0.0, 1.6541729316514258E9, 0.0, 2022-06-02 14:28:51.651
68.0, 15196.571075507532, 359.41605084133755, -56901.88639186459, -45298.0900166142, -18142.665105183736, -21884.168313046495, 4642.189102433813, -1170.8290780578945, -0.078, 0.964, 0.34400000000000003, 192.0, 0.0, 0.0, 0.0, 0.0, 0.0, 0.0, 0.0, 0.0, 0.0, 1.6541729316514385E9, 0.0, 2022-06-02 14:28:51.651
69.0, 15199.990892409194, 369.9437224797872, -56926.56271774325, -45329.60597629619, -18137.032465580996, -21874.37824897507, 4624.888852225406, -1179.4344996731877, -0.078, 0.964, 0.34400000000000003, 192.0, 0.0, 0.0, 0.0, 0.0, 0.0, 0.0, 0.0, 0.0, 0.0, 1.6541729316514485E9, 0.0, 2022-06-02 14:28:51.651
70.0, 15200.05794764256, 368.982597468209, -56958.7939332478, -45397.868203862694, -18157.797236179977, -21898.875760898085, 4599.050235635071, -1205.2731162635228, -0.078, 0.964, 0.34400000000000003, 192.0, 0.0, 0.0, 0.0, 0.0, 0.0, 0.0, 0.0, 0.0, 0.0, 1.6541729316514668E9, 0.0, 2022-06-02 14:28:51.651
71.0, 15205.511773289654, 371.46364110274806, -56961.7443635159, -45370.12968899366, -18162.98284089361, -21914.09729887215, 4624.620631291942, -1202.099168550869, -0.078, 0.964, 0.34400000000000003, 192.0, 0.0, 0.0, 0.0, 0.0, 0.0, 0.0, 0.0, 0.0, 0.0, 1.654172931651486E9, 0.0, 2022-06-02 14:28:51.651
72.0, 15212.4408140708, 367.30621663406095, -56929.60255498917, -45285.2377635524, -18153.081018099907, -21909.157563347526, 4653.208512450279, -1190.3868544562883, -0.078, 0.964, 0.34400000000000003, 192.0, 0.0, 0.0, 0.0, 0.0, 0.0, 0.0, 0.0, 0.0, 0.0, 1.6541729316515012E9, 0.0, 2022-06-02 14:28:51.651
73.0, 15202.047252899081, 372.51417309214753, -56899.04772031876, -45300.25813582637, -18132.49506145657, -21873.551234430222, 4661.679823598841, -1160.1896476971683, -0.078, 0.964, 0.34400000000000003, 192.0, 0.0, 0.0, 0.0, 0.0, 0.0, 0.0, 0.0, 0.0, 0.0, 1.6541729316515152E9, 0.0, 2022-06-02 14:28:51.651
74.0, 15198.87330518643, 366.4568503447593, -56950.099104654684, -45342.14530493561, -18126.080110797895, -21867.695077382934, 4648.82757053704, -1161.262531431023, -0.078, 0.964, 0.34400000000000003, 192.0, 0.0, 0.0, 0.0, 0.0, 0.0, 0.0, 0.0, 0.0, 0.0, 1.6541729316515229E9, 0.0, 2022-06-02 14:28:51.651
75.0, 15195.140563862393, 359.68427177480123, -56955.03884017931, -45407.83708188976, -18148.92359363122, -21893.891321884552, 4618.160977144358, -1191.3703312123218, -0.078, 0.964, 0.34400000000000003, 192.0, 0.0, 0.0, 0.0, 0.0, 0.0, 0.0, 0.0, 0.0, 0.0, 1.6541729316515288E9, 0.0, 2022-06-02 14:28:51.651
76.0, 15203.991854666694, 364.15462066586264, -56948.17685463153, -45381.864354832695, -18160.8370734259, -21915.125479117094, 4603.297067081579, -1212.5597849559529, -0.078, 0.964, 0.34400000000000003, 192.0, 0.0, 0.0, 0.0, 0.0, 0.0, 0.0, 0.0, 0.0, 0.0, 1.6541729316515353E9, 0.0, 2022-06-02 14:28:51.651
77.0, 15201.086127887504, 370.16723992434027, -56923.99226713089, -45324.80035123829, -18145.526128474015, -21905.491877256856, 4641.63030882243, -1187.6375898882854, -0.08, 0.9460000000000001, 0.34400000000000003, 192.0, 253.0, 128.0, 29.0, 144.0, 10.0, 192.0, 0.0, 0.0, 0.0, 1.6541729316515415E9, 0.0, 2022-06-02 14:28:51.651
78.0, 15187.920950403328, 367.70854803425647, -56926.138034598596, -45291.58565897771, -18125.521317186514, -21868.522091927778, 4663.2220939662575, -1161.3072349199338, -0.08, 0.9460000000000001, 0.34400000000000003, 192.0, 0.0, 0.0, 0.0, 0.0, 0.0, 0.0, 0.0, 0.0, 0.0, 1.6541729316515472E9, 0.0, 2022-06-02 14:28:51.651
79.0, 15188.85972367045, 379.73378655121167, -56942.45480805097, -45330.611804796674, -18114.568962403413, -21862.777693602766, 4662.618596865964, -1153.1488481937467, -0.08, 0.9460000000000001, 0.34400000000000003, 192.0, 0.0, 0.0, 0.0, 0.0, 0.0, 0.0, 0.0, 0.0, 0.0, 1.654172931651554E9, 0.0, 2022-06-02 14:28:51.651
80.0, 15184.836409668496, 375.24108591569495, -56962.23610189392, -45373.81772682878, -18141.324000516415, -21896.70764168592, 4624.352410358478, -1181.4014531852547, -0.08, 0.9460000000000001, 0.34400000000000003, 192.0, 0.0, 0.0, 0.0, 0.0, 0.0, 0.0, 0.0, 0.0, 0.0, 1.65417293165156E9, 0.0, 2022-06-02 14:28:51.651
81.0, 15189.865552170939, 361.22654214221745, -56972.74142178791, -45374.01889252888, -18159.719486203132, -21916.08660412867, 4606.180442116313, -1208.134139553802, -0.08, 0.9460000000000001, 0.34400000000000003, 192.0, 0.0, 0.0, 0.0, 0.0, 0.0, 0.0, 0.0, 0.0, 0.0, 1.6541729316515677E9, 0.0, 2022-06-02 14:28:51.651
82.0, 15189.619682981931, 359.5501613080694, -56956.91638671356, -45342.74880203591, -18161.39586703728, -21915.61721749511, 4617.780997488618, -1201.9650580841374, -0.08, 0.9460000000000001, 0.34400000000000003, 192.0, 0.0, 0.0, 0.0, 0.0, 0.0, 0.0, 0.0, 0.0, 0.0, 1.6541729316515727E9, 0.0, 2022-06-02 14:28:51.651
83.0, 15189.172648092825, 379.33145515101614, -56940.21963360544, -45354.28230217485, -18137.635962681292, -21874.266490252794, 4654.996652006705, -1168.5715518679085, -0.08, 0.9460000000000001, 0.34400000000000003, 192.0, 0.0, 0.0, 0.0, 0.0, 0.0, 0.0, 0.0, 0.0, 0.0, 1.6541729316515791E9, 0.0, 2022-06-02 14:28:51.651
84.0, 15182.601235222965, 381.09724296298543, -56956.35759310217, -45403.50084346543, -18143.894451128777, -21878.04393506574, 4631.0579336950705, -1164.5705896104087, -0.08, 0.9460000000000001, 0.34400000000000003, 192.0, 0.0, 0.0, 0.0, 0.0, 0.0, 0.0, 0.0, 0.0, 0.0, 1.6541729316515942E9, 0.0, 2022-06-02 14:28:51.651
85.0, 15189.977310893217, 374.63758881540167, -56994.62377960966, -45377.63987513064, -18167.87787292932, -21906.721223201897, 4591.651808220364, -1183.4131101862324, -0.08, 0.9460000000000001, 0.34400000000000003, 192.0, 0.0, 0.0, 0.0, 0.0, 0.0, 0.0, 0.0, 0.0, 0.0, 1.6541729316516051E9, 0.0, 2022-06-02 14:28:51.651
86.0, 15194.402956295367, 396.8775745484322, -56990.153430718594, -45357.344491165226, -18178.941986434696, -21923.797955965754, 4588.09788085197, -1206.681276164207, -0.08, 0.9460000000000001, 0.34400000000000003, 192.0, 0.0, 0.0, 0.0, 0.0, 0.0, 0.0, 0.0, 0.0, 0.0, 1.6541729316516402E9, 0.0, 2022-06-02 14:28:51.651
87.0, 15175.694546186274, 432.6180139324682, -56939.32556382723, -45361.233694700444, -18171.543559019992, -21924.177935621494, 4624.710038269763, -1202.1885755286903, -0.078, 0.9520000000000001, 0.34800000000000003, 192.0, 253.0, 144.0, 29.0, 192.0, 10.0, 224.0, 0.0, 0.0, 0.0, 1.6541729316516514E9, 0.0, 2022-06-02 14:28:51.651
88.0, 15190.5361045046, 469.49839228372485, -56956.91638671356, -45308.99766790839, -18146.911936630244, -21894.003080606828, 4640.065686710559, -1181.1108805073359, -0.078, 0.9520000000000001, 0.34800000000000003, 192.0, 0.0, 0.0, 0.0, 0.0, 0.0, 0.0, 0.0, 0.0, 0.0, 1.654172931651664E9, 0.0, 2022-06-02 14:28:51.651
89.0, 15199.074470886526, 516.392352150959, -56956.60346229118, -45351.71185156248, -18139.289991770984, -21872.65716465201, 4625.224128392235, -1153.7970487829505, -0.078, 0.9520000000000001, 0.34800000000000003, 192.0, 0.0, 0.0, 0.0, 0.0, 0.0, 0.0, 0.0, 0.0, 0.0, 1.6541729316516805E9, 0.0, 2022-06-02 14:28:51.651
90.0, 15196.012281896148, 548.8470851000649, -56936.79981670378, -45315.189101122516, -18146.688419185688, -21882.536635701257, 4616.775168988129, -1156.233388928579, -0.078, 0.9520000000000001, 0.34800000000000003, 192.0, 0.0, 0.0, 0.0, 0.0, 0.0, 0.0, 0.0, 0.0, 0.0, 1.6541729316516912E9, 0.0, 2022-06-02 14:28:51.651
91.0, 15193.263017328147, 546.008413554241, -56963.48779958342, -45330.36593560767, -18167.855521184865, -21913.784374449777, 4614.987029431704, -1191.0574067899474, -0.078, 0.9520000000000001, 0.34800000000000003, 192.0, 0.0, 0.0, 0.0, 0.0, 0.0, 0.0, 0.0, 0.0, 0.0, 1.6541729316517E9, 0.0, 2022-06-02 14:28:51.651
92.0, 15194.067680128537, 555.0832218030956, -56954.18947389001, -45346.03450847084, -18172.571739264935, -21914.7231477169, 4610.516680540643, -1196.8018051149613, -0.078, 0.9520000000000001, 0.34800000000000003, 192.0, 0.0, 0.0, 0.0, 0.0, 0.0, 0.0, 0.0, 0.0, 0.0, 1.654172931651713E9, 0.0, 2022-06-02 14:28:51.651
93.0, 15200.81790695404, 578.910181392453, -56926.74153169889, -45317.87131045715, -18143.134491817294, -21867.09158028264, 4615.5011195541765, -1160.7931447974618, -0.078, 0.9520000000000001, 0.34800000000000003, 192.0, 0.0, 0.0, 0.0, 0.0, 0.0, 0.0, 0.0, 0.0, 0.0, 1.6541729316517258E9, 0.0, 2022-06-02 14:28:51.651
94.0, 15190.893732415883, 580.5418587376903, -56937.515072526345, -45311.23284235392, -18142.620401694825, -21866.353972715613, 4623.1901196468025, -1148.075002202392, -0.078, 0.9520000000000001, 0.34800000000000003, 192.0, 0.0, 0.0, 0.0, 0.0, 0.0, 0.0, 0.0, 0.0, 0.0, 1.6541729316517384E9, 0.0, 2022-06-02 14:28:51.651
95.0, 15183.629415467909, 576.227972057816, -56971.10974444268, -45386.26764849039, -18162.20052983767, -21904.57545573419, 4621.826663235029, -1185.0224357870145, -0.078, 0.9520000000000001, 0.34800000000000003, 192.0, 0.0, 0.0, 0.0, 0.0, 0.0, 0.0, 0.0, 0.0, 0.0, 1.6541729316517591E9, 0.0, 2022-06-02 14:28:51.651
96.0, 15188.747964948174, 582.2182395718384, -56967.868741496655, -45339.418392112064, -18180.372498079836, -21925.51904028881, 4601.844203691984, -1216.784264658006, -0.076, 0.97, 0.34800000000000003, 192.0, 253.0, 160.0, 30.0, 80.0, 10.0, 224.0, 0.0, 0.0, 0.0, 1.6541729316517737E9, 0.0, 2022-06-02 14:28:51.651
97.0, 15197.487497030199, 581.6370942160004, -56939.12439812713, -45294.267868312345, -18172.281166587018, -21895.545350974244, 4618.116273655448, -1187.1234997658134, -0.076, 0.97, 0.34800000000000003, 192.0, 0.0, 0.0, 0.0, 0.0, 0.0, 0.0, 0.0, 0.0, 0.0, 1.6541729316517832E9, 0.0, 2022-06-02 14:28:51.651
98.0, 15199.29798833108, 580.6536174599669, -56929.04376137779, -45332.444647842014, -18150.44351225418, -21877.28397575426, 4646.167712946858, -1134.9545282071267, -0.076, 0.97, 0.34800000000000003, 192.0, 0.0, 0.0, 0.0, 0.0, 0.0, 0.0, 0.0, 0.0, 0.0, 1.6541729316517925E9, 0.0, 2022-06-02 14:28:51.651
99.0, 15197.018110396637, 584.6322279730115, -56951.48491281091, -45332.6011100532, -18139.088826070885, -21875.585243175658, 4644.625442579441, -1135.5133218185094, -0.076, 0.97, 0.34800000000000003, 192.0, 0.0, 0.0, 0.0, 0.0, 0.0, 0.0, 0.0, 0.0, 0.0, 1.6541729316518035E9, 0.0, 2022-06-02 14:28:51.651
100.0, 15173.235854296192, 580.6312657155115, -56980.586884091725, -45354.48346787495, -18159.36185829185, -21900.596845221145, 4608.326209584023, -1174.2488949595565, -0.076, 0.97, 0.34800000000000003, 192.0, 0.0, 0.0, 0.0, 0.0, 0.0, 0.0, 0.0, 0.0, 0.0, 1.6541729316518152E9, 0.0, 2022-06-02 14:28:51.651
101.0, 15177.706203187252, 570.8859051329977, -56979.71516605797, -45333.4504763425, -18179.299614345982, -21923.797955965754, 4579.604217958953, -1207.5976976868747, -0.076, 0.97, 0.34800000000000003, 192.0, 0.0, 0.0, 0.0, 0.0, 0.0, 0.0, 0.0, 0.0, 0.0, 1.6541729316518247E9, 0.0, 2022-06-02 14:28:51.651
102.0, 15187.518619003133, 581.4582802603579, -56923.612287475145, -45313.982106921925, -18161.14999784827, -21901.155638832526, 4635.438875608311, -1173.779508325995, -0.076, 0.97, 0.34800000000000003, 192.0, 0.0, 0.0, 0.0, 0.0, 0.0, 0.0, 0.0, 0.0, 0.0, 1.6541729316518433E9, 0.0, 2022-06-02 14:28:51.651
103.0, 15179.42728751031, 582.6205709720339, -56923.85815666416, -45308.595336508195, -18139.692323171177, -21876.47931295387, 4659.914035786872, -1146.8009527684394, -0.076, 0.97, 0.34800000000000003, 192.0, 0.0, 0.0, 0.0, 0.0, 0.0, 0.0, 0.0, 0.0, 0.0, 1.6541729316518536E9, 0.0, 2022-06-02 14:28:51.651
104.0, 15181.885979400395, 578.1725738254278, -56965.81238100677, -45323.79452273781, -18134.64082892428, -21866.532786671258, 4653.543788617109, -1146.2868626459674, -0.076, 0.97, 0.34800000000000003, 192.0, 0.0, 0.0, 0.0, 0.0, 0.0, 0.0, 0.0, 0.0, 0.0, 1.6541729316518655E9, 0.0, 2022-06-02 14:28:51.651
105.0, 15175.918063630828, 571.8693818890312, -56966.63939555161, -45329.49421757391, -18148.565965719936, -21880.837903122654, 4633.136645929414, -1170.1138222353247, -0.076, 0.97, 0.34800000000000003, 192.0, 0.0, 0.0, 0.0, 0.0, 0.0, 0.0, 0.0, 0.0, 0.0, 1.654172931651882E9, 0.0, 2022-06-02 14:28:51.651
106.0, 15174.91223513034, 570.327111521615, -56958.36925010315, -45326.566139050265, -18165.240367083596, -21899.211037064917, 4624.15124465838, -1195.5948109143749, -0.078, 0.98, 0.35000000000000003, 192.0, 253.0, 144.0, 30.0, 160.0, 10.0, 240.0, 0.0, 0.0, 0.0, 1.654172931651892E9, 0.0, 2022-06-02 14:28:51.651
107.0, 15157.567281433021, 561.3417102505816, -56941.851310950675, -45314.31738308875, -18171.677669486722, -21898.920464386996, 4621.53609055711, -1192.622028901819, -0.078, 0.98, 0.35000000000000003, 192.0, 0.0, 0.0, 0.0, 0.0, 0.0, 0.0, 0.0, 0.0, 0.0, 1.654172931651938E9, 0.0, 2022-06-02 14:28:51.651
108.0, 15146.302002227547, 555.4408497143805, -56934.16231085805, -45361.12193597817, -18151.49404424358, -21872.590109418645, 4627.34754411549, -1175.4111856712325, -0.078, 0.98, 0.35000000000000003, 192.0, 0.0, 0.0, 0.0, 0.0, 0.0, 0.0, 0.0, 0.0, 0.0, 1.6541729316519482E9, 0.0, 2022-06-02 14:28:51.651
109.0, 15133.337990443468, 546.1648757654281, -56959.263319881364, -45403.09851206523, -18141.480462727603, -21860.85544357961, 4623.43598883581, -1168.9738832681041, -0.078, 0.98, 0.35000000000000003, 192.0, 0.0, 0.0, 0.0, 0.0, 0.0, 0.0, 0.0, 0.0, 0.0, 1.6541729316519575E9, 0.0, 2022-06-02 14:28:51.651
110.0, 15122.631504849376, 522.0026400092412, -56985.347805660705, -45313.356258077176, -18165.97797465062, -21893.198417806438, 4584.990988372682, -1197.9864475710926, -0.078, 0.98, 0.35000000000000003, 192.0, 0.0, 0.0, 0.0, 0.0, 0.0, 0.0, 0.0, 0.0, 0.0, 1.6541729316519692E9, 0.0, 2022-06-02 14:28:51.651
111.0, 15129.225269463692, 522.8520062985428, -56975.557741589284, -45341.608863068686, -18166.961451406652, -21906.497705757345, 4596.3680263004335, -1212.1798053002126, -0.078, 0.98, 0.35000000000000003, 192.0, 0.0, 0.0, 0.0, 0.0, 0.0, 0.0, 0.0, 0.0, 0.0, 1.6541729316519778E9, 0.0, 2022-06-02 14:28:51.651
112.0, 15125.403121161835, 519.3651341635149, -56939.99611616089, -45313.713885988465, -18146.755474419057, -21888.862179382108, 4641.898529755894, -1197.3158952374333, -0.078, 0.98, 0.35000000000000003, 192.0, 0.0, 0.0, 0.0, 0.0, 0.0, 0.0, 0.0, 0.0, 0.0, 1.654172931651986E9, 0.0, 2022-06-02 14:28:51.651
113.0, 15094.736527769153, 501.72960778827763, -56932.53063351281, -45321.20172038099, -18120.715692128622, -21859.827263334664, 4668.586512635531, -1172.974845525604, -0.078, 0.98, 0.35000000000000003, 192.0, 0.0, 0.0, 0.0, 0.0, 0.0, 0.0, 0.0, 0.0, 0.0, 1.654172931652002E9, 0.0, 2022-06-02 14:28:51.652
114.0, 15077.726850238663, 476.2933225981382, -56961.45379083798, -45360.00434875541, -18118.18994500517, -21859.80491159021, 4646.458285624777, -1185.5365259094865, -0.078, 0.98, 0.35000000000000003, 192.0, 0.0, 0.0, 0.0, 0.0, 0.0, 0.0, 0.0, 0.0, 0.0, 1.654172931652012E9, 0.0, 2022-06-02 14:28:51.652
115.0, 15064.271100076568, 450.85703740799875, -56992.65682609759, -45381.88670657715, -18138.887660370787, -21877.48514145436, 4614.718808498241, -1201.6074301728524, -0.078, 0.98, 0.35000000000000003, 192.0, 0.0, 0.0, 0.0, 0.0, 0.0, 0.0, 0.0, 0.0, 0.0, 1.654172931652021E9, 0.0, 2022-06-02 14:28:51.652
116.0, 15036.286716018525, 415.83185384653257, -57010.42646293956, -45416.91189013862, -18165.620346739335, -21901.312101043713, 4602.62651474792, -1215.4208082462321, -0.084, 0.9580000000000001, 0.34600000000000003, 192.0, 253.0, 96.0, 29.0, 240.0, 10.0, 208.0, 0.0, 0.0, 0.0, 1.6541729316520386E9, 0.0, 2022-06-02 14:28:51.652
117.0, 15037.091378818915, 407.9416880538092, -56989.32641617375, -45302.78388294982, -18152.946907633177, -21889.19745554894, 4628.778055760629, -1213.2079855451568, -0.084, 0.9580000000000001, 0.34600000000000003, 192.0, 0.0, 0.0, 0.0, 0.0, 0.0, 0.0, 0.0, 0.0, 0.0, 1.6541729316520479E9, 0.0, 2022-06-02 14:28:51.652
118.0, 15047.507291735088, 398.4869001492143, -56981.346843403204, -45308.64003999711, -18131.690398656177, -21858.12853075606, 4637.517587842654, -1203.1497005402687, -0.084, 0.9580000000000001, 0.34600000000000003, 192.0, 0.0, 0.0, 0.0, 0.0, 0.0, 0.0, 0.0, 0.0, 0.0, 1.6541729316520593E9, 0.0, 2022-06-02 14:28:51.652
119.0, 15013.666750629754, 368.0885276899967, -56999.205887223, -45367.1569069811, -18131.95861958964, -21858.530862156258, 4619.971468445238, -1186.788223598984, -0.084, 0.9580000000000001, 0.34600000000000003, 192.0, 0.0, 0.0, 0.0, 0.0, 0.0, 0.0, 0.0, 0.0, 0.0, 1.654172931652073E9, 0.0, 2022-06-02 14:28:51.652
120.0, 14984.855352026863, 337.243120341673, -57015.81323335329, -45415.771951171395, -18158.26662281354, -21881.933138600965, 4609.846128206984, -1191.3479794678665, -0.084, 0.9580000000000001, 0.34600000000000003, 192.0, 0.0, 0.0, 0.0, 0.0, 0.0, 0.0, 0.0, 0.0, 0.0, 1.6541729316520872E9, 0.0, 2022-06-02 14:28:51.652
121.0, 14988.5880933509, 334.2032830957512, -56993.528544131346, -45389.57570666978, -18173.041125898497, -21905.402470279038, 4613.511814297654, -1220.2264333041232, -0.084, 0.9580000000000001, 0.34600000000000003, 192.0, 0.0, 0.0, 0.0, 0.0, 0.0, 0.0, 0.0, 0.0, 0.0, 1.654172931652104E9, 0.0, 2022-06-02 14:28:51.652
122.0, 14977.367517634335, 310.8233583955, -56992.79093656432, -45386.44646244603, -18181.959471936163, -21913.918484916507, 4610.069645651537, -1234.5315497555198, -0.084, 0.9580000000000001, 0.34600000000000003, 192.0, 0.0, 0.0, 0.0, 0.0, 0.0, 0.0, 0.0, 0.0, 0.0, 1.6541729321302106E9, 0.0, 2022-06-02 14:28:52.130
123.0, 14968.493875085578, 302.39675073584925, -56987.80649755079, -45324.3980198381, -18163.63104148281, -21880.167350788994, 4617.289259110601, -1208.7599883985506, -0.084, 0.9580000000000001, 0.34600000000000003, 192.0, 0.0, 0.0, 0.0, 0.0, 0.0, 0.0, 0.0, 0.0, 0.0, 1.654172932130326E9, 0.0, 2022-06-02 14:28:52.130
124.0, 14968.225654152115, 311.1809863067849, -56986.37598590565, -45341.07242120176, -18143.179195306206, -21860.36370520159, 4625.045314436593, -1174.941799037671, -0.084, 0.9580000000000001, 0.34600000000000003, 192.0, 0.0, 0.0, 0.0, 0.0, 0.0, 0.0, 0.0, 0.0, 0.0, 1.6541729321303337E9, 0.0, 2022-06-02 14:28:52.130
125.0, 14961.028392437505, 298.4628437117152, -57019.881250844155, -45387.876974091174, -18166.804989195465, -21893.891321884552, 4603.878212437417, -1202.1662237842352, -0.084, 0.9580000000000001, 0.34600000000000003, 192.0, 0.0, 0.0, 0.0, 0.0, 0.0, 0.0, 0.0, 0.0, 0.0, 1.6541729321303403E9, 0.0, 2022-06-02 14:28:52.130
126.0, 14999.026358011528, 323.5191492461144, -57000.39052967913, -45388.27930549137, -18174.471637543636, -21903.636682467066, 4601.86655543644, -1205.4742819636206, -0.08, 0.9520000000000001, 0.34, 192.0, 253.0, 128.0, 29.0, 192.0, 10.0, 160.0, 0.0, 0.0, 0.0, 1.6541729321303515E9, 0.0, 2022-06-02 14:28:52.130
127.0, 14985.615311338344, 325.6872684582792, -56978.5975788352, -45352.78473529634, -18161.954660648666, -21891.99142360585, 4633.427218607333, -1174.4947641485649, -0.08, 0.9520000000000001, 0.34, 192.0, 0.0, 0.0, 0.0, 0.0, 0.0, 0.0, 0.0, 0.0, 0.0, 1.6541729321303582E9, 0.0, 2022-06-02 14:28:52.130
128.0, 14973.143037932283, 336.5725680080138, -56973.85900901068, -45328.600147795696, -18146.129625574307, -21868.030353549762, 4653.499085128198, -1166.1799152111907, -0.08, 0.9520000000000001, 0.34, 192.0, 0.0, 0.0, 0.0, 0.0, 0.0, 0.0, 0.0, 0.0, 0.0, 1.6541729321303911E9, 0.0, 2022-06-02 14:28:52.130
129.0, 14991.985558508106, 348.6648617583349, -56998.44592791152, -45382.26668623289, -18147.761302919545, -21861.32483021317, 4647.128837958436, -1172.5501623809532, -0.08, 0.9520000000000001, 0.34, 192.0, 0.0, 0.0, 0.0, 0.0, 0.0, 0.0, 0.0, 0.0, 0.0, 1.6541729321303976E9, 0.0, 2022-06-02 14:28:52.130
130.0, 15009.643436627799, 349.49187630318124, -57020.775320622364, -45355.578703353254, -18164.525111261024, -21875.294670497737, 4625.045314436593, -1173.9359705371821, -0.08, 0.9520000000000001, 0.34, 192.0, 0.0, 0.0, 0.0, 0.0, 0.0, 0.0, 0.0, 0.0, 0.0, 1.654172932130404E9, 0.0, 2022-06-02 14:28:52.130
131.0, 15027.904811847784, 361.0253764421197, -57019.70243688851, -45339.10546768969, -18162.06641937094, -21889.33156601567, 4626.766398759652, -1182.2731712190118, -0.08, 0.9520000000000001, 0.34, 192.0, 0.0, 0.0, 0.0, 0.0, 0.0, 0.0, 0.0, 0.0, 0.0, 1.6541729321304097E9, 0.0, 2022-06-02 14:28:52.130
132.0, 15014.87374483034, 359.2148851412398, -56978.642282324116, -45358.84205804373, -18176.46094280016, -21904.70956620092, 4613.57886953102, -1211.8892326222935, -0.08, 0.9520000000000001, 0.34, 192.0, 0.0, 0.0, 0.0, 0.0, 0.0, 0.0, 0.0, 0.0, 0.0, 1.6541729321304183E9, 0.0, 2022-06-02 14:28:52.130
133.0, 15018.762948365564, 370.77073702463355, -56972.56260783227, -45331.036487941325, -18157.64077396879, -21865.459902937404, 4630.320326128045, -1177.489897905576, -0.08, 0.9520000000000001, 0.34, 192.0, 0.0, 0.0, 0.0, 0.0, 0.0, 0.0, 0.0, 0.0, 0.0, 1.6541729321304243E9, 0.0, 2022-06-02 14:28:52.130
134.0, 15022.003951311584, 358.36551885193813, -57013.935686819044, -45292.68089445602, -18160.92648040372, -21875.451132708924, 4622.698381268786, -1177.4004909277548, -0.08, 0.9520000000000001, 0.34, 192.0, 0.0, 0.0, 0.0, 0.0, 0.0, 0.0, 0.0, 0.0, 0.0, 1.6541729321304307E9, 0.0, 2022-06-02 14:28:52.130
135.0, 15035.16912879576, 369.6978532907788, -57025.06685555779, -45348.29203466082, -18173.331698576414, -21891.14205731655, 4613.936497442305, -1180.9320665516934, -0.08, 0.9520000000000001, 0.34, 192.0, 0.0, 0.0, 0.0, 0.0, 0.0, 0.0, 0.0, 0.0, 0.0, 1.6541729321304405E9, 0.0, 2022-06-02 14:28:52.130
136.0, 15039.393608497812, 371.3518823804715, -56973.97076773296, -45353.902322519105, -18198.075079688442, -21912.599731993643, 4593.641113476886, -1196.6229911593189, -0.07200000000000001, 0.9540000000000001, 0.336, 192.0, 253.0, 192.0, 29.0, 208.0, 10.0, 128.0, 0.0, 0.0, 0.0, 1.6541729321304467E9, 0.0, 2022-06-02 14:28:52.130
137.0, 15059.063143618483, 385.00879824266417, -56957.81045649177, -45319.16771163556, -18190.56489355146, -21904.866028412107, 4609.3990933178775, -1188.2410869885787, -0.07200000000000001, 0.9540000000000001, 0.336, 192.0, 0.0, 0.0, 0.0, 0.0, 0.0, 0.0, 0.0, 0.0, 0.0, 1.6541729321304524E9, 0.0, 2022-06-02 14:28:52.130
138.0, 15070.976623413162, 415.206005001784, -56940.42079930554, -45337.36203162218, -18156.59024197939, -21875.115856542096, 4640.736239044219, -1177.2216769721124, -0.07200000000000001, 0.9540000000000001, 0.336, 192.0, 0.0, 0.0, 0.0, 0.0, 0.0, 0.0, 0.0, 0.0, 0.0, 1.6541729321304653E9, 0.0, 2022-06-02 14:28:52.130
139.0, 15071.066030390983, 430.94163309832015, -56973.27786365484, -45327.326098361744, -18155.182082078707, -21875.47348445338, 4633.740143029707, -1185.335360209389, -0.07200000000000001, 0.9540000000000001, 0.336, 192.0, 0.0, 0.0, 0.0, 0.0, 0.0, 0.0, 0.0, 0.0, 0.0, 1.654172932130478E9, 0.0, 2022-06-02 14:28:52.130
140.0, 15079.716155495187, 440.1505518139067, -56995.42844241005, -45330.85767398569, -18176.88562594481, -21892.103182328126, 4607.6333055059085, -1183.2119444861346, -0.07200000000000001, 0.9540000000000001, 0.336, 192.0, 0.0, 0.0, 0.0, 0.0, 0.0, 0.0, 0.0, 0.0, 0.0, 1.6541729321304915E9, 0.0, 2022-06-02 14:28:52.130
141.0, 15106.270027908091, 468.8948951834316, -56969.813343264264, -45333.02579319785, -18180.707774246668, -21889.443324737946, 4611.2766398521235, -1167.7892408119728, -0.07200000000000001, 0.9540000000000001, 0.336, 192.0, 0.0, 0.0, 0.0, 0.0, 0.0, 0.0, 0.0, 0.0, 0.0, 1.654172932130516E9, 0.0, 2022-06-02 14:28:52.130
142.0, 15119.122280969892, 476.9415231873421, -56947.55100578678, -45327.88489197313, -18182.674727758735, -21887.185798547962, 4622.072532424037, -1157.4180313847103, -0.07200000000000001, 0.9540000000000001, 0.336, 192.0, 0.0, 0.0, 0.0, 0.0, 0.0, 0.0, 0.0, 0.0, 0.0, 1.6541729321305287E9, 0.0, 2022-06-02 14:28:52.130
143.0, 15103.766632529097, 479.7578429887108, -56941.11370338365, -45275.96178960345, -18166.246195584084, -21867.918594827486, 4644.87131176845, -1149.8407900143611, -0.07200000000000001, 0.9540000000000001, 0.336, 192.0, 0.0, 0.0, 0.0, 0.0, 0.0, 0.0, 0.0, 0.0, 0.0, 1.65417293213054E9, 0.0, 2022-06-02 14:28:52.130
144.0, 15097.441088848245, 488.5197268151912, -56969.947453731, -45339.217226411965, -18161.21705308164, -21843.264620693284, 4634.120122685447, -1153.9982144830483, -0.07200000000000001, 0.9540000000000001, 0.336, 192.0, 0.0, 0.0, 0.0, 0.0, 0.0, 0.0, 0.0, 0.0, 0.0, 1.6541729321305456E9, 0.0, 2022-06-02 14:28:52.130
145.0, 15120.888068781862, 516.0123724952189, -56960.2915001263, -45425.02557337589, -18163.69809671618, -21859.916670312487, 4614.472939309232, -1157.5744935958974, -0.07200000000000001, 0.9540000000000001, 0.336, 192.0, 0.0, 0.0, 0.0, 0.0, 0.0, 0.0, 0.0, 0.0, 0.0, 1.6541729321305513E9, 0.0, 2022-06-02 14:28:52.130
146.0, 15124.66551359481, 515.1853579503725, -56958.12338091414, -45267.781051132806, -18185.46869581565, -21893.444286995447, 4585.818002917529, -1178.8533543173498, -0.07200000000000001, 0.978, 0.338, 192.0, 253.0, 192.0, 30.0, 144.0, 10.0, 144.0, 0.0, 0.0, 0.0, 1.6541729321305573E9, 0.0, 2022-06-02 14:28:52.130
147.0, 15138.545946901555, 536.9783087942968, -56931.14482535658, -45232.19707395996, -18169.442495041192, -21879.161522288505, 4638.769285532151, -1163.6094645988303, -0.07200000000000001, 0.978, 0.338, 192.0, 0.0, 0.0, 0.0, 0.0, 0.0, 0.0, 0.0, 0.0, 0.0, 1.6541729321305633E9, 0.0, 2022-06-02 14:28:52.130
148.0, 15135.014371277615, 536.1736459939058, -56925.55688924276, -45252.604216647655, -18148.856538397853, -21858.88849006754, 4686.333797733045, -1137.74849626404, -0.07200000000000001, 0.978, 0.338, 192.0, 0.0, 0.0, 0.0, 0.0, 0.0, 0.0, 0.0, 0.0, 0.0, 1.6541729321305687E9, 0.0, 2022-06-02 14:28:52.130
149.0, 15108.661664564808, 512.0337619821742, -56947.8415784647, -45311.79163596531, -18167.54259676249, -21866.845711093632, 4645.161884446369, -1141.1906649101575, -0.07200000000000001, 0.978, 0.338, 192.0, 0.0, 0.0, 0.0, 0.0, 0.0, 0.0, 0.0, 0.0, 0.0, 1.6541729321305757E9, 0.0, 2022-06-02 14:28:52.130
150.0, 15123.61498160541, 509.1280352029843, -57003.76564309188, -45361.41250865609, -18190.16256215126, -21896.461772496914, 4601.575982758521, -1173.6677496037184, -0.07200000000000001, 0.978, 0.338, 192.0, 0.0, 0.0, 0.0, 0.0, 0.0, 0.0, 0.0, 0.0, 0.0, 1.6541729321305866E9, 0.0, 2022-06-02 14:28:52.130
151.0, 15170.330127517002, 548.9141403334309, -56954.860026223665, -45377.63987513064, -18176.17037012224, -21893.779563162276, 4608.348561328478, -1188.5763631554084, -0.07200000000000001, 0.978, 0.338, 192.0, 0.0, 0.0, 0.0, 0.0, 0.0, 0.0, 0.0, 0.0, 0.0, 1.654172932130592E9, 0.0, 2022-06-02 14:28:52.130
152.0, 15160.540063445576, 546.9918903102745, -56917.197336816476, -45337.58554906673, -18171.297689830983, -21897.087621341663, 4634.723619785741, -1195.907735336749, -0.07200000000000001, 0.978, 0.338, 192.0, 0.0, 0.0, 0.0, 0.0, 0.0, 0.0, 0.0, 0.0, 0.0, 1.6541729321305976E9, 0.0, 2022-06-02 14:28:52.130
153.0, 15164.630432680899, 559.3747567385145, -56931.97183990143, -45260.226161506915, -18149.124759331316, -21871.450170451426, 4664.54084688912, -1175.3888339267771, -0.07200000000000001, 0.978, 0.338, 192.0, 0.0, 0.0, 0.0, 0.0, 0.0, 0.0, 0.0, 0.0, 0.0, 1.6541729321306028E9, 0.0, 2022-06-02 14:28:52.130
154.0, 15145.497339427155, 549.8976170894643, -56959.08450592572, -45284.7907286633, -18155.83028266791, -21857.927365055963, 4639.10456169898, -1159.9214267637046, -0.07200000000000001, 0.978, 0.338, 192.0, 0.0, 0.0, 0.0, 0.0, 0.0, 0.0, 0.0, 0.0, 0.0, 1.654172932130608E9, 0.0, 2022-06-02 14:28:52.130
155.0, 15147.732513872686, 548.1318292774951, -56955.17295064604, -45335.90916823258, -18165.50858801706, -21871.338411729146, 4625.626459792431, -1174.271246704012, -0.07200000000000001, 0.978, 0.338, 192.0, 0.0, 0.0, 0.0, 0.0, 0.0, 0.0, 0.0, 0.0, 0.0, 1.6541729321306136E9, 0.0, 2022-06-02 14:28:52.130
156.0, 15174.688717685785, 570.617684199534, -56945.44994180798, -45317.73719999042, -18157.417256524237, -21877.99923157683, 4636.265890153157, -1165.6881768331739, -0.082, 0.982, 0.34400000000000003, 192.0, 253.0, 112.0, 30.0, 176.0, 10.0, 192.0, 0.0, 0.0, 0.0, 1.6541729321306193E9, 0.0, 2022-06-02 14:28:52.130
157.0, 15182.265959056134, 578.9325331369082, -56934.721104469434, -45310.91991793155, -18163.966317649643, -21881.933138600965, 4633.360163373967, -1172.3489966808554, -0.082, 0.982, 0.34400000000000003, 192.0, 0.0, 0.0, 0.0, 0.0, 0.0, 0.0, 0.0, 0.0, 0.0, 1.6541729321306243E9, 0.0, 2022-06-02 14:28:52.130
158.0, 15164.608080936443, 577.5690767251346, -56932.30711606826, -45310.58464176472, -18146.844881396875, -21862.889452325042, 4654.169637461858, -1156.4122028842214, -0.082, 0.982, 0.34400000000000003, 192.0, 0.0, 0.0, 0.0, 0.0, 0.0, 0.0, 0.0, 0.0, 0.0, 1.65417293213063E9, 0.0, 2022-06-02 14:28:52.130
159.0, 15149.967688318216, 566.3708527530257, -56967.75698277438, -45297.10653985817, -18141.860442383342, -21856.809777833198, 4641.406791377877, -1163.207133198635, -0.082, 0.982, 0.34400000000000003, 192.0, 0.0, 0.0, 0.0, 0.0, 0.0, 0.0, 0.0, 0.0, 0.0, 1.6541729321306355E9, 0.0, 2022-06-02 14:28:52.130
160.0, 15158.90838610034, 569.4330417434028, -57008.347750705216, -45333.91986297606, -18156.12085534583, -21865.169330259483, 4613.511814297654, -1201.361560983844, -0.082, 0.982, 0.34400000000000003, 192.0, 0.0, 0.0, 0.0, 0.0, 0.0, 0.0, 0.0, 0.0, 0.0, 1.6541729321306412E9, 0.0, 2022-06-02 14:28:52.130
161.0, 15165.56920594802, 560.7605648947435, -56981.5480091033, -45363.71473833499, -18175.611576510855, -21882.13430430106, 4598.62555249042, -1218.1477210697797, -0.082, 0.982, 0.34400000000000003, 192.0, 0.0, 0.0, 0.0, 0.0, 0.0, 0.0, 0.0, 0.0, 0.0, 1.6541729321306481E9, 0.0, 2022-06-02 14:28:52.130
162.0, 15168.966671105227, 555.9772915813079, -56964.024241450345, -45317.80425522378, -18174.717506732646, -21885.598824691635, 4617.736293999707, -1207.4188837312322, -0.082, 0.982, 0.34400000000000003, 192.0, 0.0, 0.0, 0.0, 0.0, 0.0, 0.0, 0.0, 0.0, 0.0, 1.654172932130654E9, 0.0, 2022-06-02 14:28:52.130
163.0, 15161.590595434976, 554.166800280428, -56943.326526084726, -45309.668220242056, -18150.175291320716, -21860.207242990404, 4641.58560533352, -1183.390758441777, -0.082, 0.982, 0.34400000000000003, 192.0, 0.0, 0.0, 0.0, 0.0, 0.0, 0.0, 0.0, 0.0, 0.0, 1.654172932130659E9, 0.0, 2022-06-02 14:28:52.130
164.0, 15156.896729099362, 543.4379629418806, -56974.574264833245, -45343.57581658076, -18145.436721496193, -21846.438568405934, 4627.727523771229, -1188.6657701332297, -0.082, 0.982, 0.34400000000000003, 192.0, 0.0, 0.0, 0.0, 0.0, 0.0, 0.0, 0.0, 0.0, 0.0, 1.6541729321306648E9, 0.0, 2022-06-02 14:28:52.130
165.0, 15181.215427066736, 543.2815007306934, -56983.06792772626, -45388.94985782503, -18140.899317371764, -21835.620324089567, 4638.2775471541345, -1172.6619211032298, -0.082, 0.982, 0.34400000000000003, 192.0, 0.0, 0.0, 0.0, 0.0, 0.0, 0.0, 0.0, 0.0, 0.0, 1.6541729321306703E9, 0.0, 2022-06-02 14:28:52.130
166.0, 15191.407822538356, 511.7208375597999, -57018.65190489911, -45368.94504653753, -18161.619384481834, -21864.342315714635, 4625.090017925503, -1194.3431132248777, -0.082, 0.9560000000000001, 0.34, 192.0, 253.0, 112.0, 29.0, 224.0, 10.0, 160.0, 0.0, 0.0, 0.0, 1.654172932130676E9, 0.0, 2022-06-02 14:28:52.130
167.0, 15189.552627748566, 481.0989476560292, -56981.61506433667, -45306.42721729603, -18169.82247469693, -21874.110028041607, 4628.331020871523, -1206.167186041735, -0.082, 0.9560000000000001, 0.34, 192.0, 0.0, 0.0, 0.0, 0.0, 0.0, 0.0, 0.0, 0.0, 0.0, 1.6541729321306813E9, 0.0, 2022-06-02 14:28:52.130
168.0, 15178.086182842993, 464.67041548137854, -56933.804682946764, -45349.09669746122, -18136.048988824965, -21827.50664085229, 4655.555445618087, -1169.5773803683974, -0.082, 0.9560000000000001, 0.34, 192.0, 0.0, 0.0, 0.0, 0.0, 0.0, 0.0, 0.0, 0.0, 0.0, 1.6541729321306868E9, 0.0, 2022-06-02 14:28:52.130
169.0, 15176.365098519935, 438.11654306847373, -56965.477104839934, -45356.74099406493, -18125.498965442057, -21819.527068081745, 4644.848960023995, -1181.3120462074335, -0.082, 0.9560000000000001, 0.34, 192.0, 0.0, 0.0, 0.0, 0.0, 0.0, 0.0, 0.0, 0.0, 0.0, 1.6541729321306922E9, 0.0, 2022-06-02 14:28:52.130
170.0, 15169.994851350171, 413.41786544535944, -56995.51784938787, -45343.79933402531, -18151.963430877142, -21851.199489974915, 4610.516680540643, -1205.9660203416372, -0.082, 0.9560000000000001, 0.34, 192.0, 0.0, 0.0, 0.0, 0.0, 0.0, 0.0, 0.0, 0.0, 0.0, 1.6541729321306975E9, 0.0, 2022-06-02 14:28:52.130
171.0, 15184.903464901861, 414.915432323865, -56999.608218623194, -45342.81585726927, -18163.966317649643, -21871.003135562318, 4599.161994357347, -1207.6424011757854, -0.082, 0.9560000000000001, 0.34, 192.0, 0.0, 0.0, 0.0, 0.0, 0.0, 0.0, 0.0, 0.0, 0.0, 1.654172932130706E9, 0.0, 2022-06-02 14:28:52.130
172.0, 15199.029767397615, 421.01745856016385, -56977.5470468458, -45284.276638540825, -18155.003268123062, -21866.733952371356, 4629.292145883101, -1200.8698226058273, -0.082, 0.9560000000000001, 0.34, 192.0, 0.0, 0.0, 0.0, 0.0, 0.0, 0.0, 0.0, 0.0, 0.0, 1.6541729321307113E9, 0.0, 2022-06-02 14:28:52.130
173.0, 15189.418517281834, 422.06799054956326, -56953.49656981189, -45294.78195843482, -18137.859480125844, -21836.067358978675, 4642.747896045196, -1165.464659388621, -0.082, 0.9560000000000001, 0.34, 192.0, 0.0, 0.0, 0.0, 0.0, 0.0, 0.0, 0.0, 0.0, 0.0, 1.6541729321307166E9, 0.0, 2022-06-02 14:28:52.130
174.0, 15180.924854388817, 420.01163005967504, -56973.27786365484, -45324.84505472721, -18134.171442290717, -21831.5523065987, 4638.054029709581, -1165.330548921889, -0.082, 0.9560000000000001, 0.34, 192.0, 0.0, 0.0, 0.0, 0.0, 0.0, 0.0, 0.0, 0.0, 0.0, 1.6541729321307223E9, 0.0, 2022-06-02 14:28:52.130
175.0, 15164.988060592183, 404.7453885967003, -57035.326306262774, -45352.091831218226, -18156.8361111684, -21855.871004566074, 4619.77030274514, -1183.368406697322, -0.082, 0.9560000000000001, 0.34, 192.0, 0.0, 0.0, 0.0, 0.0, 0.0, 0.0, 0.0, 0.0, 0.0, 1.6541729321307275E9, 0.0, 2022-06-02 14:28:52.130
176.0, 15178.153238076358, 415.76479861316665, -56998.87061105617, -45367.603941870206, -18177.332660833916, -21876.27814725377, 4601.777148458618, -1204.4013982297658, -0.08, 0.9480000000000001, 0.338, 192.0, 253.0, 128.0, 29.0, 160.0, 10.0, 144.0, 0.0, 0.0, 0.0, 1.6541729321307333E9, 0.0, 2022-06-02 14:28:52.130
177.0, 15181.99773812267, 416.1447782689069, -56953.72008725644, -45352.49416261842, -18173.286995087507, -21885.8670456251, 4613.981200931215, -1216.0243053465254, -0.08, 0.9480000000000001, 0.338, 192.0, 0.0, 0.0, 0.0, 0.0, 0.0, 0.0, 0.0, 0.0, 0.0, 1.6541729321307387E9, 0.0, 2022-06-02 14:28:52.130
178.0, 15164.652784425352, 399.58213562752434, -56965.45475309548, -45338.7031362895, -18153.885680900297, -21874.42295246398, 4623.503044069176, -1218.4606454921538, -0.08, 0.9480000000000001, 0.338, 192.0, 0.0, 0.0, 0.0, 0.0, 0.0, 0.0, 0.0, 0.0, 0.0, 1.654172932130744E9, 0.0, 2022-06-02 14:28:52.130
179.0, 15168.631394938398, 406.1311967529293, -56978.32935790174, -45311.03167665382, -18143.626230195314, -21850.171309729973, 4642.345564645, -1171.8349065583834, -0.08, 0.9480000000000001, 0.338, 192.0, 0.0, 0.0, 0.0, 0.0, 0.0, 0.0, 0.0, 0.0, 0.0, 1.6541729321307497E9, 0.0, 2022-06-02 14:28:52.130
180.0, 15171.447714739767, 409.2604409766723, -56998.33416918924, -45338.85959850068, -18159.473617014126, -21854.28403070975, 4614.025904420127, -1167.3422059228667, -0.08, 0.9480000000000001, 0.338, 192.0, 0.0, 0.0, 0.0, 0.0, 0.0, 0.0, 0.0, 0.0, 0.0, 1.6541729321307557E9, 0.0, 2022-06-02 14:28:52.130
181.0, 15182.780049178607, 403.2478217181947, -57028.24080327044, -45400.05867481932, -18178.472599801134, -21881.28493801176, 4594.266962321635, -1192.7337876240954, -0.08, 0.9480000000000001, 0.338, 192.0, 0.0, 0.0, 0.0, 0.0, 0.0, 0.0, 0.0, 0.0, 0.0, 1.6541729321307616E9, 0.0, 2022-06-02 14:28:52.130
182.0, 15182.869456156428, 420.63747890442363, -57011.23112573995, -45416.4201517606, -18177.533826534014, -21883.587167690657, 4621.245517879191, -1196.2430115035786, -0.08, 0.9480000000000001, 0.338, 192.0, 0.0, 0.0, 0.0, 0.0, 0.0, 0.0, 0.0, 0.0, 0.0, 1.6541729321307676E9, 0.0, 2022-06-02 14:28:52.130
183.0, 15169.681926927797, 413.77549335664435, -56950.27791861033, -45289.52929848782, -18155.07032335643, -21858.352048200613, 4651.085096727025, -1169.2421042015678, -0.08, 0.9480000000000001, 0.338, 192.0, 0.0, 0.0, 0.0, 0.0, 0.0, 0.0, 0.0, 0.0, 0.0, 1.654172932130777E9, 0.0, 2022-06-02 14:28:52.130
184.0, 15154.750961631653, 406.4441211753036, -56974.015471221865, -45297.19594683599, -18140.38522724929, -21829.13831819753, 4658.3494136750005, -1134.0828101733698, -0.08, 0.9480000000000001, 0.338, 192.0, 0.0, 0.0, 0.0, 0.0, 0.0, 0.0, 0.0, 0.0, 0.0, 1.6541729321307838E9, 0.0, 2022-06-02 14:28:52.130
185.0, 15160.584766934488, 404.3877606854154, -56990.53341037434, -45352.74003180743, -18153.103369844364, -21842.728178826354, 4625.224128392235, -1158.0662319739142, -0.078, 0.9440000000000001, 0.34, 192.0, 253.0, 144.0, 29.0, 128.0, 10.0, 160.0, 0.0, 0.0, 0.0, 1.6541729321307905E9, 0.0, 2022-06-02 14:28:52.130
186.0, 15181.505999744655, 415.09424627950744, -56986.21952369446, -45347.42031662707, -18158.534843747002, -21858.553213900712, 4613.422407319833, -1177.2887322054783, -0.078, 0.9440000000000001, 0.34, 192.0, 0.0, 0.0, 0.0, 0.0, 0.0, 0.0, 0.0, 0.0, 0.0, 1.6541729321307976E9, 0.0, 2022-06-02 14:28:52.130
187.0, 15171.827694395506, 415.04954279059683, -56976.51886660086, -45310.67404874254, -18166.804989195465, -21872.56775767419, 4622.63132603542, -1179.300389206456, -0.078, 0.9440000000000001, 0.34, 192.0, 0.0, 0.0, 0.0, 0.0, 0.0, 0.0, 0.0, 0.0, 0.0, 1.6541729321308043E9, 0.0, 2022-06-02 14:28:52.130
188.0, 15167.603214693454, 418.8269876035437, -56971.13209618713, -45284.902487385574, -18158.244271069085, -21850.216013218884, 4638.813989021062, -1153.3053104049338, -0.078, 0.9440000000000001, 0.34, 192.0, 0.0, 0.0, 0.0, 0.0, 0.0, 0.0, 0.0, 0.0, 0.0, 1.6541729321308124E9, 0.0, 2022-06-02 14:28:52.130
189.0, 15158.126075044403, 399.35861818297127, -56988.29823592881, -45322.87810121514, -18158.825416424923, -21842.996399759817, 4618.228032377724, -1156.9486447511488, -0.078, 0.9440000000000001, 0.34, 192.0, 0.0, 0.0, 0.0, 0.0, 0.0, 0.0, 0.0, 0.0, 0.0, 1.6541729321308177E9, 0.0, 2022-06-02 14:28:52.130
190.0, 15148.984211562183, 385.8581645319658, -57037.33796326375, -45375.53881115184, -18189.022623184042, -21867.85153959412, 4575.871476634918, -1193.0690637909252, -0.078, 0.9440000000000001, 0.34, 192.0, 0.0, 0.0, 0.0, 0.0, 0.0, 0.0, 0.0, 0.0, 0.0, 1.6541729321308234E9, 0.0, 2022-06-02 14:28:52.130
191.0, 15174.554607219054, 406.980563042231, -56994.62377960966, -45414.92258488209, -18185.423992326738, -21881.173179289483, 4597.999703645672, -1199.6628284052406, -0.078, 0.9440000000000001, 0.34, 192.0, 0.0, 0.0, 0.0, 0.0, 0.0, 0.0, 0.0, 0.0, 0.0, 1.65417293213083E9, 0.0, 2022-06-02 14:28:52.130
192.0, 15199.499154031177, 450.9687961302753, -56928.93200265551, -45325.940290205515, -18168.6378322408, -21875.741705386845, 4641.116218699958, -1173.488935648076, -0.078, 0.9440000000000001, 0.34, 192.0, 0.0, 0.0, 0.0, 0.0, 0.0, 0.0, 0.0, 0.0, 0.0, 1.6541729321308382E9, 0.0, 2022-06-02 14:28:52.130
193.0, 15197.465145285743, 448.688918195834, -56915.431549004505, -45264.852972609166, -18147.962468619644, -21853.702885353912, 4656.427163651844, -1157.3062726624337, -0.078, 0.9440000000000001, 0.34, 192.0, 0.0, 0.0, 0.0, 0.0, 0.0, 0.0, 0.0, 0.0, 0.0, 1.6541729321308436E9, 0.0, 2022-06-02 14:28:52.130
194.0, 15195.587598751497, 451.25936880819427, -56933.84938643568, -45280.32037977224, -18142.776863906012, -21840.42594914746, 4643.574910590042, -1167.4539646451433, -0.078, 0.9440000000000001, 0.34, 192.0, 0.0, 0.0, 0.0, 0.0, 0.0, 0.0, 0.0, 0.0, 0.0, 1.6541729321308491E9, 0.0, 2022-06-02 14:28:52.130
195.0, 15202.695453488286, 468.44786029432544, -56963.55485481678, -45299.92285965954, -18163.65339322727, -21857.88266156705, 4608.5720787730315, -1188.9339910666934, -0.076, 0.976, 0.34600000000000003, 192.0, 253.0, 160.0, 30.0, 128.0, 10.0, 208.0, 0.0, 0.0, 0.0, 1.6541729321308548E9, 0.0, 2022-06-02 14:28:52.130
196.0, 15210.160936136359, 487.849174481532, -56986.08541322773, -45315.83730171172, -18180.528960291023, -21875.294670497737, 4593.149375098869, -1190.6774271342072, -0.076, 0.976, 0.34600000000000003, 192.0, 0.0, 0.0, 0.0, 0.0, 0.0, 0.0, 0.0, 0.0, 0.0, 1.6541729321308606E9, 0.0, 2022-06-02 14:28:52.130
197.0, 15212.86549721545, 499.5391368316575, -56947.34984008668, -45313.73623773292, -18178.047916656484, -21879.04976356623, 4605.778110716118, -1193.3372847243888, -0.076, 0.976, 0.34600000000000003, 192.0, 0.0, 0.0, 0.0, 0.0, 0.0, 0.0, 0.0, 0.0, 0.0, 1.6541729321308668E9, 0.0, 2022-06-02 14:28:52.130
198.0, 15213.133718148914, 525.6683260999115, -56903.29455176527, -45310.40582780908, -18149.63884945379, -21846.103292239106, 4639.5068930991765, -1168.1915722121682, -0.076, 0.976, 0.34600000000000003, 192.0, 0.0, 0.0, 0.0, 0.0, 0.0, 0.0, 0.0, 0.0, 0.0, 1.6541729321308722E9, 0.0, 2022-06-02 14:28:52.130
199.0, 15220.196869396792, 556.6031404260565, -56930.943659656485, -45302.672124227545, -18133.45618646815, -21831.015864731773, 4637.4505326092885, -1169.8679530463164, -0.076, 0.976, 0.34600000000000003, 192.0, 0.0, 0.0, 0.0, 0.0, 0.0, 0.0, 0.0, 0.0, 0.0, 1.6541729321308804E9, 0.0, 2022-06-02 14:28:52.130
200.0, 15231.618610813453, 579.4019197704697, -56941.22546210593, -45298.00060963638, -18140.78755864949, -21844.248097449316, 4615.076436409526, -1182.7872613414838, -0.076, 0.976, 0.34600000000000003, 192.0, 0.0, 0.0, 0.0, 0.0, 0.0, 0.0, 0.0, 0.0, 0.0, 1.654172932130886E9, 0.0, 2022-06-02 14:28:52.130
201.0, 15227.952924722782, 584.1628413394501, -56952.8930727116, -45284.120176329634, -18155.919689645732, -21859.871966823575, 4618.518605055643, -1168.4821448900873, -0.076, 0.976, 0.34600000000000003, 192.0, 0.0, 0.0, 0.0, 0.0, 0.0, 0.0, 0.0, 0.0, 0.0, 1.6541729321308916E9, 0.0, 2022-06-02 14:28:52.130
202.0, 15223.929610720828, 590.3766262980255, -56929.490796266895, -45272.43021397951, -18151.717561688132, -21847.489100395334, 4647.687631569819, -1155.9651679951153, -0.076, 0.976, 0.34600000000000003, 192.0, 0.0, 0.0, 0.0, 0.0, 0.0, 0.0, 0.0, 0.0, 0.0, 1.6541729321308978E9, 0.0, 2022-06-02 14:28:52.130
203.0, 15218.319322862546, 590.3766262980255, -56920.77361592932, -45266.462298209946, -18133.50088995706, -21828.713635052878, 4665.2784544561455, -1156.166333695213, -0.076, 0.976, 0.34600000000000003, 192.0, 0.0, 0.0, 0.0, 0.0, 0.0, 0.0, 0.0, 0.0, 0.0, 1.6541729321309032E9, 0.0, 2022-06-02 14:28:52.130
204.0, 15200.4379272983, 585.7721669402322, -56960.2915001263, -45286.91414438655, -18133.791462634978, -21816.35312036909, 4647.084134469525, -1152.3888888822662, -0.076, 0.976, 0.34600000000000003, 192.0, 0.0, 0.0, 0.0, 0.0, 0.0, 0.0, 0.0, 0.0, 0.0, 1.6541729321309092E9, 0.0, 2022-06-02 14:28:52.130
205.0, 15201.220238354235, 577.1220418360283, -56979.111668957674, -45330.43299084104, -18151.15876807675, -21825.22676291785, 4618.272735866634, -1162.268359931512, -0.078, 0.982, 0.354, 192.0, 253.0, 144.0, 30.0, 176.0, 11.0, 16.0, 0.0, 0.0, 0.0, 1.6541729321309147E9, 0.0, 2022-06-02 14:28:52.130
206.0, 15209.892715202895, 560.0453090721737, -56965.23123565093, -45382.7584246109, -18162.22288158213, -21856.94388829993, 4609.555555529065, -1199.7522353830618, -0.078, 0.982, 0.354, 192.0, 0.0, 0.0, 0.0, 0.0, 0.0, 0.0, 0.0, 0.0, 0.0, 1.6541729321309211E9, 0.0, 2022-06-02 14:28:52.130
207.0, 15213.58075303802, 540.8675123295203, -56928.8872991666, -45294.0890543567, -18158.06545711344, -21859.268469723283, 4626.788750504106, -1199.0816830494027, -0.078, 0.982, 0.354, 192.0, 0.0, 0.0, 0.0, 0.0, 0.0, 0.0, 0.0, 0.0, 0.0, 1.654172932130927E9, 0.0, 2022-06-02 14:28:52.130
208.0, 15212.53022104862, 518.0463812406518, -56921.42181651853, -45245.831638077696, -18131.310419000438, -21823.706844294888, 4661.590416621019, -1160.591979097364, -0.078, 0.982, 0.354, 192.0, 0.0, 0.0, 0.0, 0.0, 0.0, 0.0, 0.0, 0.0, 0.0, 1.6541729321309333E9, 0.0, 2022-06-02 14:28:52.130
209.0, 15212.664331515352, 479.9366569443533, -56939.88435743861, -45298.84997592568, -18109.025729778496, -21800.706899250377, 4663.311500944078, -1144.5434265784534, -0.078, 0.982, 0.354, 192.0, 0.0, 0.0, 0.0, 0.0, 0.0, 0.0, 0.0, 0.0, 0.0, 1.6541729321309388E9, 0.0, 2022-06-02 14:28:52.130
210.0, 15198.068642386037, 442.1622088148843, -56955.46352332396, -45322.945156448506, -18129.030541065997, -21822.879829750043, 4635.841207008506, -1155.2275604280903, -0.078, 0.982, 0.354, 192.0, 0.0, 0.0, 0.0, 0.0, 0.0, 0.0, 0.0, 0.0, 0.0, 1.6541729321309447E9, 0.0, 2022-06-02 14:28:52.130
211.0, 15214.184250138314, 449.4041740184038, -56956.64816578009, -45364.385290668644, -18140.698151671666, -21828.400710630503, 4626.095846425992, -1171.589037369375, -0.078, 0.982, 0.354, 192.0, 0.0, 0.0, 0.0, 0.0, 0.0, 0.0, 0.0, 0.0, 0.0, 1.6541729321309505E9, 0.0, 2022-06-02 14:28:52.130
212.0, 15207.881058201918, 434.2720430221609, -56958.36925010315, -45333.897511231604, -18145.503776729558, -21838.771920057767, 4619.949116700783, -1185.5141741650314, -0.078, 0.982, 0.354, 192.0, 0.0, 0.0, 0.0, 0.0, 0.0, 0.0, 0.0, 0.0, 0.0, 1.6541729321309564E9, 0.0, 2022-06-02 14:28:52.130
213.0, 15191.273712071625, 416.61416490246836, -56960.313851870764, -45262.86366735264, -18121.11802352882, -21820.488193093326, 4645.765381546662, -1169.689139090674, -0.078, 0.982, 0.354, 192.0, 0.0, 0.0, 0.0, 0.0, 0.0, 0.0, 0.0, 0.0, 0.0, 1.6541729321309624E9, 0.0, 2022-06-02 14:28:52.130
214.0, 15189.038537626093, 407.1146735089628, -56943.50534004037, -45321.604051781185, -18107.237590222074, -21805.73604175282, 4659.869332297961, -1160.6366825862744, -0.078, 0.982, 0.354, 192.0, 0.0, 0.0, 0.0, 0.0, 0.0, 0.0, 0.0, 0.0, 0.0, 1.6541729321309714E9, 0.0, 2022-06-02 14:28:52.130
215.0, 15198.694491230786, 404.25365021868356, -56968.60634906368, -45384.32304672278, -18116.848840337854, -21815.883733735533, 4646.234768180224, -1174.6735781042073, -0.08, 0.9500000000000001, 0.356, 192.0, 253.0, 128.0, 29.0, 176.0, 11.0, 32.0, 0.0, 0.0, 0.0, 1.654172932130977E9, 0.0, 2022-06-02 14:28:52.130
216.0, 15195.833467940507, 392.7648535686557, -56988.25353243989, -45353.74586030792, -18144.54265171798, -21848.09259749563, 4619.345619600489, -1206.1224825528245, -0.08, 0.9500000000000001, 0.356, 192.0, 0.0, 0.0, 0.0, 0.0, 0.0, 0.0, 0.0, 0.0, 0.0, 1.6541729321309829E9, 0.0, 2022-06-02 14:28:52.130
217.0, 15197.442793541288, 403.6725048628455, -56962.191398405004, -45313.78094122183, -18133.612648679336, -21833.161632199484, 4636.2211866642465, -1199.819290616428, -0.08, 0.9500000000000001, 0.356, 192.0, 0.0, 0.0, 0.0, 0.0, 0.0, 0.0, 0.0, 0.0, 0.0, 1.6541729321309881E9, 0.0, 2022-06-02 14:28:52.130
218.0, 15174.91223513034, 390.9543622677758, -56974.306043899785, -45334.56806356527, -18126.21422126463, -21814.095594179107, 4644.133704201425, -1191.0797585344028, -0.08, 0.9500000000000001, 0.356, 192.0, 0.0, 0.0, 0.0, 0.0, 0.0, 0.0, 0.0, 0.0, 0.0, 1.654172932130994E9, 0.0, 2022-06-02 14:28:52.130
219.0, 15163.781066391597, 391.2002314567842, -56996.76954707737, -45377.93044780856, -18127.801195120956, -21812.88859997852, 4629.1803871608245, -1188.6881218776848, -0.08, 0.9500000000000001, 0.356, 192.0, 0.0, 0.0, 0.0, 0.0, 0.0, 0.0, 0.0, 0.0, 0.0, 1.654172932131E9, 0.0, 2022-06-02 14:28:52.131
220.0, 15168.698450171763, 387.53454536611383, -56997.59656162222, -45329.20364489599, -18141.703980172155, -21835.016826989275, 4612.349523585978, -1205.1837092857015, -0.08, 0.9500000000000001, 0.356, 192.0, 0.0, 0.0, 0.0, 0.0, 0.0, 0.0, 0.0, 0.0, 0.0, 1.6541729321310055E9, 0.0, 2022-06-02 14:28:52.131
221.0, 15189.19499983728, 399.55978388306903, -56999.451756412, -45334.34454612071, -18145.503776729558, -21843.577545115655, 4621.469035323744, -1217.454816991665, -0.08, 0.9500000000000001, 0.356, 192.0, 0.0, 0.0, 0.0, 0.0, 0.0, 0.0, 0.0, 0.0, 0.0, 1.6541729321310108E9, 0.0, 2022-06-02 14:28:52.131
222.0, 15180.500171244166, 389.8367750450105, -56976.541218345315, -45342.54763633581, -18158.668954213736, -21853.836995820642, 4615.3223055985345, -1206.5695174419307, -0.08, 0.9500000000000001, 0.356, 192.0, 0.0, 0.0, 0.0, 0.0, 0.0, 0.0, 0.0, 0.0, 0.0, 1.6541729321310165E9, 0.0, 2022-06-02 14:28:52.131
223.0, 15176.745078175674, 393.48010939122554, -56959.553892559285, -45315.72554298944, -18135.803119635955, -21824.712672795376, 4634.768323274651, -1161.5307523644867, -0.08, 0.9500000000000001, 0.356, 192.0, 0.0, 0.0, 0.0, 0.0, 0.0, 0.0, 0.0, 0.0, 0.0, 1.6541729321310258E9, 0.0, 2022-06-02 14:28:52.131
224.0, 15174.28638628559, 390.01558900065294, -56981.212732936474, -45350.52720910635, -18129.29876199946, -21821.76224252728, 4631.437913350811, -1172.3937001697661, -0.08, 0.9500000000000001, 0.356, 192.0, 0.0, 0.0, 0.0, 0.0, 0.0, 0.0, 0.0, 0.0, 0.0, 1.6541729321310327E9, 0.0, 2022-06-02 14:28:52.131
225.0, 15189.932607404306, 387.8027662995775, -56992.410956908585, -45387.42993920207, -18136.093692313872, -21838.74956831331, 4608.840299706495, -1210.6151831883412, -0.082, 0.9480000000000001, 0.352, 192.0, 253.0, 112.0, 29.0, 160.0, 11.0, 0.0, 0.0, 0.0, 0.0, 1.6541729321310384E9, 0.0, 2022-06-02 14:28:52.131
226.0, 15201.10847963196, 390.4626238897591, -56986.666558583565, -45342.927615991546, -18159.56302399195, -21862.24125173584, 4595.5410117555875, -1212.2692122780338, -0.082, 0.9480000000000001, 0.352, 192.0, 0.0, 0.0, 0.0, 0.0, 0.0, 0.0, 0.0, 0.0, 0.0, 1.654172932131044E9, 0.0, 2022-06-02 14:28:52.131
227.0, 15191.899560916372, 420.2798509931387, -56977.21177067897, -45320.33000234723, -18166.536768262, -21872.47835069637, 4620.3737998454335, -1210.2799070215115, -0.082, 0.9480000000000001, 0.352, 192.0, 0.0, 0.0, 0.0, 0.0, 0.0, 0.0, 0.0, 0.0, 0.0, 1.6541729321310499E9, 0.0, 2022-06-02 14:28:52.131
228.0, 15215.81592748355, 442.8551128929988, -56970.03686070882, -45290.57983047722, -18142.955677861653, -21847.287934695236, 4639.529244843632, -1196.846508603872, -0.082, 0.9480000000000001, 0.352, 192.0, 0.0, 0.0, 0.0, 0.0, 0.0, 0.0, 0.0, 0.0, 0.0, 1.654172932131055E9, 0.0, 2022-06-02 14:28:52.131
229.0, 15173.727592674208, 384.852336031477, -56975.37892763364, -45314.45149355549, -18146.487253485593, -21836.8049665457, 4627.504006326676, -1170.5385053799755, -0.082, 0.9480000000000001, 0.352, 192.0, 0.0, 0.0, 0.0, 0.0, 0.0, 0.0, 0.0, 0.0, 0.0, 1.6541729321310608E9, 0.0, 2022-06-02 14:28:52.131
230.0, 15155.443865709767, 359.39369909688224, -56990.62281735216, -45386.826442101774, -18168.034335140506, -21852.18296673095, 4592.344712298478, -1183.6589793752407, -0.082, 0.9480000000000001, 0.352, 192.0, 0.0, 0.0, 0.0, 0.0, 0.0, 0.0, 0.0, 0.0, 0.0, 1.6541729321310668E9, 0.0, 2022-06-02 14:28:52.131
231.0, 15174.889883385884, 376.2692661606391, -56979.22342767995, -45422.58923323026, -18179.165503879252, -21857.50268191131, 4582.487592993688, -1179.5462583954643, -0.082, 0.9480000000000001, 0.352, 192.0, 0.0, 0.0, 0.0, 0.0, 0.0, 0.0, 0.0, 0.0, 0.0, 1.6541729321310732E9, 0.0, 2022-06-02 14:28:52.131
232.0, 15174.375793263413, 377.31979815003854, -56957.117552413656, -45360.764308066886, -18169.062515385453, -21856.809777833198, 4605.420482804833, -1181.6473223742632, -0.082, 0.9480000000000001, 0.352, 192.0, 0.0, 0.0, 0.0, 0.0, 0.0, 0.0, 0.0, 0.0, 0.0, 1.6541729321310787E9, 0.0, 2022-06-02 14:28:52.131
233.0, 15169.90544437235, 378.63855107290163, -56942.901842940075, -45262.0813562967, -18148.8341866534, -21842.437606148436, 4630.946174972793, -1172.7736798255062, -0.082, 0.9480000000000001, 0.352, 192.0, 0.0, 0.0, 0.0, 0.0, 0.0, 0.0, 0.0, 0.0, 0.0, 1.6541729321310852E9, 0.0, 2022-06-02 14:28:52.131
234.0, 15169.994851350171, 379.174992939829, -56954.725915756935, -45309.60116500869, -18129.54463118847, -21821.94105648292, 4639.193968676802, -1152.7018133046406, -0.082, 0.9480000000000001, 0.352, 192.0, 0.0, 0.0, 0.0, 0.0, 0.0, 0.0, 0.0, 0.0, 0.0, 1.6541729321310918E9, 0.0, 2022-06-02 14:28:52.131
235.0, 15161.702354157253, 359.08077467450795, -56972.71907004346, -45322.58752853722, -18147.627192452812, -21831.7534722988, 4613.712979997752, -1163.9670925101152, -0.074, 0.9460000000000001, 0.35000000000000003, 192.0, 253.0, 176.0, 29.0, 144.0, 10.0, 240.0, 0.0, 0.0, 0.0, 1.6541729321311E9, 0.0, 2022-06-02 14:28:52.131
236.0, 15167.558511204543, 356.0409374285862, -56980.8998085141, -45347.86735151617, -18166.000326395075, -21858.843786578633, 4598.603200745964, -1189.202212000157, -0.074, 0.9460000000000001, 0.35000000000000003, 192.0, 0.0, 0.0, 0.0, 0.0, 0.0, 0.0, 0.0, 0.0, 0.0, 1.654172932131106E9, 0.0, 2022-06-02 14:28:52.131
237.0, 15156.248528510157, 347.5919780244801, -56965.700622284494, -45332.48935133092, -18176.03625965551, -21868.79031286124, 4595.473956522222, -1190.0515782894586, -0.074, 0.9460000000000001, 0.35000000000000003, 192.0, 0.0, 0.0, 0.0, 0.0, 0.0, 0.0, 0.0, 0.0, 0.0, 1.6541729321311111E9, 0.0, 2022-06-02 14:28:52.131
238.0, 15154.885072098385, 352.8893414603879, -56939.03499114931, -45318.36304883517, -18161.038239125995, -21848.47257715137, 4606.4039595608665, -1181.714377607629, -0.074, 0.9460000000000001, 0.35000000000000003, 192.0, 0.0, 0.0, 0.0, 0.0, 0.0, 0.0, 0.0, 0.0, 0.0, 1.6541729321311176E9, 0.0, 2022-06-02 14:28:52.131
239.0, 15169.637223438887, 365.02633869961966, -56930.518976511834, -45328.77896175134, -18128.69526489917, -21814.92260872395, 4640.468018110754, -1154.84758077235, -0.074, 0.9460000000000001, 0.35000000000000003, 192.0, 0.0, 0.0, 0.0, 0.0, 0.0, 0.0, 0.0, 0.0, 0.0, 1.654172932131123E9, 0.0, 2022-06-02 14:28:52.131
240.0, 15174.018165352127, 363.7075857767565, -56957.00579369137, -45393.80018637183, -18144.050913339965, -21832.669893821465, 4617.982163188715, -1167.588075111875, -0.074, 0.9460000000000001, 0.35000000000000003, 192.0, 0.0, 0.0, 0.0, 0.0, 0.0, 0.0, 0.0, 0.0, 0.0, 1.6541729321311285E9, 0.0, 2022-06-02 14:28:52.131
241.0, 15198.381566808412, 366.9038852338654, -56962.66078503857, -45376.07525301877, -18167.028506640017, -21863.962336058896, 4579.067776092026, -1202.1215202953244, -0.074, 0.9460000000000001, 0.35000000000000003, 192.0, 0.0, 0.0, 0.0, 0.0, 0.0, 0.0, 0.0, 0.0, 0.0, 1.654172932131135E9, 0.0, 2022-06-02 14:28:52.131
242.0, 15195.185267351302, 362.14296366488503, -56944.33235458522, -45310.04819989779, -18172.348221820383, -21874.110028041607, 4575.737366168185, -1206.5918691863858, -0.074, 0.9460000000000001, 0.35000000000000003, 192.0, 0.0, 0.0, 0.0, 0.0, 0.0, 0.0, 0.0, 0.0, 0.0, 1.6541729321311407E9, 0.0, 2022-06-02 14:28:52.131
243.0, 15198.135697619404, 371.73186203621174, -56934.47523528043, -45283.96371411845, -18140.25111678256, -21838.57075435767, 4620.351448100978, -1168.9738832681041, -0.074, 0.9460000000000001, 0.35000000000000003, 192.0, 0.0, 0.0, 0.0, 0.0, 0.0, 0.0, 0.0, 0.0, 0.0, 1.654172932610356E9, 0.0, 2022-06-02 14:28:52.610
244.0, 15178.71203168774, 365.00398695516435, -56954.21182563446, -45340.53597933483, -18134.126738801806, -21825.02559721775, 4632.48844534021, -1160.3684616528108, -0.074, 0.9460000000000001, 0.35000000000000003, 192.0, 0.0, 0.0, 0.0, 0.0, 0.0, 0.0, 0.0, 0.0, 0.0, 1.6541729326105187E9, 0.0, 2022-06-02 14:28:52.610
245.0, 15157.4778744552, 348.50839954714775, -56945.20407261897, -45344.62634857016, -18161.038239125995, -21853.457016164903, 4605.264020593646, -1189.582191655897, -0.068, 0.976, 0.352, 192.0, 253.0, 224.0, 30.0, 128.0, 11.0, 0.0, 0.0, 0.0, 0.0, 1.6541729326105251E9, 0.0, 2022-06-02 14:28:52.610
246.0, 15168.921967616317, 359.1701816523292, -56971.8473520097, -45389.061616547304, -18186.005137682576, -21879.250929266327, 4581.52646798211, -1220.1146745818467, -0.068, 0.976, 0.352, 192.0, 0.0, 0.0, 0.0, 0.0, 0.0, 0.0, 0.0, 0.0, 0.0, 1.6541729326105309E9, 0.0, 2022-06-02 14:28:52.610
247.0, 15190.223180082225, 377.38685338340446, -56950.21086337696, -45321.13466514763, -18182.540617292, -21875.98757457585, 4602.738273470196, -1221.7016484381734, -0.068, 0.976, 0.352, 192.0, 0.0, 0.0, 0.0, 0.0, 0.0, 0.0, 0.0, 0.0, 0.0, 1.6541729326105368E9, 0.0, 2022-06-02 14:28:52.610
248.0, 15204.170668622337, 385.8581645319658, -56920.01365661784, -45306.87425218514, -18154.35506753386, -21842.7058270819, 4628.733352271718, -1193.4490434466652, -0.068, 0.976, 0.352, 192.0, 0.0, 0.0, 0.0, 0.0, 0.0, 0.0, 0.0, 0.0, 0.0, 1.6541729326105428E9, 0.0, 2022-06-02 14:28:52.610
249.0, 15204.774165722629, 390.239106445206, -56935.99515390339, -45287.987028120406, -18142.709808672644, -21837.855498535097, 4616.752817243674, -1165.3752524107997, -0.068, 0.976, 0.352, 192.0, 0.0, 0.0, 0.0, 0.0, 0.0, 0.0, 0.0, 0.0, 0.0, 1.6541729326105485E9, 0.0, 2022-06-02 14:28:52.610
250.0, 15202.047252899081, 390.820251801044, -56944.0417819073, -45321.15701689208, -18159.652430969767, -21848.137300984537, 4588.589619229987, -1175.6794066046962, -0.068, 0.976, 0.352, 192.0, 0.0, 0.0, 0.0, 0.0, 0.0, 0.0, 0.0, 0.0, 0.0, 1.6541729326105545E9, 0.0, 2022-06-02 14:28:52.610
251.0, 15204.863572700451, 395.49176639220315, -56953.89890121209, -45349.47667711695, -18175.5892247664, -21873.238310007848, 4579.939494125783, -1204.9601918411483, -0.068, 0.976, 0.352, 192.0, 0.0, 0.0, 0.0, 0.0, 0.0, 0.0, 0.0, 0.0, 0.0, 1.65417293261056E9, 0.0, 2022-06-02 14:28:52.610
252.0, 15197.353386563467, 398.17397572684, -56930.83190093421, -45336.24444439941, -18181.624195769335, -21879.183874032962, 4594.758700699652, -1211.7774739000172, -0.068, 0.976, 0.352, 192.0, 0.0, 0.0, 0.0, 0.0, 0.0, 0.0, 0.0, 0.0, 0.0, 1.654172932610566E9, 0.0, 2022-06-02 14:28:52.610
253.0, 15206.428194812323, 407.20408048678405, -56903.898048865565, -45322.11814190366, -18154.109198344853, -21842.45995789289, 4620.686724267808, -1192.979656813104, -0.068, 0.976, 0.352, 192.0, 0.0, 0.0, 0.0, 0.0, 0.0, 0.0, 0.0, 0.0, 0.0, 1.6541729326105719E9, 0.0, 2022-06-02 14:28:52.610
254.0, 15218.542840307098, 405.48299616372543, -56911.00590360235, -45397.868203862694, -18124.850764852854, -21811.994530200307, 4636.064724453059, -1176.2605519605343, -0.068, 0.976, 0.352, 192.0, 0.0, 0.0, 0.0, 0.0, 0.0, 0.0, 0.0, 0.0, 0.0, 1.6541729326105776E9, 0.0, 2022-06-02 14:28:52.610
255.0, 15201.019072654139, 398.464548404759, -56943.08065689572, -45325.314441360766, -18141.525166216514, -21825.673797806954, 4618.742122500196, -1169.3762146682996, -0.068, 0.984, 0.34400000000000003, 192.0, 253.0, 224.0, 30.0, 192.0, 10.0, 192.0, 0.0, 0.0, 0.0, 1.6541729326105833E9, 0.0, 2022-06-02 14:28:52.610
0.0, 15205.847049456484, 389.8367750450105, -56957.49753206939, -45340.08894444573, -18160.613555981345, -21851.668876608477, 4597.5973722454755, -1196.5112324370423, -0.068, 0.984, 0.34400000000000003, 192.0, 0.0, 0.0, 0.0, 0.0, 0.0, 0.0, 0.0, 0.0, 0.0, 1.654172932610602E9, 0.0, 2022-06-02 14:28:52.610
1.0, 15216.978218195227, 396.5422983816026, -56939.54908127178, -45307.567156263256, -18155.897337901275, -21857.74855110032, 4604.660523493352, -1226.7084391961623, -0.068, 0.984, 0.34400000000000003, 192.0, 0.0, 0.0, 0.0, 0.0, 0.0, 0.0, 0.0, 0.0, 0.0, 1.6541729326106079E9, 0.0, 2022-06-02 14:28:52.610
2.0, 15226.20948865527, 421.8444731050102, -56906.759072155844, -45287.22706880893, -18122.794404362965, -21823.7515477838, 4623.301878369079, -1215.5102152240534, -0.068, 0.984, 0.34400000000000003, 192.0, 0.0, 0.0, 0.0, 0.0, 0.0, 0.0, 0.0, 0.0, 0.0, 1.654172932610613E9, 0.0, 2022-06-02 14:28:52.610
3.0, 15218.565192051554, 419.60929865947946, -56957.63164253612, -45341.11712469067, -18113.6748926252, -21793.956672424876, 4625.872328981439, -1155.1158017058137, -0.068, 0.984, 0.34400000000000003, 192.0, 0.0, 0.0, 0.0, 0.0, 0.0, 0.0, 0.0, 0.0, 0.0, 1.6541729326106184E9, 0.0, 2022-06-02 14:28:52.610
4.0, 15211.01030242566, 394.17301346934005, -56964.94066297301, -45344.13461019214, -18135.11021555784, -21822.231629160837, 4614.808215476062, -1182.228467730101, -0.068, 0.984, 0.34400000000000003, 192.0, 0.0, 0.0, 0.0, 0.0, 0.0, 0.0, 0.0, 0.0, 0.0, 1.6541729326106238E9, 0.0, 2022-06-02 14:28:52.610
5.0, 15213.334883849013, 396.497594892692, -56955.30706111277, -45364.117069735184, -18138.127701059308, -21845.835071305642, 4614.785863731607, -1215.3090495239555, -0.068, 0.984, 0.34400000000000003, 192.0, 0.0, 0.0, 0.0, 0.0, 0.0, 0.0, 0.0, 0.0, 0.0, 1.6541729326106293E9, 0.0, 2022-06-02 14:28:52.610
6.0, 15204.39418606689, 401.12440599494056, -56961.11851467115, -45338.41256361158, -18142.843919139377, -21850.148957985515, 4606.62747700542, -1204.3790464853105, -0.068, 0.984, 0.34400000000000003, 192.0, 0.0, 0.0, 0.0, 0.0, 0.0, 0.0, 0.0, 0.0, 0.0, 1.6541729326106348E9, 0.0, 2022-06-02 14:28:52.610
7.0, 15203.522468033132, 401.012647272664, -56941.38192431712, -45334.85863624318, -18126.236573009082, -21829.250076919805, 4621.022000434637, -1190.0292265450032, -0.068, 0.984, 0.34400000000000003, 192.0, 0.0, 0.0, 0.0, 0.0, 0.0, 0.0, 0.0, 0.0, 0.0, 1.6541729326106417E9, 0.0, 2022-06-02 14:28:52.610
8.0, 15196.4369650408, 389.07681573353005, -56942.767732473345, -45350.549560850806, -18113.451375180648, -21821.829297760643, 4621.804311490573, -1182.0943572633694, -0.078, 0.9540000000000001, 0.34400000000000003, 192.0, 253.0, 144.0, 29.0, 208.0, 10.0, 192.0, 0.0, 0.0, 0.0, 1.6541729326106472E9, 0.0, 2022-06-02 14:28:52.610
9.0, 15190.379642293412, 387.7133593217563, -56984.87841902715, -45385.35122696772, -18129.008189321543, -21840.135376469538, 4605.599296760475, -1205.586040685897, -0.078, 0.9540000000000001, 0.34400000000000003, 192.0, 0.0, 0.0, 0.0, 0.0, 0.0, 0.0, 0.0, 0.0, 0.0, 1.6541729326106524E9, 0.0, 2022-06-02 14:28:52.610
10.0, 15213.87132571594, 404.92420255234276, -56978.17289569055, -45406.898308622636, -18134.350256246362, -21843.9575247714, 4600.391340302389, -1224.2720990505338, -0.078, 0.9540000000000001, 0.34400000000000003, 192.0, 0.0, 0.0, 0.0, 0.0, 0.0, 0.0, 0.0, 0.0, 0.0, 1.654172932610658E9, 0.0, 2022-06-02 14:28:52.610
11.0, 15202.203715110269, 399.26921120515004, -56977.32352940125, -45425.69612570955, -18143.380361006304, -21853.99345803183, 4597.19504084528, -1233.0116311325587, -0.078, 0.9540000000000001, 0.34400000000000003, 192.0, 0.0, 0.0, 0.0, 0.0, 0.0, 0.0, 0.0, 0.0, 0.0, 1.6541729326106632E9, 0.0, 2022-06-02 14:28:52.610
12.0, 15183.495305001177, 390.77554831213337, -56964.94066297301, -45351.957720751496, -18131.10925330034, -21844.73983582733, 4627.012267948659, -1210.7269419106176, -0.078, 0.9540000000000001, 0.34400000000000003, 192.0, 0.0, 0.0, 0.0, 0.0, 0.0, 0.0, 0.0, 0.0, 0.0, 1.6541729326106687E9, 0.0, 2022-06-02 14:28:52.610
13.0, 15180.38841252189, 381.18664994080666, -56972.406145621084, -45360.49608713342, -18119.24047699457, -21823.17040242796, 4641.25032916669, -1189.0233980445146, -0.078, 0.9540000000000001, 0.34400000000000003, 192.0, 0.0, 0.0, 0.0, 0.0, 0.0, 0.0, 0.0, 0.0, 0.0, 1.654172932610675E9, 0.0, 2022-06-02 14:28:52.610
14.0, 15172.788819407086, 381.4101673853597, -57004.0562157698, -45375.3599971962, -18130.818680622422, -21831.261733920783, 4616.86457596595, -1198.7017033936625, -0.078, 0.9540000000000001, 0.34400000000000003, 192.0, 0.0, 0.0, 0.0, 0.0, 0.0, 0.0, 0.0, 0.0, 0.0, 1.6541729326106813E9, 0.0, 2022-06-02 14:28:52.610
15.0, 15182.467124756233, 383.6229900864351, -57022.71992238998, -45404.39491324365, -18150.51056748755, -21861.43658893545, 4586.6226657179195, -1228.3848200303103, -0.078, 0.9540000000000001, 0.34400000000000003, 192.0, 0.0, 0.0, 0.0, 0.0, 0.0, 0.0, 0.0, 0.0, 0.0, 1.6541729326106868E9, 0.0, 2022-06-02 14:28:52.610
16.0, 15177.639147953887, 379.71143480675636, -56978.9999102354, -45435.620300247705, -18151.15876807675, -21866.733952371356, 4595.585715244498, -1232.9445758991928, -0.078, 0.9540000000000001, 0.34400000000000003, 192.0, 0.0, 0.0, 0.0, 0.0, 0.0, 0.0, 0.0, 0.0, 0.0, 1.6541729326106925E9, 0.0, 2022-06-02 14:28:52.610
17.0, 15167.044421082071, 375.4869551047033, -56977.36823289016, -45408.39587550114, -18144.11796857333, -21855.960411543896, 4612.327171841523, -1218.8629768923495, -0.078, 0.9540000000000001, 0.34400000000000003, 192.0, 0.0, 0.0, 0.0, 0.0, 0.0, 0.0, 0.0, 0.0, 0.0, 1.6541729326106975E9, 0.0, 2022-06-02 14:28:52.610
18.0, 15180.276653799612, 379.7784900401223, -56972.56260783227, -45317.53603429032, -18121.855631095845, -21831.529954854246, 4620.8431864789945, -1193.8290231024055, -0.078, 0.9400000000000001, 0.34600000000000003, 192.0, 253.0, 144.0, 29.0, 96.0, 10.0, 208.0, 0.0, 0.0, 0.0, 1.6541729326107032E9, 0.0, 2022-06-02 14:28:52.610
19.0, 15176.745078175674, 368.8931904903878, -57020.171823522076, -45386.26764849039, -18138.798253392968, -21849.590164374134, 4599.4749187797215, -1213.9902966010925, -0.078, 0.9400000000000001, 0.34600000000000003, 192.0, 0.0, 0.0, 0.0, 0.0, 0.0, 0.0, 0.0, 0.0, 0.0, 1.6541729326107085E9, 0.0, 2022-06-02 14:28:52.610
20.0, 15167.245586782168, 349.3130623475388, -57013.019265296374, -45403.947878354535, -18174.181064865716, -21893.24312129535, 4576.251456290657, -1246.6908987392067, -0.078, 0.9400000000000001, 0.34600000000000003, 192.0, 0.0, 0.0, 0.0, 0.0, 0.0, 0.0, 0.0, 0.0, 0.0, 1.654172932610714E9, 0.0, 2022-06-02 14:28:52.610
21.0, 15196.883999929905, 382.9747894972312, -56974.931892744535, -45371.940180294536, -18163.742800205087, -21878.580376932667, 4601.486575780699, -1232.3410787988996, -0.078, 0.9400000000000001, 0.34600000000000003, 192.0, 0.0, 0.0, 0.0, 0.0, 0.0, 0.0, 0.0, 0.0, 0.0, 1.6541729326107192E9, 0.0, 2022-06-02 14:28:52.610
22.0, 15200.683796487308, 402.5325658956249, -56946.478122052926, -45354.21524694148, -18139.893488871276, -21841.543536370224, 4632.421390106844, -1184.2177729866235, -0.078, 0.9400000000000001, 0.34600000000000003, 192.0, 0.0, 0.0, 0.0, 0.0, 0.0, 0.0, 0.0, 0.0, 0.0, 1.6541729326107287E9, 0.0, 2022-06-02 14:28:52.610
23.0, 15178.488514243189, 382.12542320792954, -56955.46352332396, -45354.1034882192, -18144.92263137372, -21846.013885261284, 4611.477805552221, -1181.490860163076, -0.078, 0.9400000000000001, 0.34600000000000003, 192.0, 0.0, 0.0, 0.0, 0.0, 0.0, 0.0, 0.0, 0.0, 0.0, 1.6541729326107342E9, 0.0, 2022-06-02 14:28:52.610
24.0, 15176.812133409041, 371.240123658195, -56996.747195332915, -45416.6213174607, -18168.481370029614, -21870.7125628844, 4567.221351530713, -1215.912546624249, -0.078, 0.9400000000000001, 0.34600000000000003, 192.0, 0.0, 0.0, 0.0, 0.0, 0.0, 0.0, 0.0, 0.0, 0.0, 1.6541729326107395E9, 0.0, 2022-06-02 14:28:52.610
25.0, 15173.839351396484, 366.92623697832073, -57013.443948441025, -45392.86141310471, -18190.31902436245, -21898.495781242345, 4548.691755377264, -1248.0990586398912, -0.078, 0.9400000000000001, 0.34600000000000003, 192.0, 0.0, 0.0, 0.0, 0.0, 0.0, 0.0, 0.0, 0.0, 0.0, 1.6541729326107447E9, 0.0, 2022-06-02 14:28:52.610
26.0, 15174.040517096582, 368.8931904903878, -56996.68014009955, -45382.69136937754, -18194.565855808956, -21909.023452880796, 4565.4779154632, -1255.6986517546954, -0.078, 0.9400000000000001, 0.34600000000000003, 192.0, 0.0, 0.0, 0.0, 0.0, 0.0, 0.0, 0.0, 0.0, 0.0, 1.6541729326107504E9, 0.0, 2022-06-02 14:28:52.610
27.0, 15169.257243783146, 375.4869551047033, -56961.789067004815, -45377.79633734183, -18176.97503292263, -21890.695022427444, 4590.5565727420535, -1239.9853754026146, -0.078, 0.9400000000000001, 0.34600000000000003, 192.0, 0.0, 0.0, 0.0, 0.0, 0.0, 0.0, 0.0, 0.0, 0.0, 1.6541729326107557E9, 0.0, 2022-06-02 14:28:52.610
28.0, 15160.473008212211, 368.2002864122732, -56978.217599179465, -45351.68949981803, -18177.913806189754, -21870.511397184302, 4566.036709074582, -1202.2556307620564, -0.07, 0.9580000000000001, 0.34600000000000003, 192.0, 253.0, 208.0, 29.0, 240.0, 10.0, 208.0, 0.0, 0.0, 0.0, 1.654172932610761E9, 0.0, 2022-06-02 14:28:52.610
29.0, 15177.706203187252, 374.1458504373849, -56991.71805283047, -45379.27155247588, -18181.51243704706, -21872.94773732993, 4555.084354291482, -1209.005857587559, -0.07, 0.9580000000000001, 0.34600000000000003, 192.0, 0.0, 0.0, 0.0, 0.0, 0.0, 0.0, 0.0, 0.0, 0.0, 1.6541729326107664E9, 0.0, 2022-06-02 14:28:52.610
30.0, 15181.10366834446, 377.4762603612257, -56997.46245115548, -45381.17145075458, -18194.40939359777, -21895.94768237444, 4574.083337078493, -1221.5451862269863, -0.07, 0.9580000000000001, 0.34600000000000003, 192.0, 0.0, 0.0, 0.0, 0.0, 0.0, 0.0, 0.0, 0.0, 0.0, 1.6541729326107717E9, 0.0, 2022-06-02 14:28:52.610
31.0, 15187.920950403328, 389.72501632273395, -56963.93483447252, -45357.6574155876, -18192.688309274712, -21897.020566108295, 4596.792709445084, -1210.3022587659668, -0.07, 0.9580000000000001, 0.34600000000000003, 192.0, 0.0, 0.0, 0.0, 0.0, 0.0, 0.0, 0.0, 0.0, 0.0, 1.654172932610777E9, 0.0, 2022-06-02 14:28:52.610
32.0, 15198.806249953062, 403.73956009621145, -56925.69099970949, -45367.26866570338, -18161.529977504015, -21850.841862063633, 4615.881099209917, -1167.1186884783135, -0.07, 0.9580000000000001, 0.34600000000000003, 192.0, 0.0, 0.0, 0.0, 0.0, 0.0, 0.0, 0.0, 0.0, 0.0, 1.6541729326107821E9, 0.0, 2022-06-02 14:28:52.610
33.0, 15193.53123826161, 406.48882466421423, -56942.43245630652, -45336.75853452188, -18144.74381741808, -21836.067358978675, 4606.67218049433, -1148.4773336025876, -0.07, 0.9580000000000001, 0.34600000000000003, 192.0, 0.0, 0.0, 0.0, 0.0, 0.0, 0.0, 0.0, 0.0, 0.0, 1.6541729326107876E9, 0.0, 2022-06-02 14:28:52.610
34.0, 15206.472898301232, 399.29156294960535, -56973.00964272138, -45319.994726180405, -18146.554308718958, -21839.487175880335, 4613.355352086467, -1143.1129149333137, -0.07, 0.9580000000000001, 0.34600000000000003, 192.0, 0.0, 0.0, 0.0, 0.0, 0.0, 0.0, 0.0, 0.0, 0.0, 1.6541729326107929E9, 0.0, 2022-06-02 14:28:52.610
35.0, 15199.968540664739, 388.2274494442284, -56963.97953796143, -45360.38432841114, -18173.398753809783, -21874.266490252794, 4614.025904420127, -1159.429688385688, -0.07, 0.9580000000000001, 0.34600000000000003, 192.0, 0.0, 0.0, 0.0, 0.0, 0.0, 0.0, 0.0, 0.0, 0.0, 1.654172932610798E9, 0.0, 2022-06-02 14:28:52.610
36.0, 15193.218313839236, 388.5403738666027, -56967.82403800775, -45371.29197970533, -18185.871027215842, -21894.919502129498, 4607.253325850168, -1187.458775932643, -0.07, 0.9580000000000001, 0.34600000000000003, 192.0, 0.0, 0.0, 0.0, 0.0, 0.0, 0.0, 0.0, 0.0, 0.0, 1.6541729326108034E9, 0.0, 2022-06-02 14:28:52.610
37.0, 15192.570113250033, 395.84939430348805, -56920.79596767378, -45357.76917430988, -18156.858462912853, -21854.261678965293, 4635.2824133971235, -1156.9709964956041, -0.07, 0.9580000000000001, 0.34600000000000003, 192.0, 0.0, 0.0, 0.0, 0.0, 0.0, 0.0, 0.0, 0.0, 0.0, 1.6541729326108086E9, 0.0, 2022-06-02 14:28:52.610
38.0, 15189.396165537379, 401.1914612283065, -56911.676455936016, -45323.88392971563, -18140.273468527015, -21822.36573962757, 4641.071515211048, -1137.1226474192915, -0.064, 0.99, 0.352, 192.0, 254.0, 0.0, 30.0, 240.0, 11.0, 0.0, 0.0, 0.0, 0.0, 1.654172932610814E9, 0.0, 2022-06-02 14:28:52.610
39.0, 15200.706148231764, 414.915432323865, -56937.671534737536, -45381.372616454675, -18150.465863998637, -21834.301571166703, 4622.877195224428, -1149.7066795476294, -0.064, 0.99, 0.352, 192.0, 0.0, 0.0, 0.0, 0.0, 0.0, 0.0, 0.0, 0.0, 0.0, 1.654172932610819E9, 0.0, 2022-06-02 14:28:52.610
40.0, 15229.294029390101, 437.44599073481453, -56933.62586899113, -45358.59618885472, -18148.320096530926, -21846.19269921693, 4629.672125538841, -1157.2839209179785, -0.064, 0.99, 0.352, 192.0, 0.0, 0.0, 0.0, 0.0, 0.0, 0.0, 0.0, 0.0, 0.0, 1.6541729326108243E9, 0.0, 2022-06-02 14:28:52.610
41.0, 15228.4446631008, 439.99408960271955, -56921.98061012991, -45326.74495300591, -18151.672858199225, -21851.110082997096, 4649.2522536816905, -1152.7912202824618, -0.064, 0.99, 0.352, 192.0, 0.0, 0.0, 0.0, 0.0, 0.0, 0.0, 0.0, 0.0, 0.0, 1.6541729326108298E9, 0.0, 2022-06-02 14:28:52.610
42.0, 15224.15312816538, 459.39540378992604, -56894.73383363889, -45325.73912450542, -18131.10925330034, -21824.243286161814, 4666.574855634553, -1125.0527054134257, -0.064, 0.99, 0.352, 192.0, 0.0, 0.0, 0.0, 0.0, 0.0, 0.0, 0.0, 0.0, 0.0, 1.6541729326108367E9, 0.0, 2022-06-02 14:28:52.610
43.0, 15208.037520413105, 453.71806069827807, -56915.722121682425, -45358.77500281036, -18123.777881119, -21805.51252430827, 4647.687631569819, -1118.302478587923, -0.064, 0.99, 0.352, 192.0, 0.0, 0.0, 0.0, 0.0, 0.0, 0.0, 0.0, 0.0, 0.0, 1.6541729326108444E9, 0.0, 2022-06-02 14:28:52.610
44.0, 15203.67893024432, 450.47705775225853, -56940.21963360544, -45394.62720091667, -18135.289029513482, -21818.387129114526, 4633.270756396146, -1130.9982694385374, -0.064, 0.99, 0.352, 192.0, 0.0, 0.0, 0.0, 0.0, 0.0, 0.0, 0.0, 0.0, 0.0, 1.6541729326108499E9, 0.0, 2022-06-02 14:28:52.610
45.0, 15211.367930336944, 456.78024968865515, -56952.356630844675, -45357.746822565416, -18155.115026845342, -21844.94100152743, 4626.922860970839, -1154.84758077235, -0.064, 0.99, 0.352, 192.0, 0.0, 0.0, 0.0, 0.0, 0.0, 0.0, 0.0, 0.0, 0.0, 1.654172932610855E9, 0.0, 2022-06-02 14:28:52.610
46.0, 15227.170613666847, 470.77244171767734, -56922.33823804119, -45304.37085680615, -18149.795311664977, -21843.599896860112, 4647.642928080908, -1157.7309558070847, -0.064, 0.99, 0.352, 192.0, 0.0, 0.0, 0.0, 0.0, 0.0, 0.0, 0.0, 0.0, 0.0, 1.6541729326108603E9, 0.0, 2022-06-02 14:28:52.610
47.0, 15219.369854851944, 460.22241833477244, -56912.145842569575, -45327.50491231739, -18138.64179118178, -21832.759300799287, 4654.437858395321, -1166.2469704445566, -0.064, 0.99, 0.352, 192.0, 0.0, 0.0, 0.0, 0.0, 0.0, 0.0, 0.0, 0.0, 0.0, 1.6541729326108656E9, 0.0, 2022-06-02 14:28:52.610
48.0, 15223.192003153803, 471.10771788450694, -56919.38780777309, -45335.43978159902, -18112.311436213426, -21801.198637628393, 4672.006329537193, -1134.5521968069313, -0.074, 0.98, 0.356, 192.0, 253.0, 176.0, 30.0, 160.0, 11.0, 32.0, 0.0, 0.0, 0.0, 1.654172932610871E9, 0.0, 2022-06-02 14:28:52.610
49.0, 15202.807212210562, 472.87350569647623, -56949.85323546568, -45360.22786619996, -18123.06262529643, -21806.607759786577, 4666.284282956634, -1120.8282257113726, -0.074, 0.98, 0.356, 192.0, 0.0, 0.0, 0.0, 0.0, 0.0, 0.0, 0.0, 0.0, 0.0, 1.6541729326108763E9, 0.0, 2022-06-02 14:28:52.610
50.0, 15215.30183736108, 466.6150172489902, -56960.82794199324, -45407.099474322735, -18147.381323263806, -21825.964370484875, 4637.58464307602, -1153.9982144830483, -0.074, 0.98, 0.356, 192.0, 0.0, 0.0, 0.0, 0.0, 0.0, 0.0, 0.0, 0.0, 0.0, 1.6541729326108816E9, 0.0, 2022-06-02 14:28:52.610
51.0, 15230.366913123957, 467.5090870272025, -56977.591750334715, -45426.65725072113, -18153.684515200202, -21835.32975141165, 4632.935480229316, -1171.656092602741, -0.074, 0.98, 0.356, 192.0, 0.0, 0.0, 0.0, 0.0, 0.0, 0.0, 0.0, 0.0, 0.0, 1.6541729326108868E9, 0.0, 2022-06-02 14:28:52.610
52.0, 15231.216279413258, 475.55571503111304, -56983.22438993745, -45337.69730778901, -18146.129625574307, -21833.005169988297, 4646.5476926025985, -1154.8252290278947, -0.074, 0.98, 0.356, 192.0, 0.0, 0.0, 0.0, 0.0, 0.0, 0.0, 0.0, 0.0, 0.0, 1.6541729326108923E9, 0.0, 2022-06-02 14:28:52.610
53.0, 15198.985063908705, 472.58293301855724, -56939.32556382723, -45371.06846226078, -18139.625267937812, -21820.957579726884, 4650.235730437724, -1135.4015630962328, -0.074, 0.98, 0.356, 192.0, 0.0, 0.0, 0.0, 0.0, 0.0, 0.0, 0.0, 0.0, 0.0, 1.6541729326108975E9, 0.0, 2022-06-02 14:28:52.610
54.0, 15173.772296163119, 449.1136013404848, -56983.403203893096, -45411.03338134687, -18144.341486017882, -21826.567867585167, 4633.986012218716, -1154.6240633277969, -0.074, 0.98, 0.356, 192.0, 0.0, 0.0, 0.0, 0.0, 0.0, 0.0, 0.0, 0.0, 0.0, 1.6541729326109028E9, 0.0, 2022-06-02 14:28:52.610
55.0, 15189.217351581736, 450.2982437966161, -57010.292352472825, -45434.435657791575, -18150.845843654377, -21839.576582858157, 4623.257174880168, -1183.7260346086068, -0.074, 0.98, 0.356, 192.0, 0.0, 0.0, 0.0, 0.0, 0.0, 0.0, 0.0, 0.0, 0.0, 1.654172932610908E9, 0.0, 2022-06-02 14:28:52.610
56.0, 15194.760584206651, 445.8725983944653, -56995.696663343515, -45390.380369470164, -18155.338544289894, -21848.450225406912, 4625.469997581244, -1182.3178747079223, -0.074, 0.98, 0.356, 192.0, 0.0, 0.0, 0.0, 0.0, 0.0, 0.0, 0.0, 0.0, 0.0, 1.6541729326109133E9, 0.0, 2022-06-02 14:28:52.610
57.0, 15175.180456063803, 432.9085866103872, -56964.918311228554, -45424.19855883105, -18134.618477179825, -21820.823469260155, 4650.012212993171, -1161.3742901532996, -0.074, 0.98, 0.356, 192.0, 0.0, 0.0, 0.0, 0.0, 0.0, 0.0, 0.0, 0.0, 0.0, 1.6541729326109185E9, 0.0, 2022-06-02 14:28:52.610
58.0, 15167.133828059892, 430.0475633201079, -56981.27978816984, -45421.784570429874, -18128.762320132533, -21820.93522798243, 4636.5117593421655, -1185.0000840425591, -0.082, 0.9400000000000001, 0.356, 192.0, 253.0, 112.0, 29.0, 96.0, 11.0, 32.0, 0.0, 0.0, 0.0, 1.654172932610924E9, 0.0, 2022-06-02 14:28:52.610
59.0, 15165.882130370395, 424.75019988420013, -57011.47699492896, -45368.56506688178, -18134.48436671309, -21830.881754265043, 4622.273698124135, -1178.0263397725034, -0.082, 0.9400000000000001, 0.356, 192.0, 0.0, 0.0, 0.0, 0.0, 0.0, 0.0, 0.0, 0.0, 0.0, 1.6541729326109293E9, 0.0, 2022-06-02 14:28:52.610
60.0, 15169.793685650075, 418.4470079478035, -57020.61885841118, -45407.12182606719, -18142.9333261172, -21838.906030524497, 4604.459357793255, -1154.8922842612606, -0.082, 0.9400000000000001, 0.356, 192.0, 0.0, 0.0, 0.0, 0.0, 0.0, 0.0, 0.0, 0.0, 0.0, 1.6541729326109345E9, 0.0, 2022-06-02 14:28:52.610
61.0, 15164.831598380995, 415.47422593524766, -57016.595544409225, -45416.8671866497, -18159.31715480294, -21852.965277786887, 4594.6022384884645, -1173.8242118149058, -0.082, 0.9400000000000001, 0.356, 192.0, 0.0, 0.0, 0.0, 0.0, 0.0, 0.0, 0.0, 0.0, 0.0, 1.6541729326109395E9, 0.0, 2022-06-02 14:28:52.610
62.0, 15160.04832506756, 409.1263305099405, -56993.305026686794, -45388.39106421365, -18147.180157563707, -21838.526050868757, 4624.15124465838, -1162.8718570318053, -0.082, 0.9400000000000001, 0.356, 192.0, 0.0, 0.0, 0.0, 0.0, 0.0, 0.0, 0.0, 0.0, 0.0, 1.654172932610945E9, 0.0, 2022-06-02 14:28:52.610
63.0, 15159.645993667364, 407.6734671203455, -57002.6033523802, -45397.19765152904, -18126.795366620467, -21817.247190147304, 4637.271718653646, -1152.5453510934533, -0.082, 0.9400000000000001, 0.356, 192.0, 0.0, 0.0, 0.0, 0.0, 0.0, 0.0, 0.0, 0.0, 0.0, 1.6541729326109502E9, 0.0, 2022-06-02 14:28:52.610
64.0, 15128.644124107854, 392.9436675242982, -57031.0124195829, -45455.91568421313, -18145.12379707382, -21842.728178826354, 4605.5769450160205, -1196.3100667369447, -0.082, 0.9400000000000001, 0.356, 192.0, 0.0, 0.0, 0.0, 0.0, 0.0, 0.0, 0.0, 0.0, 0.0, 1.6541729326109576E9, 0.0, 2022-06-02 14:28:52.610
65.0, 15129.761711330619, 394.3741791694378, -57057.275719317884, -45462.688262783086, -18178.092620145395, -21868.835016350153, 4567.6013311864535, -1226.5966804738857, -0.082, 0.9400000000000001, 0.356, 192.0, 0.0, 0.0, 0.0, 0.0, 0.0, 0.0, 0.0, 0.0, 0.0, 1.6541729326109629E9, 0.0, 2022-06-02 14:28:52.610
66.0, 15150.57118541851, 408.2546124761835, -57061.45549553102, -45472.90300999916, -18171.63296599781, -21871.22665300687, 4600.257229835657, -1212.3139157669445, -0.082, 0.9400000000000001, 0.356, 192.0, 0.0, 0.0, 0.0, 0.0, 0.0, 0.0, 0.0, 0.0, 0.0, 1.654172932610968E9, 0.0, 2022-06-02 14:28:52.610
67.0, 15156.494397699165, 423.74437138371127, -57021.17765202256, -45377.97515129747, -18148.141282575285, -21847.198527717417, 4648.380535647933, -1150.5336940924758, -0.082, 0.9400000000000001, 0.356, 192.0, 0.0, 0.0, 0.0, 0.0, 0.0, 0.0, 0.0, 0.0, 0.0, 1.6541729326109734E9, 0.0, 2022-06-02 14:28:52.610
68.0, 15155.645031409864, 441.69282218132287, -56960.55972105977, -45355.06461323078, -18138.64179118178, -21820.93522798243, 4638.970451232249, -1123.8233594683838, -0.084, 0.936, 0.35000000000000003, 192.0, 253.0, 96.0, 29.0, 64.0, 10.0, 240.0, 0.0, 0.0, 0.0, 1.6541729326109788E9, 0.0, 2022-06-02 14:28:52.610
69.0, 15159.735400645186, 450.0076711186971, -57010.82879433976, -45426.00905013193, -18151.471692499126, -21838.146071213017, 4605.889869438394, -1148.1867609246685, -0.084, 0.936, 0.35000000000000003, 192.0, 0.0, 0.0, 0.0, 0.0, 0.0, 0.0, 0.0, 0.0, 0.0, 1.654172932610984E9, 0.0, 2022-06-02 14:28:52.610
70.0, 15180.567226477531, 443.63742394893455, -57020.48474794445, -45412.910927881116, -18157.327849546415, -21858.12853075606, 4596.77035770063, -1172.4384036586766, -0.084, 0.936, 0.35000000000000003, 192.0, 0.0, 0.0, 0.0, 0.0, 0.0, 0.0, 0.0, 0.0, 0.0, 1.654172932610989E9, 0.0, 2022-06-02 14:28:52.610
71.0, 15172.989985107182, 424.5713859285577, -57020.73061713346, -45373.01306402839, -18183.702908003677, -21888.884531126565, 4583.962808127739, -1203.2838110070004, -0.084, 0.936, 0.35000000000000003, 192.0, 0.0, 0.0, 0.0, 0.0, 0.0, 0.0, 0.0, 0.0, 0.0, 1.6541729326109943E9, 0.0, 2022-06-02 14:28:52.610
72.0, 15165.56920594802, 425.77838012914424, -56995.09316624322, -45403.23262253197, -18181.98182368062, -21883.00602233482, 4592.165898342836, -1197.0253225595145, -0.084, 0.936, 0.35000000000000003, 192.0, 0.0, 0.0, 0.0, 0.0, 0.0, 0.0, 0.0, 0.0, 0.0, 1.6541729326109998E9, 0.0, 2022-06-02 14:28:52.610
73.0, 15162.417609979822, 438.45181923530333, -56996.21075346599, -45385.015950800895, -18160.814721681443, -21852.98762953134, 4608.348561328478, -1160.6590343307298, -0.084, 0.936, 0.35000000000000003, 192.0, 0.0, 0.0, 0.0, 0.0, 0.0, 0.0, 0.0, 0.0, 0.0, 1.6541729326110053E9, 0.0, 2022-06-02 14:28:52.611
74.0, 15178.779086921108, 461.13883985744, -57013.578058907755, -45365.81580231379, -18164.055724627462, -21854.61930687658, 4592.635284976397, -1168.0127582565258, -0.084, 0.936, 0.35000000000000003, 192.0, 0.0, 0.0, 0.0, 0.0, 0.0, 0.0, 0.0, 0.0, 0.0, 1.6541729326110103E9, 0.0, 2022-06-02 14:28:52.611
75.0, 15183.852932912461, 476.2262673647723, -57031.99589633893, -45408.2170615455, -18194.163524408763, -21895.634757952066, 4558.079488048493, -1216.4936919800869, -0.084, 0.936, 0.35000000000000003, 192.0, 0.0, 0.0, 0.0, 0.0, 0.0, 0.0, 0.0, 0.0, 0.0, 1.6541729326110156E9, 0.0, 2022-06-02 14:28:52.611
76.0, 15193.553590006066, 499.6061920650235, -57005.01734078138, -45424.08680010877, -18186.07219291594, -21895.634757952066, 4580.073604592515, -1220.4275990042208, -0.084, 0.936, 0.35000000000000003, 192.0, 0.0, 0.0, 0.0, 0.0, 0.0, 0.0, 0.0, 0.0, 0.0, 1.654172932611021E9, 0.0, 2022-06-02 14:28:52.611
77.0, 15202.002549410172, 537.9170820614198, -56963.688965283516, -45410.34047726876, -18153.237480311094, -21855.46867316588, 4613.757683486662, -1197.6958748931736, -0.084, 0.936, 0.35000000000000003, 192.0, 0.0, 0.0, 0.0, 0.0, 0.0, 0.0, 0.0, 0.0, 0.0, 1.6541729326110263E9, 0.0, 2022-06-02 14:28:52.611
78.0, 15197.554552263566, 553.2056752688497, -56976.29534915631, -45311.83633945422, -18145.950811618666, -21836.916725267976, 4601.978314158716, -1166.6940053336627, -0.076, 0.962, 0.352, 192.0, 253.0, 160.0, 30.0, 16.0, 11.0, 0.0, 0.0, 0.0, 0.0, 1.6541729326110315E9, 0.0, 2022-06-02 14:28:52.611
79.0, 15174.331089774501, 541.0016227962521, -57027.41378872559, -45377.90809606411, -18176.34918407788, -21865.012868048296, 4575.960883612738, -1151.6959848041517, -0.076, 0.962, 0.352, 192.0, 0.0, 0.0, 0.0, 0.0, 0.0, 0.0, 0.0, 0.0, 0.0, 1.6541729326110368E9, 0.0, 2022-06-02 14:28:52.611
80.0, 15182.489476500688, 561.6546346729559, -57029.51485270439, -45380.36678795419, -18183.300576603484, -21875.294670497737, 4574.083337078493, -1148.4326301136769, -0.076, 0.962, 0.352, 192.0, 0.0, 0.0, 0.0, 0.0, 0.0, 0.0, 0.0, 0.0, 0.0, 1.6541729326110427E9, 0.0, 2022-06-02 14:28:52.611
81.0, 15195.140563862393, 586.0180361292406, -57010.22529723946, -45358.03739524334, -18178.20437886767, -21874.467655952893, 4569.054194576049, -1171.812554813928, -0.076, 0.962, 0.352, 192.0, 0.0, 0.0, 0.0, 0.0, 0.0, 0.0, 0.0, 0.0, 0.0, 1.6541729326110482E9, 0.0, 2022-06-02 14:28:52.611
82.0, 15191.206656838258, 606.0451991611957, -56932.485930023904, -45327.88489197313, -18154.288012300494, -21845.81271956119, 4612.461282308255, -1154.6464150722522, -0.076, 0.962, 0.352, 192.0, 0.0, 0.0, 0.0, 0.0, 0.0, 0.0, 0.0, 0.0, 0.0, 1.6541729326110537E9, 0.0, 2022-06-02 14:28:52.611
83.0, 15185.842238168985, 615.3435248546034, -56967.17583741854, -45344.84986601471, -18141.614573194336, -21823.349216383605, 4632.063762195559, -1129.7465717490402, -0.076, 0.962, 0.352, 192.0, 0.0, 0.0, 0.0, 0.0, 0.0, 0.0, 0.0, 0.0, 0.0, 1.6541729326110587E9, 0.0, 2022-06-02 14:28:52.611
84.0, 15187.406860280857, 611.163748641461, -57010.158242006095, -45362.843020301225, -18155.293840800983, -21836.469690378868, 4600.346636813479, -1139.2237113980905, -0.076, 0.962, 0.352, 192.0, 0.0, 0.0, 0.0, 0.0, 0.0, 0.0, 0.0, 0.0, 0.0, 1.654172932611064E9, 0.0, 2022-06-02 14:28:52.611
85.0, 15203.500116288677, 626.4076383599804, -56958.54806405879, -45371.42609017206, -18160.12181760333, -21840.291838680725, 4596.010398389149, -1147.6279673132858, -0.076, 0.962, 0.352, 192.0, 0.0, 0.0, 0.0, 0.0, 0.0, 0.0, 0.0, 0.0, 0.0, 1.6541729326110694E9, 0.0, 2022-06-02 14:28:52.611
86.0, 15213.781918738117, 640.4668856223685, -56946.65693600857, -45363.40181391261, -18163.563986249446, -21856.45214992191, 4602.827680448017, -1166.6940053336627, -0.076, 0.962, 0.352, 192.0, 0.0, 0.0, 0.0, 0.0, 0.0, 0.0, 0.0, 0.0, 0.0, 1.6541729326110764E9, 0.0, 2022-06-02 14:28:52.611
87.0, 15212.329055348524, 644.1102199685836, -56929.200223588974, -45364.36293892419, -18150.26469829854, -21838.436643890935, 4631.572023817543, -1148.9690719806042, -0.076, 0.962, 0.352, 192.0, 0.0, 0.0, 0.0, 0.0, 0.0, 0.0, 0.0, 0.0, 0.0, 1.6541729326110835E9, 0.0, 2022-06-02 14:28:52.611
88.0, 15218.855764729473, 648.9605485153853, -56928.10498811067, -45316.86548195666, -18125.946000331165, -21805.08784116362, 4647.173541447347, -1124.203339124124, -0.068, 0.988, 0.35000000000000003, 192.0, 253.0, 224.0, 30.0, 224.0, 10.0, 240.0, 0.0, 0.0, 0.0, 1.6541729326110902E9, 0.0, 2022-06-02 14:28:52.611
89.0, 15224.220183398747, 645.227807191349, -56954.92708145703, -45357.322139420765, -18126.86242185383, -21801.019823672752, 4634.053067452081, -1121.8564059563168, -0.068, 0.988, 0.35000000000000003, 192.0, 0.0, 0.0, 0.0, 0.0, 0.0, 0.0, 0.0, 0.0, 0.0, 1.6541729326111004E9, 0.0, 2022-06-02 14:28:52.611
90.0, 15216.53118330612, 618.7186382673548, -56972.272035154354, -45311.03167665382, -18164.972146150132, -21845.253925949804, 4596.14450885588, -1163.1624297097242, -0.068, 0.988, 0.35000000000000003, 192.0, 0.0, 0.0, 0.0, 0.0, 0.0, 0.0, 0.0, 0.0, 0.0, 1.6541729326111097E9, 0.0, 2022-06-02 14:28:52.611
91.0, 15214.944209449794, 625.8041412596872, -56948.95916568747, -45327.81783673976, -18168.011983396053, -21860.274298223772, 4594.1328518549035, -1184.9553805536486, -0.068, 0.988, 0.35000000000000003, 192.0, 0.0, 0.0, 0.0, 0.0, 0.0, 0.0, 0.0, 0.0, 0.0, 1.6541729326111176E9, 0.0, 2022-06-02 14:28:52.611
92.0, 15218.766357751652, 645.9877665028295, -56913.50929898135, -45327.30374661729, -18132.8303376234, -21827.12666119655, 4624.263003380657, -1155.3840226392774, -0.068, 0.988, 0.35000000000000003, 192.0, 0.0, 0.0, 0.0, 0.0, 0.0, 0.0, 0.0, 0.0, 0.0, 1.6541729326111248E9, 0.0, 2022-06-02 14:28:52.611
93.0, 15213.066662915548, 641.1150862115725, -56924.238136319895, -45331.394115852614, -18115.798308348454, -21804.730213252333, 4637.405829120377, -1133.4122578397105, -0.068, 0.988, 0.35000000000000003, 192.0, 0.0, 0.0, 0.0, 0.0, 0.0, 0.0, 0.0, 0.0, 0.0, 1.6541729326111326E9, 0.0, 2022-06-02 14:28:52.611
94.0, 15223.750796765185, 641.9868042453295, -56941.38192431712, -45327.97429895095, -18118.63697989428, -21799.7457742388, 4636.288241897612, -1135.4015630962328, -0.068, 0.988, 0.35000000000000003, 192.0, 0.0, 0.0, 0.0, 0.0, 0.0, 0.0, 0.0, 0.0, 0.0, 1.65417293261114E9, 0.0, 2022-06-02 14:28:52.611
95.0, 15234.792558526107, 634.4319146194357, -56965.18653216202, -45371.671959361076, -18140.02759933801, -21826.634922818535, 4613.824738720029, -1163.94474076566, -0.068, 0.988, 0.35000000000000003, 192.0, 0.0, 0.0, 0.0, 0.0, 0.0, 0.0, 0.0, 0.0, 0.0, 1.6541729326111503E9, 0.0, 2022-06-02 14:28:52.611
96.0, 15242.526262107644, 626.9887837158184, -56956.044668679795, -45323.74981924889, -18142.799215650466, -21837.631981090544, 4609.332038084512, -1180.7085491071402, -0.068, 0.988, 0.35000000000000003, 192.0, 0.0, 0.0, 0.0, 0.0, 0.0, 0.0, 0.0, 0.0, 0.0, 1.6541729326111577E9, 0.0, 2022-06-02 14:28:52.611
97.0, 15239.709942306274, 615.9246702104414, -56924.46165376445, -45287.18236532001, -18121.386244462283, -21802.293873106704, 4645.474808868744, -1144.1187434338026, -0.076, 0.982, 0.35000000000000003, 192.0, 253.0, 160.0, 30.0, 176.0, 10.0, 240.0, 0.0, 0.0, 0.0, 1.6541729326111653E9, 0.0, 2022-06-02 14:28:52.611
98.0, 15233.227936414236, 589.3707977975366, -56939.95141267197, -45317.06664765676, -18109.33865420087, -21783.40664904197, 4650.436896137821, -1133.0322781839702, -0.076, 0.982, 0.35000000000000003, 192.0, 0.0, 0.0, 0.0, 0.0, 0.0, 0.0, 0.0, 0.0, 0.0, 1.6541729326111732E9, 0.0, 2022-06-02 14:28:52.611
99.0, 15221.292104875101, 550.8587421010426, -56969.7462880309, -45384.680674634066, -18127.756491632044, -21814.229704645837, 4623.279526624623, -1162.4024703982438, -0.076, 0.982, 0.35000000000000003, 192.0, 0.0, 0.0, 0.0, 0.0, 0.0, 0.0, 0.0, 0.0, 0.0, 1.6541729326111808E9, 0.0, 2022-06-02 14:28:52.611
100.0, 15227.416482855855, 543.1920937528722, -56988.74527081791, -45400.34924749724, -18142.68745692819, -21840.247135191818, 4610.091997395993, -1194.0748922914138, -0.076, 0.982, 0.35000000000000003, 192.0, 0.0, 0.0, 0.0, 0.0, 0.0, 0.0, 0.0, 0.0, 0.0, 1.6541729326111884E9, 0.0, 2022-06-02 14:28:52.611
101.0, 15236.468939360255, 529.7139918463221, -56932.12830211262, -45366.419299414076, -18140.988724349587, -21839.21895494687, 4620.954945201272, -1190.208040500646, -0.076, 0.982, 0.35000000000000003, 192.0, 0.0, 0.0, 0.0, 0.0, 0.0, 0.0, 0.0, 0.0, 0.0, 1.654172932611196E9, 0.0, 2022-06-02 14:28:52.611
102.0, 15241.185157440324, 511.4749683707915, -56912.81639490323, -45298.00060963638, -18120.603933406346, -21811.614550544567, 4644.200759434791, -1166.8057640559393, -0.076, 0.982, 0.35000000000000003, 192.0, 0.0, 0.0, 0.0, 0.0, 0.0, 0.0, 0.0, 0.0, 0.0, 1.6541729326112037E9, 0.0, 2022-06-02 14:28:52.611
103.0, 15225.293067132601, 510.35738114802615, -56928.41791253304, -45323.079266915236, -18101.806116319432, -21779.60685248457, 4664.116163744469, -1129.7465717490402, -0.076, 0.982, 0.35000000000000003, 192.0, 0.0, 0.0, 0.0, 0.0, 0.0, 0.0, 0.0, 0.0, 0.0, 1.6541729326112115E9, 0.0, 2022-06-02 14:28:52.611
104.0, 15215.368892594444, 496.1863751633615, -56978.37406139065, -45341.56415957978, -18125.00722706404, -21795.40953581447, 4632.53314882912, -1135.2674526295011, -0.076, 0.982, 0.35000000000000003, 192.0, 0.0, 0.0, 0.0, 0.0, 0.0, 0.0, 0.0, 0.0, 0.0, 1.6541729326112196E9, 0.0, 2022-06-02 14:28:52.611
105.0, 15214.117194904948, 484.60817153551244, -56978.03878522382, -45375.31529370729, -18139.424102237714, -21819.549419826202, 4600.972485658227, -1172.2595897030342, -0.076, 0.982, 0.35000000000000003, 192.0, 0.0, 0.0, 0.0, 0.0, 0.0, 0.0, 0.0, 0.0, 0.0, 1.6541729326112278E9, 0.0, 2022-06-02 14:28:52.611
106.0, 15210.496212303187, 489.6820175268671, -56968.27107289685, -45364.65351160211, -18146.330791274406, -21838.257829935294, 4613.310648597557, -1186.5423544099754, -0.076, 0.982, 0.35000000000000003, 192.0, 0.0, 0.0, 0.0, 0.0, 0.0, 0.0, 0.0, 0.0, 0.0, 1.654172932611236E9, 0.0, 2022-06-02 14:28:52.611
107.0, 15218.63224728492, 497.05809319711847, -56946.90280519758, -45344.49223810342, -18132.226840523104, -21824.55621058419, 4655.622500851453, -1170.650264102252, -0.078, 0.9560000000000001, 0.34800000000000003, 192.0, 253.0, 144.0, 29.0, 224.0, 10.0, 224.0, 0.0, 0.0, 0.0, 1.65417293309036E9, 0.0, 2022-06-02 14:28:53.090
108.0, 15210.116232647448, 486.23984888074983, -56962.72784027193, -45325.60501403869, -18120.380415961794, -21813.469745334358, 4651.375669404944, -1167.23044720059, -0.078, 0.9560000000000001, 0.34800000000000003, 192.0, 0.0, 0.0, 0.0, 0.0, 0.0, 0.0, 0.0, 0.0, 0.0, 1.6541729330904562E9, 0.0, 2022-06-02 14:28:53.090
109.0, 15208.417500068845, 478.2379243657499, -56991.15925921909, -45369.8614680602, -18128.31528524343, -21818.744757025812, 4626.788750504106, -1165.0176244995148, -0.078, 0.9560000000000001, 0.34800000000000003, 192.0, 0.0, 0.0, 0.0, 0.0, 0.0, 0.0, 0.0, 0.0, 0.0, 1.654172933090469E9, 0.0, 2022-06-02 14:28:53.090
110.0, 15205.087090145003, 463.0834416250517, -57018.562497921295, -45389.4639479475, -18157.484311757602, -21849.053722507208, 4588.589619229987, -1178.9651130396264, -0.078, 0.9560000000000001, 0.34800000000000003, 192.0, 0.0, 0.0, 0.0, 0.0, 0.0, 0.0, 0.0, 0.0, 0.0, 1.6541729330905037E9, 0.0, 2022-06-02 14:28:53.090
111.0, 15201.063776143048, 451.4158310193814, -57022.22818401196, -45387.184070013056, -18177.153846878275, -21867.13628377155, 4580.721805181719, -1191.0574067899474, -0.078, 0.9560000000000001, 0.34800000000000003, 192.0, 0.0, 0.0, 0.0, 0.0, 0.0, 0.0, 0.0, 0.0, 0.0, 1.6541729330905993E9, 0.0, 2022-06-02 14:28:53.090
112.0, 15202.717805232742, 475.24279060873874, -56984.07375622675, -45381.59613389923, -18153.17042507773, -21838.593106102122, 4616.10461665447, -1163.1624297097242, -0.078, 0.9560000000000001, 0.34800000000000003, 192.0, 0.0, 0.0, 0.0, 0.0, 0.0, 0.0, 0.0, 0.0, 0.0, 1.6541729330906053E9, 0.0, 2022-06-02 14:28:53.090
113.0, 15225.717750277252, 503.2048229223279, -56951.440209322005, -45385.03830254535, -18116.222991493105, -21799.36579458306, 4639.909224499372, -1125.8573682138167, -0.078, 0.9560000000000001, 0.34800000000000003, 192.0, 0.0, 0.0, 0.0, 0.0, 0.0, 0.0, 0.0, 0.0, 0.0, 1.654172933090611E9, 0.0, 2022-06-02 14:28:53.090
114.0, 15220.018055441149, 480.47309881128064, -56982.553837603795, -45372.52132565038, -18135.06551206893, -21819.683530292932, 4621.3125731125565, -1131.5347113054647, -0.078, 0.9560000000000001, 0.34800000000000003, 192.0, 0.0, 0.0, 0.0, 0.0, 0.0, 0.0, 0.0, 0.0, 0.0, 1.6541729330906165E9, 0.0, 2022-06-02 14:28:53.090
115.0, 15220.621552541443, 470.5712760175796, -57021.73644563394, -45429.80884668933, -18162.40169553777, -21854.529899898756, 4582.5099447381435, -1179.7027206066514, -0.078, 0.9560000000000001, 0.34800000000000003, 192.0, 0.0, 0.0, 0.0, 0.0, 0.0, 0.0, 0.0, 0.0, 0.0, 1.6541729330906231E9, 0.0, 2022-06-02 14:28:53.090
116.0, 15208.372796579933, 484.5187645576912, -57020.171823522076, -45433.36277405772, -18179.74664923509, -21874.110028041607, 4565.768488141119, -1193.0914155353803, -0.078, 0.9560000000000001, 0.34800000000000003, 192.0, 0.0, 0.0, 0.0, 0.0, 0.0, 0.0, 0.0, 0.0, 0.0, 1.6541729330906289E9, 0.0, 2022-06-02 14:28:53.090
117.0, 15204.505944789165, 491.02312219418553, -56955.284709368316, -45315.7478947339, -18166.02267813953, -21863.71646686989, 4600.324285069023, -1162.8942087762605, -0.082, 0.9520000000000001, 0.34600000000000003, 192.0, 253.0, 112.0, 29.0, 192.0, 10.0, 208.0, 0.0, 0.0, 0.0, 1.6541729330906343E9, 0.0, 2022-06-02 14:28:53.090
118.0, 15210.29504660309, 485.4128343359035, -56967.019375207354, -45340.49127584592, -18140.340523760384, -21837.497870623814, 4627.459302837766, -1133.2557956285234, -0.082, 0.9520000000000001, 0.34600000000000003, 192.0, 0.0, 0.0, 0.0, 0.0, 0.0, 0.0, 0.0, 0.0, 0.0, 1.6541729330906396E9, 0.0, 2022-06-02 14:28:53.090
119.0, 15197.353386563467, 467.1514591159176, -57011.40993969559, -45372.431918672555, -18152.075189599418, -21849.768978329776, 4609.533203784609, -1158.1109354628247, -0.082, 0.9520000000000001, 0.34600000000000003, 192.0, 0.0, 0.0, 0.0, 0.0, 0.0, 0.0, 0.0, 0.0, 0.0, 1.654172933090645E9, 0.0, 2022-06-02 14:28:53.090
120.0, 15196.48166852971, 462.23407533575005, -57015.8579368422, -45401.243317275446, -18177.422067811738, -21876.23344376486, 4580.297122037068, -1192.6890841351849, -0.082, 0.9520000000000001, 0.34600000000000003, 192.0, 0.0, 0.0, 0.0, 0.0, 0.0, 0.0, 0.0, 0.0, 0.0, 1.6541729330906503E9, 0.0, 2022-06-02 14:28:53.090
121.0, 15195.520543518132, 467.35262481601535, -56993.863820298175, -45395.65538116162, -18182.250044614084, -21882.916615356997, 4580.610046459442, -1205.4742819636206, -0.082, 0.9520000000000001, 0.34600000000000003, 192.0, 0.0, 0.0, 0.0, 0.0, 0.0, 0.0, 0.0, 0.0, 0.0, 1.6541729330906558E9, 0.0, 2022-06-02 14:28:53.090
122.0, 15190.826677182518, 471.3088835846047, -56975.42363112255, -45373.907133806606, -18168.16844560724, -21865.839882593144, 4601.3524653139675, -1188.3751974553106, -0.082, 0.9520000000000001, 0.34600000000000003, 192.0, 0.0, 0.0, 0.0, 0.0, 0.0, 0.0, 0.0, 0.0, 0.0, 1.6541729330906613E9, 0.0, 2022-06-02 14:28:53.090
123.0, 15192.614816738942, 474.169906874884, -56981.771526547855, -45378.95862805351, -18154.176253578218, -21843.264620693284, 4605.420482804833, -1163.877685532294, -0.082, 0.9520000000000001, 0.34600000000000003, 192.0, 0.0, 0.0, 0.0, 0.0, 0.0, 0.0, 0.0, 0.0, 0.0, 1.6541729330906668E9, 0.0, 2022-06-02 14:28:53.090
124.0, 15196.571075507532, 469.78896496164384, -57007.69955011601, -45377.72928210846, -18163.541634504993, -21847.712617839887, 4587.449680262766, -1169.5997321128527, -0.082, 0.9520000000000001, 0.34600000000000003, 192.0, 0.0, 0.0, 0.0, 0.0, 0.0, 0.0, 0.0, 0.0, 0.0, 1.654172933090672E9, 0.0, 2022-06-02 14:28:53.090
125.0, 15196.034633640604, 468.6490259944232, -57028.59843118172, -45401.444482975545, -18186.921559205242, -21872.94773732993, 4572.630473688898, -1194.2760579915116, -0.082, 0.9520000000000001, 0.34600000000000003, 192.0, 0.0, 0.0, 0.0, 0.0, 0.0, 0.0, 0.0, 0.0, 0.0, 1.6541729330906775E9, 0.0, 2022-06-02 14:28:53.090
126.0, 15200.39322380939, 470.0124824061969, -57028.5090242039, -45407.05477083383, -18189.447306328693, -21887.85635088162, 4578.598389458464, -1200.3557324833553, -0.082, 0.9520000000000001, 0.34600000000000003, 192.0, 0.0, 0.0, 0.0, 0.0, 0.0, 0.0, 0.0, 0.0, 0.0, 1.6541729330906827E9, 0.0, 2022-06-02 14:28:53.090
127.0, 15191.541933005088, 476.5391917871466, -56986.68891032803, -45401.019799830894, -18180.05957365746, -21873.57358617468, 4589.461337263744, -1195.460700447643, -0.076, 0.9580000000000001, 0.34800000000000003, 192.0, 253.0, 160.0, 29.0, 240.0, 10.0, 224.0, 0.0, 0.0, 0.0, 1.6541729330906885E9, 0.0, 2022-06-02 14:28:53.090
128.0, 15199.879133686916, 493.4371105953587, -56973.43432586603, -45380.07621527627, -18155.182082078707, -21843.89046953803, 4595.697473966775, -1185.4694706761206, -0.076, 0.9580000000000001, 0.34800000000000003, 192.0, 0.0, 0.0, 0.0, 0.0, 0.0, 0.0, 0.0, 0.0, 0.0, 1.6541729330907063E9, 0.0, 2022-06-02 14:28:53.090
129.0, 15196.414613296345, 491.2913431276492, -57001.57517213526, -45392.4143782156, -18154.288012300494, -21843.063454993186, 4595.608066988953, -1173.3771769257996, -0.076, 0.9580000000000001, 0.34800000000000003, 192.0, 0.0, 0.0, 0.0, 0.0, 0.0, 0.0, 0.0, 0.0, 0.0, 1.6541729330907116E9, 0.0, 2022-06-02 14:28:53.090
130.0, 15203.701281988775, 499.74030253175533, -57006.51490765988, -45431.75344845694, -18170.090695630395, -21861.101312768616, 4589.662502963842, -1172.684272847685, -0.076, 0.9580000000000001, 0.34800000000000003, 192.0, 0.0, 0.0, 0.0, 0.0, 0.0, 0.0, 0.0, 0.0, 0.0, 1.654172933090717E9, 0.0, 2022-06-02 14:28:53.090
131.0, 15217.022921684138, 507.362247391015, -56984.09610797121, -45393.50961369391, -18175.11983813284, -21868.56679541669, 4607.968581672738, -1169.0632902459254, -0.076, 0.9580000000000001, 0.34800000000000003, 192.0, 0.0, 0.0, 0.0, 0.0, 0.0, 0.0, 0.0, 0.0, 0.0, 1.6541729330907223E9, 0.0, 2022-06-02 14:28:53.090
