%OpenBCI Raw EEG Data
%Number of channels = 8
%Sample Rate = 250 Hz
%Board = OpenBCI_GUI$BoardCytonSerial
Sample Index, EXG Channel 0, EXG Channel 1, EXG Channel 2, EXG Channel 3, EXG Channel 4, EXG Channel 5, EXG Channel 6, EXG Channel 7, Accel Channel 0, Accel Channel 1, Accel Channel 2, Other, Other, Other, Other, Other, Other, Other, Analog Channel 0, Analog Channel 1, Analog Channel 2, Timestamp, Other, Timestamp (Formatted)
0.0, 0.0, 0.0, 0.0, 0.0, 0.0, 0.0, 0.0, 0.0, 0.0, 0.0, 0.0, 192.0, 0.0, 0.0, 0.0, 0.0, 0.0, 0.0, 0.0, 0.0, 0.0, 1.6527906178506048E9, 0.0, 2022-05-17 14:30:17.850
1.0, 76155.47789996599, 62255.665630777556, 27746.40503482879, 7172.965368385955, 74609.00540459222, 19430.259696276153, 17513.642312722484, 58392.41247086674, -0.024, 0.964, 0.28600000000000003, 192.0, 255.0, 64.0, 30.0, 32.0, 8.0, 240.0, 0.0, 0.0, 0.0, 1.65279061832856E9, 0.0, 2022-05-17 14:30:18.328
2.0, 76136.9259520681, 62211.02919710031, 27705.076659330927, 7201.441490822017, 75508.84193287395, 19417.116870536433, 17675.759515256825, 58591.25358954115, -0.024, 0.964, 0.28600000000000003, 192.0, 0.0, 0.0, 0.0, 0.0, 0.0, 0.0, 0.0, 0.0, 0.0, 1.652790618328831E9, 0.0, 2022-05-17 14:30:18.328
3.0, 76177.87434791021, 62239.192395114, 27826.446631723244, 7263.244064240941, 76550.54498321355, 19389.11013473393, 17748.112112058654, 58732.62837322097, -0.024, 0.964, 0.28600000000000003, 192.0, 0.0, 0.0, 0.0, 0.0, 0.0, 0.0, 0.0, 0.0, 0.0, 1.6527906183288372E9, 0.0, 2022-05-17 14:30:18.328
4.0, 76172.55463272985, 62245.048552161286, 27842.718701686706, 7222.988572476933, 76288.69429691962, 19291.969453331167, 17612.97346508187, 58650.48571234771, -0.024, 0.964, 0.28600000000000003, 192.0, 0.0, 0.0, 0.0, 0.0, 0.0, 0.0, 0.0, 0.0, 0.0, 1.6527906183288426E9, 0.0, 2022-05-17 14:30:18.328
5.0, 76158.45068197855, 62243.148653882585, 27802.284395967057, 7233.248023181918, 75106.04114604487, 19342.43969231125, 17492.49756246776, 58518.588068316945, -0.024, 0.964, 0.28600000000000003, 192.0, 0.0, 0.0, 0.0, 0.0, 0.0, 0.0, 0.0, 0.0, 0.0, 1.652790618328848E9, 0.0, 2022-05-17 14:30:18.328
6.0, 76206.59633953529, 62262.52761632534, 27795.89179705284, 7190.936170928022, 74613.8110296501, 19380.83998928547, 17561.22917666783, 58535.664801080806, -0.024, 0.964, 0.28600000000000003, 192.0, 0.0, 0.0, 0.0, 0.0, 0.0, 0.0, 0.0, 0.0, 0.0, 1.6527906183288536E9, 0.0, 2022-05-17 14:30:18.328
7.0, 76222.19785716508, 62245.42853181703, 27744.505136550088, 7120.3493619381625, 75464.54077536354, 19279.09484852491, 17709.041262750776, 58679.81120107308, -0.024, 0.964, 0.28600000000000003, 192.0, 0.0, 0.0, 0.0, 0.0, 0.0, 0.0, 0.0, 0.0, 0.0, 1.6527906183288589E9, 0.0, 2022-05-17 14:30:18.328
8.0, 76171.79467341836, 62202.06614757373, 27768.868538006373, 7194.244229107408, 76490.08351446195, 19215.2359146161, 17729.9848473054, 58780.63992031097, -0.034, 0.968, 0.25, 192.0, 254.0, 240.0, 30.0, 64.0, 7.0, 208.0, 0.0, 0.0, 0.0, 1.652790618328864E9, 0.0, 2022-05-17 14:30:18.328
9.0, 76191.75478121697, 62237.96304916895, 27837.398986506345, 7273.123535290187, 76272.37752346725, 19176.142713563768, 17593.035709027732, 58714.09877706752, -0.034, 0.968, 0.25, 192.0, 0.0, 0.0, 0.0, 0.0, 0.0, 0.0, 0.0, 0.0, 0.0, 1.6527906183288698E9, 0.0, 2022-05-17 14:30:18.328
10.0, 76209.81499073685, 62260.47125583545, 27791.801427817518, 7251.57645363527, 75085.43283765708, 19178.735515920584, 17486.954329842847, 58556.25075772414, -0.034, 0.968, 0.25, 192.0, 0.0, 0.0, 0.0, 0.0, 0.0, 0.0, 0.0, 0.0, 0.0, 1.6527906183288753E9, 0.0, 2022-05-17 14:30:18.328
11.0, 76234.11133695976, 62272.94352924151, 27764.621706559865, 7244.893282043134, 74597.58366317555, 19179.98721361008, 17546.789949749702, 58578.91542660182, -0.034, 0.968, 0.25, 192.0, 0.0, 0.0, 0.0, 0.0, 0.0, 0.0, 0.0, 0.0, 0.0, 1.6527906183288815E9, 0.0, 2022-05-17 14:30:18.328
12.0, 76284.78274163995, 62294.691776596526, 27908.74575480768, 7225.626078322659, 75484.54558665105, 19160.94352733416, 17725.40273969206, 58765.664251525915, -0.034, 0.968, 0.25, 192.0, 0.0, 0.0, 0.0, 0.0, 0.0, 0.0, 0.0, 0.0, 0.0, 1.6527906183288867E9, 0.0, 2022-05-17 14:30:18.328
13.0, 76200.69547899909, 62210.62686570011, 27779.284450922543, 7195.8982581971, 76441.06613887145, 19001.977920768015, 17705.353224915652, 58796.24143794077, -0.034, 0.968, 0.25, 192.0, 0.0, 0.0, 0.0, 0.0, 0.0, 0.0, 0.0, 0.0, 0.0, 1.6527906183288922E9, 0.0, 2022-05-17 14:30:18.328
14.0, 76204.00353717846, 62202.62494118512, 27713.793839668495, 7201.016807677366, 76187.28443232589, 18904.859591109704, 17542.610173536563, 58677.33015743854, -0.034, 0.968, 0.25, 192.0, 0.0, 0.0, 0.0, 0.0, 0.0, 0.0, 0.0, 0.0, 0.0, 1.6527906183288977E9, 0.0, 2022-05-17 14:30:18.328
15.0, 76263.19095649612, 62283.94058751352, 27804.3631082014, 7249.162465234097, 75056.30851463182, 19027.548316424887, 17459.484035907273, 58563.31390897202, -0.034, 0.968, 0.25, 192.0, 0.0, 0.0, 0.0, 0.0, 0.0, 0.0, 0.0, 0.0, 0.0, 1.652790618328903E9, 0.0, 2022-05-17 14:30:18.328
16.0, 76289.70012542012, 62302.09020401123, 27761.648924547306, 7287.20513429703, 74557.28346792264, 19072.609433246784, 17533.110682143055, 58577.194342278766, -0.034, 0.968, 0.25, 192.0, 0.0, 0.0, 0.0, 0.0, 0.0, 0.0, 0.0, 0.0, 0.0, 1.6527906183289084E9, 0.0, 2022-05-17 14:30:18.328
17.0, 76265.98492455303, 62242.50045329338, 27764.420540859766, 7243.686287842547, 75403.78873393402, 19004.14603998018, 17669.366916342606, 58737.72457095678, -0.034, 0.968, 0.25, 192.0, 0.0, 0.0, 0.0, 0.0, 0.0, 0.0, 0.0, 0.0, 0.0, 1.652790618328914E9, 0.0, 2022-05-17 14:30:18.328
18.0, 76245.98011326553, 62223.70263620647, 27789.87917779436, 7142.634051160104, 76406.286824499, 18901.037442807847, 17695.116125955123, 58817.877926573514, -0.062, 0.976, 0.22, 192.0, 254.0, 16.0, 30.0, 128.0, 6.0, 224.0, 0.0, 0.0, 0.0, 1.6527906183289194E9, 0.0, 2022-05-17 14:30:18.328
19.0, 76269.62825889925, 62233.917383422544, 27717.43717401471, 7179.469726022449, 76194.36993531823, 18859.910233010083, 17564.42547612494, 58745.27946058267, -0.062, 0.976, 0.22, 192.0, 0.0, 0.0, 0.0, 0.0, 0.0, 0.0, 0.0, 0.0, 0.0, 1.652790618328925E9, 0.0, 2022-05-17 14:30:18.328
20.0, 76326.62520726028, 62289.59557886072, 27851.681751213284, 7300.996160625954, 75097.34631745175, 18992.18785669659, 17480.137047783977, 58681.01819527367, -0.062, 0.976, 0.22, 192.0, 0.0, 0.0, 0.0, 0.0, 0.0, 0.0, 0.0, 0.0, 0.0, 1.6527906183289301E9, 0.0, 2022-05-17 14:30:18.328
21.0, 76347.03234994797, 62309.04159653683, 27881.968364950226, 7338.50238782196, 74620.27068379769, 19069.48018902304, 17568.292327915708, 58734.4612162663, -0.062, 0.976, 0.22, 192.0, 0.0, 0.0, 0.0, 0.0, 0.0, 0.0, 0.0, 0.0, 0.0, 1.6527906183289356E9, 0.0, 2022-05-17 14:30:18.328
22.0, 76284.17924453966, 62232.75509271087, 27742.06879640446, 7227.391866134628, 75421.87129519836, 18987.203417683057, 17679.64871879205, 58875.70188947939, -0.062, 0.976, 0.22, 192.0, 0.0, 0.0, 0.0, 0.0, 0.0, 0.0, 0.0, 0.0, 0.0, 1.6527906183289473E9, 0.0, 2022-05-17 14:30:18.328
23.0, 76262.34159020682, 62208.70461567696, 27651.521879616008, 7161.387164758106, 76394.03806853748, 18903.496134697933, 17674.50781756733, 58940.96898328888, -0.062, 0.976, 0.22, 192.0, 0.0, 0.0, 0.0, 0.0, 0.0, 0.0, 0.0, 0.0, 0.0, 1.6527906183289526E9, 0.0, 2022-05-17 14:30:18.328
24.0, 76299.22196855808, 62262.52761632534, 27835.633198694373, 7220.686342798036, 76206.75280174646, 18918.941190116548, 17591.359328193586, 58872.058555133175, -0.062, 0.976, 0.22, 192.0, 0.0, 0.0, 0.0, 0.0, 0.0, 0.0, 0.0, 0.0, 0.0, 1.652790618328958E9, 0.0, 2022-05-17 14:30:18.328
25.0, 76297.03149760145, 62272.92117749705, 27862.052960640547, 7307.746387451457, 75098.1733319966, 19001.79910681237, 17496.40911774744, 58778.85178075454, -0.062, 0.976, 0.22, 192.0, 0.0, 0.0, 0.0, 0.0, 0.0, 0.0, 0.0, 0.0, 0.0, 1.6527906183289633E9, 0.0, 2022-05-17 14:30:18.328
26.0, 76309.10143960732, 62278.68792756653, 27783.575985857962, 7281.259570271918, 74572.05797100758, 19018.27234247593, 17523.901763427468, 58795.7273478183, -0.062, 0.976, 0.22, 192.0, 0.0, 0.0, 0.0, 0.0, 0.0, 0.0, 0.0, 0.0, 0.0, 1.6527906183289688E9, 0.0, 2022-05-17 14:30:18.328
27.0, 76306.68745120615, 62251.61996503115, 27843.679826698284, 7248.67072685608, 75393.75280067358, 18984.320042648324, 17675.290128623263, 58963.32072774419, -0.07200000000000001, 1.002, 0.20600000000000002, 192.0, 253.0, 192.0, 31.0, 80.0, 6.0, 112.0, 0.0, 0.0, 0.0, 1.652790618328974E9, 0.0, 2022-05-17 14:30:18.328
28.0, 76292.06941033238, 62237.51601427985, 27794.12600924087, 7179.84970567819, 76396.27324298302, 18850.522500338855, 17703.900361526055, 59045.97747873992, -0.07200000000000001, 1.002, 0.20600000000000002, 192.0, 0.0, 0.0, 0.0, 0.0, 0.0, 0.0, 0.0, 0.0, 0.0, 1.6527906183289795E9, 0.0, 2022-05-17 14:30:18.328
29.0, 76274.16566302367, 62243.014543415855, 27724.612083984863, 7289.239143042463, 76196.1804266191, 18844.82280550275, 17567.889996515514, 58953.30714622822, -0.07200000000000001, 1.002, 0.20600000000000002, 192.0, 0.0, 0.0, 0.0, 0.0, 0.0, 0.0, 0.0, 0.0, 0.0, 1.652790618328985E9, 0.0, 2022-05-17 14:30:18.328
30.0, 76304.25111106051, 62292.14367772862, 27830.581704447475, 7378.422603419138, 75089.18793072557, 19020.418109943643, 17484.11565829702, 58856.03235435872, -0.07200000000000001, 1.002, 0.20600000000000002, 192.0, 0.0, 0.0, 0.0, 0.0, 0.0, 0.0, 0.0, 0.0, 0.0, 1.6527906183289905E9, 0.0, 2022-05-17 14:30:18.328
31.0, 76344.14897491325, 62286.66750033707, 27787.26402369309, 7290.110861076219, 74551.00262773069, 19053.833967904327, 17517.37505404652, 58866.962357397366, -0.07200000000000001, 1.002, 0.20600000000000002, 192.0, 0.0, 0.0, 0.0, 0.0, 0.0, 0.0, 0.0, 0.0, 0.0, 1.6527906183289957E9, 0.0, 2022-05-17 14:30:18.328
32.0, 76362.47740536659, 62278.7996862888, 27892.13840867739, 7241.406409908106, 75356.31362871095, 19023.56970591184, 17663.91309069551, 59033.86283324514, -0.07200000000000001, 1.002, 0.20600000000000002, 192.0, 0.0, 0.0, 0.0, 0.0, 0.0, 0.0, 0.0, 0.0, 0.0, 1.6527906183290012E9, 0.0, 2022-05-17 14:30:18.329
33.0, 76382.79514107647, 62296.43521266404, 27950.811737872573, 7360.295338665884, 76402.37526921932, 18970.61842329722, 17731.303600228264, 59155.32221261528, -0.07200000000000001, 1.002, 0.20600000000000002, 192.0, 0.0, 0.0, 0.0, 0.0, 0.0, 0.0, 0.0, 0.0, 0.0, 1.6527906183290064E9, 0.0, 2022-05-17 14:30:18.329
34.0, 76337.55521029893, 62273.27880540834, 27858.454329783242, 7328.980544683999, 76225.43886011111, 18937.828414181284, 17585.950206035403, 59073.00073778639, -0.07200000000000001, 1.002, 0.20600000000000002, 192.0, 0.0, 0.0, 0.0, 0.0, 0.0, 0.0, 0.0, 0.0, 0.0, 1.652790618329012E9, 0.0, 2022-05-17 14:30:18.329
35.0, 76322.17721011367, 62279.80551478929, 27822.065689810002, 7332.7803412414005, 75100.29674771985, 18990.779696795904, 17466.904815066435, 58949.99908804883, -0.07200000000000001, 1.002, 0.20600000000000002, 192.0, 0.0, 0.0, 0.0, 0.0, 0.0, 0.0, 0.0, 0.0, 0.0, 1.6527906183290172E9, 0.0, 2022-05-17 14:30:18.329
36.0, 76343.63488479076, 62278.240892677415, 27765.091093193423, 7306.204117084041, 74551.18144168633, 19025.53665942391, 17514.9834173898, 58954.3129747287, -0.07200000000000001, 1.002, 0.20600000000000002, 192.0, 0.0, 0.0, 0.0, 0.0, 0.0, 0.0, 0.0, 0.0, 0.0, 1.6527906183290226E9, 0.0, 2022-05-17 14:30:18.329
37.0, 76361.31511465492, 62255.6432790331, 27747.63438077383, 7209.9798572039435, 75330.18443944269, 18979.67087980162, 17655.330020824673, 59102.28152302284, -0.066, 1.014, 0.202, 192.0, 253.0, 240.0, 31.0, 176.0, 6.0, 80.0, 0.0, 0.0, 0.0, 1.652790618329028E9, 0.0, 2022-05-17 14:30:18.329
38.0, 76362.81268153343, 62261.20886340248, 27815.427221706777, 7272.67650040108, 76355.90599249673, 18937.202565336534, 17695.384346888586, 59213.727320877, -0.066, 1.014, 0.202, 192.0, 0.0, 0.0, 0.0, 0.0, 0.0, 0.0, 0.0, 0.0, 0.0, 1.6527906183290331E9, 0.0, 2022-05-17 14:30:18.329
39.0, 76362.81268153343, 62271.244796662904, 27818.623521163885, 7272.207113767518, 76229.37276713524, 18929.781786177373, 17582.19511296691, 59169.940253489054, -0.066, 1.014, 0.202, 192.0, 0.0, 0.0, 0.0, 0.0, 0.0, 0.0, 0.0, 0.0, 0.0, 1.6527906183290389E9, 0.0, 2022-05-17 14:30:18.329
40.0, 76380.80583581995, 62300.77145108837, 27801.92676805577, 7293.821250655801, 75124.36957649823, 18986.756382793952, 17463.999088287244, 59057.42157190104, -0.066, 1.014, 0.202, 192.0, 0.0, 0.0, 0.0, 0.0, 0.0, 0.0, 0.0, 0.0, 0.0, 1.652790618329044E9, 0.0, 2022-05-17 14:30:18.329
41.0, 76394.90978657124, 62309.086300025745, 27825.105527055923, 7244.937985532044, 74565.7547790712, 18980.497894346463, 17520.169022103433, 59055.1863974555, -0.066, 1.014, 0.202, 192.0, 0.0, 0.0, 0.0, 0.0, 0.0, 0.0, 0.0, 0.0, 0.0, 1.6527906183290496E9, 0.0, 2022-05-17 14:30:18.329
42.0, 76424.92817937472, 62306.24762847992, 27892.250167399667, 7326.141873138175, 75356.87242232233, 19058.460779006575, 17680.431029847983, 59226.44546347207, -0.066, 1.014, 0.202, 192.0, 0.0, 0.0, 0.0, 0.0, 0.0, 0.0, 0.0, 0.0, 0.0, 1.6527906183290553E9, 0.0, 2022-05-17 14:30:18.329
43.0, 76384.24800446606, 62259.77835175733, 27820.858695609415, 7260.092468272743, 76345.84770749185, 18959.621365025207, 17683.40381186054, 59298.708653296075, -0.066, 1.014, 0.202, 192.0, 0.0, 0.0, 0.0, 0.0, 0.0, 0.0, 0.0, 0.0, 0.0, 1.6527906183290627E9, 0.0, 2022-05-17 14:30:18.329
44.0, 76393.70279237066, 62287.02512824835, 27852.79933843605, 7317.201175356052, 76217.79456350738, 18942.343466561255, 17576.696583830904, 59235.4308647431, -0.066, 1.014, 0.202, 192.0, 0.0, 0.0, 0.0, 0.0, 0.0, 0.0, 0.0, 0.0, 0.0, 1.6527906183290682E9, 0.0, 2022-05-17 14:30:18.329
45.0, 76432.90775214527, 62326.74417814543, 27921.463897402755, 7384.122298255241, 75148.2412395765, 19021.736862866506, 17493.458687479342, 59143.83341596525, -0.066, 1.014, 0.202, 192.0, 0.0, 0.0, 0.0, 0.0, 0.0, 0.0, 0.0, 0.0, 0.0, 1.6527906183290737E9, 0.0, 2022-05-17 14:30:18.329
46.0, 76445.84941218489, 62319.18928851954, 27879.733190504696, 7306.628800228692, 74599.21534052078, 19029.448214703585, 17532.37307457603, 59156.50685507141, -0.066, 1.014, 0.202, 192.0, 0.0, 0.0, 0.0, 0.0, 0.0, 0.0, 0.0, 0.0, 0.0, 1.652790618329079E9, 0.0, 2022-05-17 14:30:18.329
47.0, 76446.20704009617, 62290.46729689447, 27817.282416496568, 7219.345238130718, 75352.37972168681, 18971.46778958652, 17649.317401566197, 59298.30632189588, -0.058, 1.016, 0.20600000000000002, 192.0, 254.0, 48.0, 31.0, 192.0, 6.0, 112.0, 0.0, 0.0, 0.0, 1.6527906183290844E9, 0.0, 2022-05-17 14:30:18.329
48.0, 76440.14971734879, 62278.57616884425, 27814.2649309951, 7294.245933800452, 76355.41425411872, 18938.431911281576, 17687.471829351405, 59384.3158345599, -0.058, 1.016, 0.20600000000000002, 192.0, 0.0, 0.0, 0.0, 0.0, 0.0, 0.0, 0.0, 0.0, 0.0, 1.6527906183290896E9, 0.0, 2022-05-17 14:30:18.329
49.0, 76433.57830447893, 62292.52365738436, 27862.298829829557, 7304.237163571974, 76230.37859563573, 18898.355233473212, 17597.662520129983, 59313.818432547865, -0.058, 1.016, 0.20600000000000002, 192.0, 0.0, 0.0, 0.0, 0.0, 0.0, 0.0, 0.0, 0.0, 0.0, 1.652790618329095E9, 0.0, 2022-05-17 14:30:18.329
50.0, 76435.25468531308, 62301.19613423302, 27832.302788770532, 7327.706495250046, 75144.79907093037, 18957.05091441285, 17485.345004242063, 59197.25408521343, -0.058, 1.016, 0.20600000000000002, 192.0, 0.0, 0.0, 0.0, 0.0, 0.0, 0.0, 0.0, 0.0, 0.0, 1.652790618329101E9, 0.0, 2022-05-17 14:30:18.329
51.0, 76465.85422347239, 62316.484727440446, 27899.223911669724, 7342.905681479655, 74609.69830867033, 19053.699857437594, 17566.146560448, 59227.78656813939, -0.058, 1.016, 0.20600000000000002, 192.0, 0.0, 0.0, 0.0, 0.0, 0.0, 0.0, 0.0, 0.0, 0.0, 1.6527906183291063E9, 0.0, 2022-05-17 14:30:18.329
52.0, 76456.80176696798, 62273.211750174974, 27877.050981170058, 7273.749384134935, 75374.79852137549, 19014.04786277388, 17708.080137739198, 59392.09424163035, -0.058, 1.016, 0.20600000000000002, 192.0, 0.0, 0.0, 0.0, 0.0, 0.0, 0.0, 0.0, 0.0, 0.0, 1.652790618329112E9, 0.0, 2022-05-17 14:30:18.329
53.0, 76419.07202232743, 62235.57141251224, 27760.129005924347, 7247.307270444307, 76356.39773087476, 18863.017125489372, 17693.93148349899, 59457.3836871843, -0.058, 1.016, 0.20600000000000002, 192.0, 0.0, 0.0, 0.0, 0.0, 0.0, 0.0, 0.0, 0.0, 0.0, 1.6527906183291173E9, 0.0, 2022-05-17 14:30:18.329
54.0, 76407.06913555494, 62236.33137182372, 27775.372895642868, 7265.702756131024, 76243.23084869752, 18850.366038127668, 17574.595519852104, 59387.221561339094, -0.058, 1.016, 0.20600000000000002, 192.0, 0.0, 0.0, 0.0, 0.0, 0.0, 0.0, 0.0, 0.0, 0.0, 1.6527906183291228E9, 0.0, 2022-05-17 14:30:18.329
55.0, 76426.06811834194, 62285.795782303314, 27846.384387777376, 7265.501590430927, 75182.81938824886, 18901.082146296758, 17476.13608552648, 59283.39770834419, -0.058, 1.016, 0.20600000000000002, 192.0, 0.0, 0.0, 0.0, 0.0, 0.0, 0.0, 0.0, 0.0, 0.0, 1.652790618329128E9, 0.0, 2022-05-17 14:30:18.329
56.0, 76462.16618563727, 62320.3068757423, 27841.332893530478, 7302.11374784872, 74638.0179688952, 18957.162673135124, 17531.099025142077, 59308.52106911196, -0.058, 1.016, 0.20600000000000002, 192.0, 0.0, 0.0, 0.0, 0.0, 0.0, 0.0, 0.0, 0.0, 0.0, 1.6527906183291335E9, 0.0, 2022-05-17 14:30:18.329
57.0, 76487.78128478305, 62314.07073903928, 27920.323958435532, 7335.194329642574, 75395.42918150773, 18981.056687957847, 17696.144306200065, 59476.7402978826, -0.044, 1.022, 0.20400000000000001, 192.0, 254.0, 160.0, 31.0, 240.0, 6.0, 96.0, 0.0, 0.0, 0.0, 1.6527906183291388E9, 0.0, 2022-05-17 14:30:18.329
58.0, 76466.70358976169, 62279.76081130038, 27830.60405619193, 7292.122518077197, 76386.03614402248, 18886.017070533882, 17714.159812231042, 59546.053057438505, -0.044, 1.022, 0.20400000000000001, 192.0, 0.0, 0.0, 0.0, 0.0, 0.0, 0.0, 0.0, 0.0, 0.0, 1.6527906183291445E9, 0.0, 2022-05-17 14:30:18.329
59.0, 76453.09137738841, 62289.97555851645, 27857.85083268295, 7283.338282506262, 76281.2064625271, 18840.218346144957, 17593.974482294856, 59467.889007078295, -0.044, 1.022, 0.20400000000000001, 192.0, 0.0, 0.0, 0.0, 0.0, 0.0, 0.0, 0.0, 0.0, 0.0, 1.6527906183291495E9, 0.0, 2022-05-17 14:30:18.329
60.0, 76493.23511043013, 62338.925878873575, 27931.879810318926, 7299.655055958636, 75220.01269102248, 18881.457314665, 17501.527667227707, 59355.30327025691, -0.044, 1.022, 0.20400000000000001, 192.0, 0.0, 0.0, 0.0, 0.0, 0.0, 0.0, 0.0, 0.0, 0.0, 1.652790618329156E9, 0.0, 2022-05-17 14:30:18.329
61.0, 76522.44884043322, 62358.05897212732, 27924.3919759264, 7361.681146822113, 74679.74867579326, 18967.913862218127, 17567.308851159676, 59392.407166052726, -0.044, 1.022, 0.20400000000000001, 192.0, 0.0, 0.0, 0.0, 0.0, 0.0, 0.0, 0.0, 0.0, 0.0, 1.6527906183291614E9, 0.0, 2022-05-17 14:30:18.329
62.0, 76491.3575638959, 62302.6042941337, 27865.2269083532, 7340.044658189376, 75395.87621639683, 18921.735158173462, 17686.130724684088, 59529.87039445286, -0.044, 1.022, 0.20400000000000001, 192.0, 0.0, 0.0, 0.0, 0.0, 0.0, 0.0, 0.0, 0.0, 0.0, 1.652790618329167E9, 0.0, 2022-05-17 14:30:18.329
63.0, 76471.21864214166, 62267.355593127686, 27818.064727552504, 7265.590997408748, 76388.3830771903, 18806.221342828434, 17693.998538732354, 59602.13358427687, -0.044, 1.022, 0.20400000000000001, 192.0, 0.0, 0.0, 0.0, 0.0, 0.0, 0.0, 0.0, 0.0, 0.0, 1.6527906183291724E9, 0.0, 2022-05-17 14:30:18.329
64.0, 76459.12634839134, 62267.40029661659, 27811.158038515812, 7261.545331662337, 76301.16657032569, 18756.891042815572, 17567.554720348682, 59530.11626364187, -0.044, 1.022, 0.20400000000000001, 192.0, 0.0, 0.0, 0.0, 0.0, 0.0, 0.0, 0.0, 0.0, 0.0, 1.6527906183291798E9, 0.0, 2022-05-17 14:30:18.329
65.0, 76487.5577673385, 62313.24372449443, 27854.31925705901, 7323.303201592351, 75272.9639736371, 18841.71591302346, 17469.184693000876, 59442.296259676965, -0.044, 1.022, 0.20400000000000001, 192.0, 0.0, 0.0, 0.0, 0.0, 0.0, 0.0, 0.0, 0.0, 0.0, 1.6527906183291852E9, 0.0, 2022-05-17 14:30:18.329
66.0, 76525.53338116806, 62339.551727718324, 27890.350269120965, 7336.580137798803, 74716.24907448878, 18937.381379292176, 17539.212708379353, 59465.98910879959, -0.044, 1.022, 0.20400000000000001, 192.0, 0.0, 0.0, 0.0, 0.0, 0.0, 0.0, 0.0, 0.0, 0.0, 1.6527906183291905E9, 0.0, 2022-05-17 14:30:18.329
67.0, 76527.8132591025, 62303.341901700725, 27829.620579435898, 7279.8290586267785, 75428.95679819069, 18880.6079483757, 17675.11131466762, 59613.577677437985, -0.042, 1.002, 0.19, 192.0, 254.0, 176.0, 31.0, 80.0, 5.0, 240.0, 0.0, 0.0, 0.0, 1.652790618329196E9, 0.0, 2022-05-17 14:30:18.329
68.0, 76513.99988102911, 62266.66268904957, 27869.607850266442, 7220.015790464377, 76413.19351353569, 18765.697630130962, 17696.16665794452, 59680.11882068143, -0.042, 1.002, 0.19, 192.0, 0.0, 0.0, 0.0, 0.0, 0.0, 0.0, 0.0, 0.0, 0.0, 1.6527906183292012E9, 0.0, 2022-05-17 14:30:18.329
69.0, 76511.22826471666, 62284.65584333609, 27888.025687697613, 7218.339409630229, 76323.49596303653, 18728.727844801884, 17593.750964850304, 59593.84108708395, -0.042, 1.002, 0.19, 192.0, 0.0, 0.0, 0.0, 0.0, 0.0, 0.0, 0.0, 0.0, 0.0, 1.6527906183292065E9, 0.0, 2022-05-17 14:30:18.329
70.0, 76524.95223581222, 62319.345750730725, 27883.778856251105, 7380.255446464473, 75294.08637214737, 18846.610945059176, 17501.61707420553, 59497.23684754811, -0.042, 1.002, 0.19, 192.0, 0.0, 0.0, 0.0, 0.0, 0.0, 0.0, 0.0, 0.0, 0.0, 1.652790618329212E9, 0.0, 2022-05-17 14:30:18.329
71.0, 76567.59936423294, 62341.71984693049, 27928.459993417266, 7385.239885478007, 74742.24415329029, 18920.50581222842, 17554.076618442134, 59532.44084506522, -0.042, 1.002, 0.19, 192.0, 0.0, 0.0, 0.0, 0.0, 0.0, 0.0, 0.0, 0.0, 0.0, 1.6527906183292172E9, 0.0, 2022-05-17 14:30:18.329
72.0, 76582.64208825136, 62315.791823362335, 27926.582446883018, 7283.181820295074, 75437.98690295064, 18849.091988693715, 17686.22013166191, 59669.457038576256, -0.042, 1.002, 0.19, 192.0, 0.0, 0.0, 0.0, 0.0, 0.0, 0.0, 0.0, 0.0, 0.0, 1.6527906183292224E9, 0.0, 2022-05-17 14:30:18.329
73.0, 76541.58193368698, 62268.33906988372, 27873.094722401467, 7243.306308186807, 76396.13913251628, 18739.881365285084, 17707.36488191663, 59711.72418734124, -0.042, 1.002, 0.19, 192.0, 0.0, 0.0, 0.0, 0.0, 0.0, 0.0, 0.0, 0.0, 0.0, 1.6527906183292284E9, 0.0, 2022-05-17 14:30:18.329
74.0, 76534.02704406108, 62278.91144501108, 27854.52042275911, 7271.514209689404, 76325.14999212623, 18723.18461217697, 17590.018223526266, 59639.170424839314, -0.042, 1.002, 0.19, 192.0, 0.0, 0.0, 0.0, 0.0, 0.0, 0.0, 0.0, 0.0, 0.0, 1.652790618329234E9, 0.0, 2022-05-17 14:30:18.329
75.0, 76583.5808615185, 62336.73540791696, 27909.416307141342, 7342.235129145995, 75304.65874727473, 18805.282569561314, 17500.208914304843, 59543.79553124852, -0.042, 1.002, 0.19, 192.0, 0.0, 0.0, 0.0, 0.0, 0.0, 0.0, 0.0, 0.0, 0.0, 1.6527906183292391E9, 0.0, 2022-05-17 14:30:18.329
76.0, 76613.50984734415, 62340.49050098545, 27912.254978687168, 7339.329402366806, 74737.10325206557, 18872.628375605153, 17541.134958402512, 59569.611796094396, -0.042, 1.002, 0.19, 192.0, 0.0, 0.0, 0.0, 0.0, 0.0, 0.0, 0.0, 0.0, 0.0, 1.6527906183292449E9, 0.0, 2022-05-17 14:30:18.329
77.0, 76612.0346322101, 62296.09993649721, 27816.41069846281, 7196.6582175085805, 75386.42142849225, 18764.982374308394, 17650.457340533416, 59680.16352417035, -0.048, 1.006, 0.182, 192.0, 254.0, 128.0, 31.0, 112.0, 5.0, 176.0, 0.0, 0.0, 0.0, 1.65279061832925E9, 0.0, 2022-05-17 14:30:18.329
78.0, 76625.26686492765, 62280.073735722755, 27883.264766128632, 7212.885583983134, 76380.89524279776, 18727.02911222328, 17705.777908060303, 59760.674507698364, -0.048, 1.006, 0.182, 192.0, 0.0, 0.0, 0.0, 0.0, 0.0, 0.0, 0.0, 0.0, 0.0, 1.6527906183292553E9, 0.0, 2022-05-17 14:30:18.329
79.0, 76615.8344287675, 62285.68402358104, 27904.543626850085, 7302.225506570996, 76347.769957515, 18778.23695877039, 17617.086186061642, 59711.76889083015, -0.048, 1.006, 0.182, 192.0, 0.0, 0.0, 0.0, 0.0, 0.0, 0.0, 0.0, 0.0, 0.0, 1.6527906183292608E9, 0.0, 2022-05-17 14:30:18.329
80.0, 76629.80426905207, 62318.317570485786, 27888.696240031273, 7317.223527100507, 75331.25732317654, 18818.470098789945, 17507.69674869737, 59609.46495645821, -0.048, 1.006, 0.182, 192.0, 0.0, 0.0, 0.0, 0.0, 0.0, 0.0, 0.0, 0.0, 0.0, 1.6527906183292663E9, 0.0, 2022-05-17 14:30:18.329
81.0, 76658.95094382178, 62330.14164330264, 27907.024670484625, 7316.597678255758, 74745.6416184475, 18881.63612862064, 17551.059132940667, 59620.46201473022, -0.048, 1.006, 0.182, 192.0, 0.0, 0.0, 0.0, 0.0, 0.0, 0.0, 0.0, 0.0, 0.0, 1.6527906183292718E9, 0.0, 2022-05-17 14:30:18.329
82.0, 76671.26675501667, 62312.41670994958, 27856.822652438004, 7248.24604371143, 75387.87429188185, 18836.954991454484, 17667.243500619352, 59734.098283541, -0.048, 1.006, 0.182, 192.0, 0.0, 0.0, 0.0, 0.0, 0.0, 0.0, 0.0, 0.0, 0.0, 1.6527906183292773E9, 0.0, 2022-05-17 14:30:18.329
83.0, 76660.02382755565, 62284.32056716926, 27881.521330061118, 7267.356785220717, 76379.7329520861, 18750.85607181264, 17700.59230334667, 59816.17388918089, -0.048, 1.006, 0.182, 192.0, 0.0, 0.0, 0.0, 0.0, 0.0, 0.0, 0.0, 0.0, 0.0, 1.6527906183292823E9, 0.0, 2022-05-17 14:30:18.329
84.0, 76644.44466167029, 62276.02806997634, 27846.831422666484, 7218.339409630229, 76342.85257373484, 18708.94655095894, 17589.928816548447, 59752.67258318336, -0.048, 1.006, 0.182, 192.0, 0.0, 0.0, 0.0, 0.0, 0.0, 0.0, 0.0, 0.0, 0.0, 1.6527906183292878E9, 0.0, 2022-05-17 14:30:18.329
85.0, 76674.70892366278, 62330.275753769376, 27875.08402765799, 7228.241232423929, 75321.46725910512, 18779.555711693254, 17481.70166989585, 59641.51735800712, -0.048, 1.006, 0.182, 192.0, 0.0, 0.0, 0.0, 0.0, 0.0, 0.0, 0.0, 0.0, 0.0, 1.6527906183292933E9, 0.0, 2022-05-17 14:30:18.329
86.0, 76704.57085425507, 62347.12896908868, 27901.459086115254, 7357.993108986987, 74733.2364002748, 18878.12690474116, 17534.18356587691, 59662.2821286061, -0.048, 1.006, 0.182, 192.0, 0.0, 0.0, 0.0, 0.0, 0.0, 0.0, 0.0, 0.0, 0.0, 1.6527906183293004E9, 0.0, 2022-05-17 14:30:18.329
87.0, 76697.12772335146, 62309.82390759276, 27859.571917006007, 7280.924294105089, 75403.14053334482, 18845.739227025417, 17667.757590741825, 59816.08448220307, -0.056, 1.024, 0.184, 192.0, 254.0, 64.0, 32.0, 0.0, 5.0, 192.0, 0.0, 0.0, 0.0, 1.6527906183293056E9, 0.0, 2022-05-17 14:30:18.329
88.0, 76676.22884228574, 62282.04068923482, 27897.972213980225, 7211.030389193344, 76395.64739413827, 18721.575286576186, 17709.577704617706, 59893.488573251794, -0.056, 1.024, 0.184, 192.0, 0.0, 0.0, 0.0, 0.0, 0.0, 0.0, 0.0, 0.0, 0.0, 1.652790618329311E9, 0.0, 2022-05-17 14:30:18.329
89.0, 76651.6419233849, 62277.615043832666, 27843.478660998186, 7216.372456118162, 76343.05373943494, 18710.04178643725, 17593.23687472783, 59802.762842507705, -0.056, 1.024, 0.184, 192.0, 0.0, 0.0, 0.0, 0.0, 0.0, 0.0, 0.0, 0.0, 0.0, 1.6527906183293164E9, 0.0, 2022-05-17 14:30:18.329
90.0, 76684.11900807846, 62345.38553302116, 27897.771048280127, 7288.836811642267, 75350.74804434157, 18792.1844473105, 17508.680225453405, 59708.460832650766, -0.056, 1.024, 0.184, 192.0, 0.0, 0.0, 0.0, 0.0, 0.0, 0.0, 0.0, 0.0, 0.0, 1.6527906183293216E9, 0.0, 2022-05-17 14:30:18.329
91.0, 76692.83618841603, 62354.48269301447, 27908.231664685212, 7336.915413965633, 74779.14688338601, 18876.562282629286, 17556.0435719542, 59746.481149969244, -0.056, 1.024, 0.184, 192.0, 0.0, 0.0, 0.0, 0.0, 0.0, 0.0, 0.0, 0.0, 0.0, 1.652790618329327E9, 0.0, 2022-05-17 14:30:18.329
92.0, 76688.96933662526, 62323.39141647714, 27875.88869045838, 7275.358709735717, 75405.71098395718, 18837.312619365766, 17669.67984076498, 59866.75588688325, -0.056, 1.024, 0.184, 192.0, 0.0, 0.0, 0.0, 0.0, 0.0, 0.0, 0.0, 0.0, 0.0, 1.6527906183293324E9, 0.0, 2022-05-17 14:30:18.329
93.0, 76676.38530449693, 62290.75786957239, 27880.068466671524, 7192.701958739992, 76368.24415543606, 18751.414865424023, 17705.26381793783, 59919.12602414203, -0.056, 1.024, 0.184, 192.0, 0.0, 0.0, 0.0, 0.0, 0.0, 0.0, 0.0, 0.0, 0.0, 1.6527906183293395E9, 0.0, 2022-05-17 14:30:18.329
94.0, 76667.15403403688, 62311.05325353781, 27865.51748103112, 7167.7127084389585, 76358.38703613127, 18737.355618161633, 17603.71984287737, 59860.74326762477, -0.056, 1.024, 0.184, 192.0, 0.0, 0.0, 0.0, 0.0, 0.0, 0.0, 0.0, 0.0, 0.0, 1.6527906183293452E9, 0.0, 2022-05-17 14:30:18.329
95.0, 76680.9450603658, 62341.943364375045, 27888.249205142165, 7352.226358917518, 75394.89273964081, 18830.048302417792, 17506.69092019688, 59786.24490335523, -0.056, 1.024, 0.184, 192.0, 0.0, 0.0, 0.0, 0.0, 0.0, 0.0, 0.0, 0.0, 0.0, 1.6527906183293505E9, 0.0, 2022-05-17 14:30:18.329
96.0, 76730.90120922342, 62365.01036465292, 27922.13444973641, 7331.349829596261, 74803.37617437556, 18884.67596586656, 17547.03581893871, 59805.02036869769, -0.056, 1.024, 0.184, 192.0, 0.0, 0.0, 0.0, 0.0, 0.0, 0.0, 0.0, 0.0, 0.0, 1.652790618329356E9, 0.0, 2022-05-17 14:30:18.329
97.0, 76738.70196803832, 62331.28158226986, 27920.14514447989, 7261.031241539865, 75431.19197263622, 18851.97536372845, 17672.652622777536, 59933.16291965997, -0.054, 1.024, 0.18, 192.0, 254.0, 80.0, 32.0, 0.0, 5.0, 160.0, 0.0, 0.0, 0.0, 1.6527906183293612E9, 0.0, 2022-05-17 14:30:18.329
98.0, 76712.21515085878, 62276.989194987924, 27841.75757667513, 7190.332673827729, 76424.92817937472, 18765.92114757552, 17697.798335289757, 60018.09954859014, -0.054, 1.024, 0.18, 192.0, 0.0, 0.0, 0.0, 0.0, 0.0, 0.0, 0.0, 0.0, 0.0, 1.6527906183293667E9, 0.0, 2022-05-17 14:30:18.329
99.0, 76695.87602566196, 62279.51494211137, 27791.64496560633, 7220.3734183756615, 76421.95539736217, 18739.166109462512, 17578.10474373159, 59955.13468445953, -0.054, 1.024, 0.18, 192.0, 0.0, 0.0, 0.0, 0.0, 0.0, 0.0, 0.0, 0.0, 0.0, 1.6527906183293724E9, 0.0, 2022-05-17 14:30:18.329
100.0, 76736.51149708171, 62328.12998630166, 27840.617637707906, 7281.527791205382, 75452.38142637986, 18823.43218605902, 17491.201161289355, 59864.498360693266, -0.054, 1.024, 0.18, 192.0, 0.0, 0.0, 0.0, 0.0, 0.0, 0.0, 0.0, 0.0, 0.0, 1.652790618329378E9, 0.0, 2022-05-17 14:30:18.329
101.0, 76773.54833764414, 62344.53616673186, 27937.66891213285, 7280.991349338455, 74881.40611426903, 18898.46699219549, 17550.679153284927, 59910.47589903783, -0.054, 1.024, 0.18, 192.0, 0.0, 0.0, 0.0, 0.0, 0.0, 0.0, 0.0, 0.0, 0.0, 1.6527906183293831E9, 0.0, 2022-05-17 14:30:18.329
102.0, 76765.43465440687, 62319.457509453, 27905.996490239682, 7224.7096567999915, 75476.5660138805, 18844.3981223581, 17666.036506418768, 60017.026664856276, -0.054, 1.024, 0.18, 192.0, 0.0, 0.0, 0.0, 0.0, 0.0, 0.0, 0.0, 0.0, 0.0, 1.6527906183293889E9, 0.0, 2022-05-17 14:30:18.329
103.0, 76744.0663867076, 62289.573227116256, 27875.173434635813, 7230.297592913818, 76472.22447064215, 18770.302089488756, 17710.98586451839, 60102.522087397825, -0.054, 1.024, 0.18, 192.0, 0.0, 0.0, 0.0, 0.0, 0.0, 0.0, 0.0, 0.0, 0.0, 1.652790618329394E9, 0.0, 2022-05-17 14:30:18.329
104.0, 76737.78554651566, 62293.060099251285, 27869.026704910604, 7251.464694912994, 76488.58594758343, 18740.507214129833, 17606.24559000082, 60045.74865648135, -0.054, 1.024, 0.18, 192.0, 0.0, 0.0, 0.0, 0.0, 0.0, 0.0, 0.0, 0.0, 0.0, 1.6527906183293993E9, 0.0, 2022-05-17 14:30:18.329
105.0, 76759.6679043374, 62322.653808910116, 27873.027667168102, 7274.4869917019605, 75539.84380243348, 18811.943389408993, 17504.07576609561, 59970.37857417805, -0.054, 1.024, 0.18, 192.0, 0.0, 0.0, 0.0, 0.0, 0.0, 0.0, 0.0, 0.0, 0.0, 1.6527906183294048E9, 0.0, 2022-05-17 14:30:18.329
106.0, 76819.12354458851, 62348.9171086451, 27913.439621143298, 7271.20128526703, 74945.17564120002, 18876.204654718, 17538.966839190347, 59996.28424600176, -0.056, 1.022, 0.17400000000000002, 192.0, 254.0, 64.0, 31.0, 240.0, 5.0, 112.0, 0.0, 0.0, 0.0, 1.65279061832941E9, 0.0, 2022-05-17 14:30:18.329
107.0, 76849.36545483654, 62328.57702119077, 27907.874036773926, 7242.345183175228, 75549.76797697163, 18838.67607577754, 17662.236709861365, 60118.99532306139, -0.056, 1.022, 0.17400000000000002, 192.0, 0.0, 0.0, 0.0, 0.0, 0.0, 0.0, 0.0, 0.0, 0.0, 1.6527906183294177E9, 0.0, 2022-05-17 14:30:18.329
108.0, 76838.88248668701, 62283.337090413224, 27865.718646731217, 7210.583354304237, 76539.25735226362, 18757.65100212705, 17707.40958540554, 60197.51700133288, -0.056, 1.022, 0.17400000000000002, 192.0, 0.0, 0.0, 0.0, 0.0, 0.0, 0.0, 0.0, 0.0, 0.0, 1.6527906183294227E9, 0.0, 2022-05-17 14:30:18.329
109.0, 76835.95440816336, 62289.79674456081, 27847.65843721133, 7197.32876984224, 76575.80245444804, 18735.5227751163, 17609.710110391392, 60151.69592519951, -0.056, 1.022, 0.17400000000000002, 192.0, 0.0, 0.0, 0.0, 0.0, 0.0, 0.0, 0.0, 0.0, 0.0, 1.652790618329428E9, 0.0, 2022-05-17 14:30:18.329
110.0, 76863.62586779903, 62333.33794275975, 27884.315298118032, 7268.764945121401, 75644.94170486233, 18837.62554378814, 17507.36147253054, 60081.489095865385, -0.056, 1.022, 0.17400000000000002, 192.0, 0.0, 0.0, 0.0, 0.0, 0.0, 0.0, 0.0, 0.0, 0.0, 1.6527906183294334E9, 0.0, 2022-05-17 14:30:18.329
111.0, 76900.01450777227, 62354.90737615912, 27917.217065956243, 7300.884401903678, 75073.87698577369, 18902.60206491972, 17552.51199633026, 60130.17119528904, -0.056, 1.022, 0.17400000000000002, 192.0, 0.0, 0.0, 0.0, 0.0, 0.0, 0.0, 0.0, 0.0, 0.0, 1.6527906183294387E9, 0.0, 2022-05-17 14:30:18.329
112.0, 76913.91729282348, 62335.26019278291, 27908.298719918577, 7233.873872026667, 75674.17778660987, 18855.3504771412, 17669.523378553793, 60250.58004266978, -0.056, 1.022, 0.17400000000000002, 192.0, 0.0, 0.0, 0.0, 0.0, 0.0, 0.0, 0.0, 0.0, 0.0, 1.652790618329444E9, 0.0, 2022-05-17 14:30:18.329
113.0, 76891.81141755717, 62306.359387202196, 27850.675922712795, 7196.7699762308575, 76664.38241772442, 18759.170920750013, 17700.637006835583, 60323.089101682795, -0.056, 1.022, 0.17400000000000002, 192.0, 0.0, 0.0, 0.0, 0.0, 0.0, 0.0, 0.0, 0.0, 0.0, 1.6527906183294494E9, 0.0, 2022-05-17 14:30:18.329
114.0, 76870.01846671326, 62311.299122726814, 27842.36107377542, 7194.8924296966115, 76700.41342978638, 18733.309952415224, 17586.151371735497, 60266.71800216651, -0.056, 1.022, 0.17400000000000002, 192.0, 0.0, 0.0, 0.0, 0.0, 0.0, 0.0, 0.0, 0.0, 0.0, 1.652790618329455E9, 0.0, 2022-05-17 14:30:18.329
115.0, 76897.91344379347, 62366.08324838678, 27882.974193450715, 7265.792163108846, 75765.46231096535, 18814.20091559898, 17479.734716383784, 60193.29252163083, -0.056, 1.022, 0.17400000000000002, 192.0, 0.0, 0.0, 0.0, 0.0, 0.0, 0.0, 0.0, 0.0, 0.0, 1.65279061832946E9, 0.0, 2022-05-17 14:30:18.329
116.0, 76932.89392386602, 62376.85678921423, 27936.95365631028, 7297.6210472132025, 75168.8942514532, 18901.12684978567, 17530.74139723079, 60221.858051044714, -0.058, 1.012, 0.166, 192.0, 254.0, 48.0, 31.0, 160.0, 5.0, 48.0, 0.0, 0.0, 0.0, 1.6527906183294654E9, 0.0, 2022-05-17 14:30:18.329
117.0, 76929.2058860309, 62333.42734973757, 27917.39587991189, 7244.222729709474, 75760.79079637419, 18855.05990446328, 17668.048163419746, 60344.3903141487, -0.058, 1.012, 0.166, 192.0, 0.0, 0.0, 0.0, 0.0, 0.0, 0.0, 0.0, 0.0, 0.0, 1.6527906183294709E9, 0.0, 2022-05-17 14:30:18.329
118.0, 76903.43432467393, 62298.938608043034, 27863.192899607766, 7189.393900560606, 76720.3064823516, 18737.243859439357, 17698.044204478767, 60391.97717809406, -0.058, 1.012, 0.166, 192.0, 0.0, 0.0, 0.0, 0.0, 0.0, 0.0, 0.0, 0.0, 0.0, 1.652790618329476E9, 0.0, 2022-05-17 14:30:18.329
119.0, 76886.80462679919, 62300.63734062164, 27855.615658237417, 7218.741741030424, 76775.85056732304, 18740.730731574386, 17594.376813695053, 60350.06765724035, -0.058, 1.012, 0.166, 192.0, 0.0, 0.0, 0.0, 0.0, 0.0, 0.0, 0.0, 0.0, 0.0, 1.6527906183294816E9, 0.0, 2022-05-17 14:30:18.329
120.0, 76910.85510383309, 62349.408847023115, 27898.732173291704, 7266.708584631513, 75841.68175955793, 18839.123110666646, 17484.093306552568, 60275.0775545928, -0.058, 1.012, 0.166, 192.0, 0.0, 0.0, 0.0, 0.0, 0.0, 0.0, 0.0, 0.0, 0.0, 1.652790618329487E9, 0.0, 2022-05-17 14:30:18.329
121.0, 76938.05717683521, 62369.36895482171, 27921.95563578077, 7282.555971450326, 75228.93103706015, 18890.666233380583, 17525.24286809479, 60302.43608980609, -0.058, 1.012, 0.166, 192.0, 0.0, 0.0, 0.0, 0.0, 0.0, 0.0, 0.0, 0.0, 0.0, 1.6527906188095787E9, 0.0, 2022-05-17 14:30:18.809
122.0, 76940.80644140321, 62338.18827130655, 27895.714687790238, 7231.683401070047, 75800.57690150462, 18841.090064178716, 17650.34558181114, 60423.94017266514, -0.058, 1.012, 0.166, 192.0, 0.0, 0.0, 0.0, 0.0, 0.0, 0.0, 0.0, 0.0, 0.0, 1.6527906188097425E9, 0.0, 2022-05-17 14:30:18.809
123.0, 76922.94739758341, 62301.15143074411, 27865.718646731217, 7131.145254510076, 76792.05558205314, 18736.550955361243, 17695.004367232843, 60508.273304495015, -0.058, 1.012, 0.166, 192.0, 0.0, 0.0, 0.0, 0.0, 0.0, 0.0, 0.0, 0.0, 0.0, 1.6527906188097775E9, 0.0, 2022-05-17 14:30:18.809
124.0, 76910.54217941072, 62306.225276735466, 27858.85666118344, 7202.983761189433, 76845.00686466777, 18707.09135616915, 17597.461354429885, 60454.11502767981, -0.058, 1.012, 0.166, 192.0, 0.0, 0.0, 0.0, 0.0, 0.0, 0.0, 0.0, 0.0, 0.0, 1.652790618809801E9, 0.0, 2022-05-17 14:30:18.809
125.0, 76930.16701104249, 62341.87630914168, 27885.052905685057, 7268.228503254474, 75919.13055409558, 18796.364223523644, 17478.99710881676, 60378.23085525404, -0.058, 1.012, 0.166, 192.0, 0.0, 0.0, 0.0, 0.0, 0.0, 0.0, 0.0, 0.0, 0.0, 1.6527906188098092E9, 0.0, 2022-05-17 14:30:18.809
126.0, 76963.73933121435, 62366.86555944271, 27916.412403155853, 7281.77366039439, 75277.83665392836, 18864.715858067975, 17508.300245797665, 60391.35132924931, -0.07, 1.008, 0.162, 192.0, 253.0, 208.0, 31.0, 128.0, 5.0, 16.0, 0.0, 0.0, 0.0, 1.6527906188098173E9, 0.0, 2022-05-17 14:30:18.809
127.0, 76961.63826723555, 62340.57990796327, 27897.324013391022, 7233.00215399291, 75808.69058474191, 18835.502128064887, 17672.87614022209, 60493.945836299165, -0.07, 1.008, 0.162, 192.0, 0.0, 0.0, 0.0, 0.0, 0.0, 0.0, 0.0, 0.0, 0.0, 1.6527906188098269E9, 0.0, 2022-05-17 14:30:18.809
128.0, 76932.93862735495, 62308.21458199198, 27858.2755158276, 7161.6106822026595, 76778.30925921313, 18742.250650197348, 17722.54171640178, 60570.165284891766, -0.07, 1.008, 0.162, 192.0, 0.0, 0.0, 0.0, 0.0, 0.0, 0.0, 0.0, 0.0, 0.0, 1.652790618809883E9, 0.0, 2022-05-17 14:30:18.809
129.0, 76931.64222617653, 62311.455584938005, 27861.628277495896, 7197.462880308972, 76829.40534703796, 18744.552879876243, 17617.86849711758, 60517.97396158862, -0.07, 1.008, 0.162, 192.0, 0.0, 0.0, 0.0, 0.0, 0.0, 0.0, 0.0, 0.0, 0.0, 1.65279061880989E9, 0.0, 2022-05-17 14:30:18.809
130.0, 76949.47891825187, 62342.278640541874, 27896.072315701524, 7252.604633880214, 75894.409524728, 18823.05220640328, 17508.18848707539, 60437.28416410496, -0.07, 1.008, 0.162, 192.0, 0.0, 0.0, 0.0, 0.0, 0.0, 0.0, 0.0, 0.0, 0.0, 1.6527906188098967E9, 0.0, 2022-05-17 14:30:18.809
131.0, 76977.12802614308, 62361.165864606606, 27924.57078988204, 7268.988462565954, 75262.43630199866, 18893.482553181955, 17525.399330305976, 60463.36864988431, -0.07, 1.008, 0.162, 192.0, 0.0, 0.0, 0.0, 0.0, 0.0, 0.0, 0.0, 0.0, 0.0, 1.6527906188099043E9, 0.0, 2022-05-17 14:30:18.809
132.0, 76986.5157588143, 62338.05416083982, 27899.313318647542, 7229.224709179964, 75784.885976897, 18864.335878412232, 17638.29799154973, 60565.60552902288, -0.07, 1.008, 0.162, 192.0, 0.0, 0.0, 0.0, 0.0, 0.0, 0.0, 0.0, 0.0, 0.0, 1.652790618809913E9, 0.0, 2022-05-17 14:30:18.809
133.0, 76961.28063932426, 62302.85016332271, 27872.51357704563, 7181.011996389866, 76764.0711979951, 18781.34385124968, 17699.184143445986, 60650.09512306394, -0.07, 1.008, 0.162, 192.0, 0.0, 0.0, 0.0, 0.0, 0.0, 0.0, 0.0, 0.0, 0.0, 1.6527906188099213E9, 0.0, 2022-05-17 14:30:18.809
134.0, 76952.98814213135, 62310.47210818197, 27874.70404800225, 7193.819545962757, 76810.71928867332, 18757.114560260125, 17599.696528875415, 60588.538418834025, -0.07, 1.008, 0.162, 192.0, 0.0, 0.0, 0.0, 0.0, 0.0, 0.0, 0.0, 0.0, 0.0, 1.6527906188099463E9, 0.0, 2022-05-17 14:30:18.809
135.0, 76966.8685754381, 62342.25628879742, 27894.395934867378, 7228.375342890661, 75854.51166087529, 18840.06188393377, 17490.955292100345, 60490.526019397505, -0.07, 1.008, 0.162, 192.0, 0.0, 0.0, 0.0, 0.0, 0.0, 0.0, 0.0, 0.0, 0.0, 1.6527906188099525E9, 0.0, 2022-05-17 14:30:18.809
136.0, 77012.48848587138, 62381.19302763856, 27932.080976019024, 7277.370366736694, 75201.08076346884, 18924.953809375027, 17526.002827406268, 60508.74269112858, -0.088, 1.006, 0.17, 192.0, 253.0, 64.0, 31.0, 112.0, 5.0, 80.0, 0.0, 0.0, 0.0, 1.6527906188099597E9, 0.0, 2022-05-17 14:30:18.809
137.0, 77010.99091899287, 62355.04148662585, 27908.633996085406, 7244.8485785542225, 75726.54792386865, 18900.70216664102, 17643.103616607623, 60627.02812278606, -0.088, 1.006, 0.17, 192.0, 0.0, 0.0, 0.0, 0.0, 0.0, 0.0, 0.0, 0.0, 0.0, 1.6527906188099673E9, 0.0, 2022-05-17 14:30:18.809
138.0, 76983.54297680175, 62309.42157619257, 27866.255088598144, 7187.650464493092, 76670.52914744963, 18814.089156876704, 17678.93346296948, 60680.94053041226, -0.088, 1.006, 0.17, 192.0, 0.0, 0.0, 0.0, 0.0, 0.0, 0.0, 0.0, 0.0, 0.0, 1.6527906188099732E9, 0.0, 2022-05-17 14:30:18.809
139.0, 76970.2660405953, 62320.5080414424, 27866.41155080933, 7195.026540163343, 76715.0091189157, 18781.410906483045, 17584.296176945707, 60613.10298599041, -0.088, 1.006, 0.17, 192.0, 0.0, 0.0, 0.0, 0.0, 0.0, 0.0, 0.0, 0.0, 0.0, 1.6527906188099792E9, 0.0, 2022-05-17 14:30:18.809
140.0, 76992.7742472618, 62364.27275708589, 27893.70303078926, 7246.346145432729, 75767.07163656612, 18842.54292756831, 17465.78722784367, 60518.0857203109, -0.088, 1.006, 0.17, 192.0, 0.0, 0.0, 0.0, 0.0, 0.0, 0.0, 0.0, 0.0, 0.0, 1.6527906188099852E9, 0.0, 2022-05-17 14:30:18.809
141.0, 77024.9831110219, 62387.6750335306, 27917.887618289904, 7275.224599268985, 75114.42305021561, 18934.676818213084, 17488.921283354914, 60539.23047056562, -0.088, 1.006, 0.17, 192.0, 0.0, 0.0, 0.0, 0.0, 0.0, 0.0, 0.0, 0.0, 0.0, 1.652790618809991E9, 0.0, 2022-05-17 14:30:18.809
142.0, 77020.11043073064, 62362.66343148511, 27903.023708227123, 7239.551215118315, 75629.51900118816, 18918.203582549522, 17600.85881958709, 60645.580070683965, -0.088, 1.006, 0.17, 192.0, 0.0, 0.0, 0.0, 0.0, 0.0, 0.0, 0.0, 0.0, 0.0, 1.652790618809997E9, 0.0, 2022-05-17 14:30:18.809
143.0, 76994.2718141403, 62330.409864236106, 27865.316315331023, 7174.574693986738, 76596.65663202484, 18808.68003471852, 17636.800424671226, 60705.46039407974, -0.088, 1.006, 0.17, 192.0, 0.0, 0.0, 0.0, 0.0, 0.0, 0.0, 0.0, 0.0, 0.0, 1.6527906188100796E9, 0.0, 2022-05-17 14:30:18.810
144.0, 76976.79274997626, 62326.63241942316, 27852.84404192496, 7198.915743698567, 76692.92559539386, 18786.4847524744, 17546.097045671588, 60664.33318428197, -0.088, 1.006, 0.17, 192.0, 0.0, 0.0, 0.0, 0.0, 0.0, 0.0, 0.0, 0.0, 0.0, 1.6527906188100955E9, 0.0, 2022-05-17 14:30:18.810
145.0, 76982.89477621255, 62355.555576748324, 27869.18316712179, 7275.403413224628, 75807.23772135231, 18887.872265323673, 17442.988448499258, 60610.621942355865, -0.088, 1.006, 0.17, 192.0, 0.0, 0.0, 0.0, 0.0, 0.0, 0.0, 0.0, 0.0, 0.0, 1.6527906188101068E9, 0.0, 2022-05-17 14:30:18.810
146.0, 77019.37282316362, 62385.573969551806, 27901.056754715057, 7302.225506570996, 75183.89227198271, 18972.29480413137, 17480.561730928628, 60649.58103294147, -0.076, 1.012, 0.184, 192.0, 253.0, 160.0, 31.0, 160.0, 5.0, 192.0, 0.0, 0.0, 0.0, 1.6527906188101377E9, 0.0, 2022-05-17 14:30:18.810
147.0, 77024.1784482215, 62354.90737615912, 27891.981946466203, 7248.983651278455, 75731.71117683782, 18934.140376346157, 17611.67706390346, 60775.35429899148, -0.076, 1.012, 0.184, 192.0, 0.0, 0.0, 0.0, 0.0, 0.0, 0.0, 0.0, 0.0, 0.0, 1.6527906188101451E9, 0.0, 2022-05-17 14:30:18.810
148.0, 76993.0201164508, 62301.82198307777, 27843.255143553633, 7196.546458786304, 76728.86720047798, 18829.40010182859, 17651.82079694519, 60844.108264936, -0.076, 1.012, 0.184, 192.0, 0.0, 0.0, 0.0, 0.0, 0.0, 0.0, 0.0, 0.0, 0.0, 1.6527906188101556E9, 0.0, 2022-05-17 14:30:18.810
149.0, 76989.30972687123, 62311.43323319355, 27834.22503879369, 7233.896223771122, 76795.52010244371, 18783.467266972933, 17542.744284003293, 60775.8460373695, -0.076, 1.012, 0.184, 192.0, 0.0, 0.0, 0.0, 0.0, 0.0, 0.0, 0.0, 0.0, 0.0, 1.6527906188101623E9, 0.0, 2022-05-17 14:30:18.810
150.0, 77019.26106444134, 62356.762570948915, 27890.0820481875, 7298.716282691513, 75887.32402173568, 18877.791628574327, 17447.30233517913, 60684.22623684719, -0.076, 1.012, 0.184, 192.0, 0.0, 0.0, 0.0, 0.0, 0.0, 0.0, 0.0, 0.0, 0.0, 1.6527906188101735E9, 0.0, 2022-05-17 14:30:18.810
151.0, 77052.14048053509, 62385.283396873885, 27912.120868220434, 7298.984503624976, 75266.6160782118, 18960.046048169857, 17497.727870670304, 60710.15426041535, -0.076, 1.012, 0.184, 192.0, 0.0, 0.0, 0.0, 0.0, 0.0, 0.0, 0.0, 0.0, 0.0, 1.6527906188101802E9, 0.0, 2022-05-17 14:30:18.810
152.0, 77063.7410359074, 62374.1745798796, 27907.851685029473, 7313.088454376275, 75752.0736160366, 18935.235611824468, 17632.799462413725, 60813.68754073233, -0.076, 1.012, 0.184, 192.0, 0.0, 0.0, 0.0, 0.0, 0.0, 0.0, 0.0, 0.0, 0.0, 1.652790618810188E9, 0.0, 2022-05-17 14:30:18.810
153.0, 77047.75953862186, 62339.93170737407, 27877.967402692724, 7277.035090569865, 76735.61742730348, 18860.49137836592, 17694.534980599285, 60891.33750097007, -0.076, 1.012, 0.184, 192.0, 0.0, 0.0, 0.0, 0.0, 0.0, 0.0, 0.0, 0.0, 0.0, 1.6527906188101969E9, 0.0, 2022-05-17 14:30:18.810
154.0, 77011.01327073733, 62322.25147750992, 27856.040341382068, 7262.841732840745, 76798.89521585646, 18808.3894620406, 17566.638298826016, 60807.764328451674, -0.076, 1.012, 0.184, 192.0, 0.0, 0.0, 0.0, 0.0, 0.0, 0.0, 0.0, 0.0, 0.0, 1.652790618810205E9, 0.0, 2022-05-17 14:30:18.810
155.0, 77024.6254831106, 62356.58375699327, 27872.42417006781, 7305.466509517016, 75850.53305036224, 18863.173587700556, 17439.635686830963, 60697.9278561983, -0.076, 1.012, 0.184, 192.0, 0.0, 0.0, 0.0, 0.0, 0.0, 0.0, 0.0, 0.0, 0.0, 1.652790618810213E9, 0.0, 2022-05-17 14:30:18.810
156.0, 77061.61762018414, 62388.23382714199, 27904.09659196098, 7340.424637845116, 75179.48897832501, 18942.634039239176, 17483.780382130193, 60716.79272851858, -0.068, 1.02, 0.188, 192.0, 253.0, 224.0, 31.0, 224.0, 5.0, 224.0, 0.0, 0.0, 0.0, 1.652790618810244E9, 0.0, 2022-05-17 14:30:18.810
157.0, 77055.02385556983, 62353.49921625844, 27881.767199250127, 7299.230372813985, 75708.86769400451, 18928.798309421338, 17610.827697614157, 60855.32884065257, -0.068, 1.02, 0.188, 192.0, 0.0, 0.0, 0.0, 0.0, 0.0, 0.0, 0.0, 0.0, 0.0, 1.6527906188102703E9, 0.0, 2022-05-17 14:30:18.810
158.0, 77021.76445982033, 62308.438099436535, 27842.875163897894, 7252.470523413483, 76709.66705199088, 18832.77521524134, 17648.95977365491, 60945.272260340724, -0.068, 1.02, 0.188, 192.0, 0.0, 0.0, 0.0, 0.0, 0.0, 0.0, 0.0, 0.0, 0.0, 1.652790618810278E9, 0.0, 2022-05-17 14:30:18.810
159.0, 77020.26689294183, 62318.25051525242, 27828.726509657685, 7263.445229941039, 76806.49480897127, 18793.547903722276, 17538.273935112233, 60884.0731840221, -0.068, 1.02, 0.188, 192.0, 0.0, 0.0, 0.0, 0.0, 0.0, 0.0, 0.0, 0.0, 0.0, 1.6527906188102868E9, 0.0, 2022-05-17 14:30:18.810
160.0, 77046.86546884364, 62371.157094378126, 27865.070446142014, 7325.873652204711, 75879.52326292077, 18873.567148872276, 17428.996256470236, 60788.67593868684, -0.068, 1.02, 0.188, 192.0, 0.0, 0.0, 0.0, 0.0, 0.0, 0.0, 0.0, 0.0, 0.0, 1.6527906188102949E9, 0.0, 2022-05-17 14:30:18.810
161.0, 77069.06075108776, 62389.7760975094, 27902.151990193368, 7358.708364809557, 75205.32759491535, 18969.478484329997, 17469.184693000876, 60801.84111617102, -0.068, 1.02, 0.188, 192.0, 0.0, 0.0, 0.0, 0.0, 0.0, 0.0, 0.0, 0.0, 0.0, 1.6527906188103004E9, 0.0, 2022-05-17 14:30:18.810
162.0, 77061.48350971741, 62347.68776270006, 27887.19867315277, 7316.5753265113035, 75708.95710098233, 18940.55532700483, 17574.036726240724, 60915.05270183715, -0.068, 1.02, 0.188, 192.0, 0.0, 0.0, 0.0, 0.0, 0.0, 0.0, 0.0, 0.0, 0.0, 1.652790618810306E9, 0.0, 2022-05-17 14:30:18.810
163.0, 77035.1308030046, 62304.124212756666, 27837.55544871753, 7261.835904340256, 76682.66614468886, 18844.241660146912, 17613.01816857078, 60980.63272006902, -0.068, 1.02, 0.188, 192.0, 0.0, 0.0, 0.0, 0.0, 0.0, 0.0, 0.0, 0.0, 0.0, 1.652790618810312E9, 0.0, 2022-05-17 14:30:18.810
164.0, 77032.44859366996, 62311.05325353781, 27826.75955614562, 7260.360689206206, 76804.39374499247, 18815.29615107729, 17532.976571676325, 60932.48706251229, -0.068, 1.02, 0.188, 192.0, 0.0, 0.0, 0.0, 0.0, 0.0, 0.0, 0.0, 0.0, 0.0, 1.6527906188103175E9, 0.0, 2022-05-17 14:30:18.810
165.0, 77061.01412308385, 62353.454512769524, 27858.521385016607, 7318.586983512281, 75881.64667864403, 18874.81884656177, 17412.92535220687, 60833.021799686176, -0.068, 1.02, 0.188, 192.0, 0.0, 0.0, 0.0, 0.0, 0.0, 0.0, 0.0, 0.0, 0.0, 1.6527906188103237E9, 0.0, 2022-05-17 14:30:18.810
166.0, 77096.24047234541, 62378.711984004025, 27893.27834764461, 7350.997012972476, 75154.07504487933, 18947.260850341423, 17432.68429430536, 60808.56899125207, -0.078, 1.008, 0.19, 192.0, 253.0, 144.0, 31.0, 128.0, 5.0, 240.0, 0.0, 0.0, 0.0, 1.6527906188103297E9, 0.0, 2022-05-17 14:30:18.810
167.0, 77100.91198693657, 62353.63332672517, 27874.301716602055, 7315.189518355074, 75664.65594347191, 18959.107274902737, 17585.43611591293, 60937.15857710345, -0.078, 1.008, 0.19, 192.0, 0.0, 0.0, 0.0, 0.0, 0.0, 0.0, 0.0, 0.0, 0.0, 1.6527906188103359E9, 0.0, 2022-05-17 14:30:18.810
168.0, 77083.83525417272, 62319.09988154172, 27848.686617456275, 7284.545276706848, 76647.8421268275, 18870.817884304273, 17633.313552536198, 61001.93393253493, -0.078, 1.008, 0.19, 192.0, 0.0, 0.0, 0.0, 0.0, 0.0, 0.0, 0.0, 0.0, 0.0, 1.6527906188103645E9, 0.0, 2022-05-17 14:30:18.810
169.0, 77078.85081515918, 62329.13581480215, 27850.2735913126, 7289.373253509195, 76767.51336664121, 18839.816014744763, 17544.75594100427, 60950.748437732276, -0.078, 1.008, 0.19, 192.0, 0.0, 0.0, 0.0, 0.0, 0.0, 0.0, 0.0, 0.0, 0.0, 1.6527906188103707E9, 0.0, 2022-05-17 14:30:18.810
170.0, 77090.45137053149, 62359.556539005825, 27870.591327022474, 7333.093265663775, 75852.14237596303, 18908.391166733643, 17431.20907917131, 60868.27050069219, -0.078, 1.008, 0.19, 192.0, 0.0, 0.0, 0.0, 0.0, 0.0, 0.0, 0.0, 0.0, 0.0, 1.6527906188103783E9, 0.0, 2022-05-17 14:30:18.810
171.0, 77126.61649306018, 62386.11041141873, 27901.727307048717, 7359.26715842094, 75146.25193431997, 18989.90797876215, 17455.12544573849, 60877.99350953025, -0.078, 1.008, 0.19, 192.0, 0.0, 0.0, 0.0, 0.0, 0.0, 0.0, 0.0, 0.0, 0.0, 1.65279061881039E9, 0.0, 2022-05-17 14:30:18.810
172.0, 77132.27148440736, 62358.573062249794, 27888.115094675435, 7308.215774085018, 75611.95053004629, 18952.37939982169, 17584.989081023825, 60975.268301399745, -0.078, 1.008, 0.19, 192.0, 0.0, 0.0, 0.0, 0.0, 0.0, 0.0, 0.0, 0.0, 0.0, 1.652790618810414E9, 0.0, 2022-05-17 14:30:18.810
173.0, 77102.76718172636, 62308.929837814554, 27843.03162610908, 7254.929215303567, 76620.37183289192, 18849.047285204804, 17640.197889828432, 61062.14953209753, -0.078, 1.008, 0.19, 192.0, 0.0, 0.0, 0.0, 0.0, 0.0, 0.0, 0.0, 0.0, 0.0, 1.6527906188104384E9, 0.0, 2022-05-17 14:30:18.810
174.0, 77101.2472631034, 62315.56830591778, 27849.2230593232, 7272.7882591233565, 76709.39883105742, 18819.855906946173, 17528.930905929912, 60965.768810006244, -0.078, 1.008, 0.19, 192.0, 0.0, 0.0, 0.0, 0.0, 0.0, 0.0, 0.0, 0.0, 0.0, 1.6527906188104446E9, 0.0, 2022-05-17 14:30:18.810
175.0, 77124.91776048158, 62361.7693617069, 27877.34155384798, 7339.485864577993, 75786.71881994234, 18912.0121493354, 17423.765948267694, 60873.47845715028, -0.078, 1.008, 0.19, 192.0, 0.0, 0.0, 0.0, 0.0, 0.0, 0.0, 0.0, 0.0, 0.0, 1.6527906188104508E9, 0.0, 2022-05-17 14:30:18.810
176.0, 77165.9108598126, 62403.455365116046, 27917.775859567628, 7378.020272018943, 75067.1714624371, 18987.315176405333, 17440.97679149828, 60875.177189728885, -0.094, 0.986, 0.192, 192.0, 253.0, 16.0, 30.0, 208.0, 6.0, 0.0, 0.0, 0.0, 0.0, 1.6527906188104568E9, 0.0, 2022-05-17 14:30:18.810
177.0, 77168.03427553586, 62382.064745672316, 27904.61068208345, 7348.091286193287, 75541.92251466782, 18988.298653161368, 17570.214577938867, 60989.260493428774, -0.094, 0.986, 0.192, 192.0, 0.0, 0.0, 0.0, 0.0, 0.0, 0.0, 0.0, 0.0, 0.0, 1.6527906188104637E9, 0.0, 2022-05-17 14:30:18.810
178.0, 77136.31715015377, 62330.119291558185, 27860.555393762043, 7290.110861076219, 76547.03575933406, 18893.30373922631, 17643.26007881881, 61073.95125316993, -0.094, 0.986, 0.192, 192.0, 0.0, 0.0, 0.0, 0.0, 0.0, 0.0, 0.0, 0.0, 0.0, 1.6527906188104692E9, 0.0, 2022-05-17 14:30:18.810
179.0, 77114.65830977658, 62321.78209087635, 27846.742015688662, 7287.96509360851, 76689.21520581427, 18847.840291004217, 17545.694714271394, 61024.151566523506, -0.094, 0.986, 0.192, 192.0, 0.0, 0.0, 0.0, 0.0, 0.0, 0.0, 0.0, 0.0, 0.0, 1.652790618810493E9, 0.0, 2022-05-17 14:30:18.810
180.0, 77125.34244362623, 62356.404943037625, 27867.66324849883, 7339.8211407448225, 75761.57310743011, 18908.055890566815, 17412.813593484592, 60922.31701878513, -0.094, 0.986, 0.192, 192.0, 0.0, 0.0, 0.0, 0.0, 0.0, 0.0, 0.0, 0.0, 0.0, 1.6527906188104987E9, 0.0, 2022-05-17 14:30:18.810
181.0, 77155.8078713188, 62384.925768962596, 27894.440638356285, 7382.021234276443, 75037.465994056, 18997.172295710123, 17432.237259416255, 60925.66978045342, -0.094, 0.986, 0.192, 192.0, 0.0, 0.0, 0.0, 0.0, 0.0, 0.0, 0.0, 0.0, 0.0, 1.6527906188105052E9, 0.0, 2022-05-17 14:30:18.810
182.0, 77176.19266226205, 62380.56717879381, 27896.340536634987, 7360.809428788356, 75508.28313926258, 18986.37640313821, 17558.971650477844, 61040.021305086775, -0.094, 0.986, 0.192, 192.0, 0.0, 0.0, 0.0, 0.0, 0.0, 0.0, 0.0, 0.0, 0.0, 1.6527906188105123E9, 0.0, 2022-05-17 14:30:18.810
183.0, 77162.1110632552, 62352.001649379934, 27876.26867011412, 7318.698742234557, 76499.62770934436, 18901.685643397053, 17620.0589680742, 61104.1708116735, -0.094, 0.986, 0.192, 192.0, 0.0, 0.0, 0.0, 0.0, 0.0, 0.0, 0.0, 0.0, 0.0, 1.6527906188105204E9, 0.0, 2022-05-17 14:30:18.810
184.0, 77135.04310071982, 62337.62947769517, 27851.100605857446, 7318.54228002337, 76642.85768781397, 18860.089046965724, 17531.79192922019, 61043.731694666356, -0.094, 0.986, 0.192, 192.0, 0.0, 0.0, 0.0, 0.0, 0.0, 0.0, 0.0, 0.0, 0.0, 1.6527906188105264E9, 0.0, 2022-05-17 14:30:18.810
185.0, 77162.7592638444, 62390.06667018732, 27888.1821499088, 7400.5731821743475, 75741.47888916479, 18947.082036385782, 17434.1148059505, 60960.78437099271, -0.094, 0.986, 0.192, 192.0, 0.0, 0.0, 0.0, 0.0, 0.0, 0.0, 0.0, 0.0, 0.0, 1.6527906188105323E9, 0.0, 2022-05-17 14:30:18.810
186.0, 77188.48612171247, 62409.5797430968, 27911.04798448658, 7432.8043976789, 75017.95292114651, 19030.81167111536, 17450.141006724956, 60969.70271703038, -0.10200000000000001, 1.0, 0.212, 192.0, 252.0, 208.0, 31.0, 64.0, 6.0, 160.0, 0.0, 0.0, 0.0, 1.6527906188105383E9, 0.0, 2022-05-17 14:30:18.810
187.0, 77186.67563041158, 62379.337832848774, 27894.395934867378, 7388.972626802043, 75484.92556630679, 19020.57457215483, 17570.795723294705, 61086.80350623173, -0.10200000000000001, 1.0, 0.212, 192.0, 0.0, 0.0, 0.0, 0.0, 0.0, 0.0, 0.0, 0.0, 0.0, 1.6527906188105445E9, 0.0, 2022-05-17 14:30:18.810
188.0, 77171.14116801515, 62342.6139167087, 27863.237603096677, 7357.054335719864, 76487.71422954967, 18929.535916988363, 17619.678988418458, 61153.34464947518, -0.10200000000000001, 1.0, 0.212, 192.0, 0.0, 0.0, 0.0, 0.0, 0.0, 0.0, 0.0, 0.0, 0.0, 1.6527906188105507E9, 0.0, 2022-05-17 14:30:18.810
189.0, 77148.85647879321, 62328.53231770186, 27846.384387777376, 7361.524684610926, 76641.65069361338, 18889.570997902276, 17531.32254258663, 61089.12808765508, -0.10200000000000001, 1.0, 0.212, 192.0, 0.0, 0.0, 0.0, 0.0, 0.0, 0.0, 0.0, 0.0, 0.0, 1.652790618810557E9, 0.0, 2022-05-17 14:30:18.810
190.0, 77165.24030747895, 62362.10463787373, 27872.93826019028, 7411.413778235171, 75721.18350519938, 18967.31036511783, 17434.695951306338, 60983.516095103754, -0.10200000000000001, 1.0, 0.212, 192.0, 0.0, 0.0, 0.0, 0.0, 0.0, 0.0, 0.0, 0.0, 0.0, 1.6527906188105626E9, 0.0, 2022-05-17 14:30:18.810
191.0, 77195.07988632678, 62387.56327480832, 27902.219045426733, 7437.118284358774, 74970.67898162354, 19053.364581270765, 17439.92625950888, 60970.35091761958, -0.10200000000000001, 1.0, 0.212, 192.0, 0.0, 0.0, 0.0, 0.0, 0.0, 0.0, 0.0, 0.0, 0.0, 1.652790618810569E9, 0.0, 2022-05-17 14:30:18.810
192.0, 77192.4647322255, 62358.8189314388, 27881.007239938648, 7385.038719777909, 75430.34260634692, 19023.927333823125, 17559.70925804487, 61082.82489571869, -0.10200000000000001, 1.0, 0.212, 192.0, 0.0, 0.0, 0.0, 0.0, 0.0, 0.0, 0.0, 0.0, 0.0, 1.652790618810579E9, 0.0, 2022-05-17 14:30:18.810
193.0, 77170.00122904792, 62323.413768221595, 27839.343588273954, 7340.826969245311, 76460.22158386966, 18958.70494350254, 17621.221258785878, 61173.461219484954, -0.10200000000000001, 1.0, 0.212, 192.0, 0.0, 0.0, 0.0, 0.0, 0.0, 0.0, 0.0, 0.0, 0.0, 1.6527906188105853E9, 0.0, 2022-05-17 14:30:18.810
194.0, 77156.09844399673, 62321.71503564299, 27827.720681157196, 7345.587890814292, 76635.48161214372, 18919.388225005656, 17530.115548386046, 61123.61682934962, -0.10200000000000001, 1.0, 0.212, 192.0, 0.0, 0.0, 0.0, 0.0, 0.0, 0.0, 0.0, 0.0, 0.0, 1.6527906188105917E9, 0.0, 2022-05-17 14:30:18.810
195.0, 77172.14699651564, 62356.3155360598, 27856.80030069355, 7403.925943842643, 75697.80358049912, 18981.2802054024, 17405.39281432543, 60998.11178423307, -0.08600000000000001, 0.996, 0.24, 192.0, 253.0, 80.0, 31.0, 32.0, 7.0, 128.0, 0.0, 0.0, 0.0, 1.6527906188105977E9, 0.0, 2022-05-17 14:30:18.810
196.0, 77210.01085162292, 62384.858713729234, 27887.824521997514, 7441.476874527559, 74948.21547844596, 19074.554035014397, 17434.092454206046, 60995.966016765364, -0.08600000000000001, 0.996, 0.24, 192.0, 0.0, 0.0, 0.0, 0.0, 0.0, 0.0, 0.0, 0.0, 0.0, 1.6527906188106036E9, 0.0, 2022-05-17 14:30:18.810
197.0, 77212.6260057242, 62355.39911453714, 27883.46593182873, 7398.516821684459, 75416.1492486178, 19061.031229618937, 17567.37590639304, 61125.60613460614, -0.08600000000000001, 0.996, 0.24, 192.0, 0.0, 0.0, 0.0, 0.0, 0.0, 0.0, 0.0, 0.0, 0.0, 1.6527906188106103E9, 0.0, 2022-05-17 14:30:18.810
198.0, 77197.78444740588, 62319.0104745639, 27849.55833549003, 7343.911509980144, 76433.35478703438, 18954.03342891138, 17612.235857514843, 61198.60693199718, -0.08600000000000001, 0.996, 0.24, 192.0, 0.0, 0.0, 0.0, 0.0, 0.0, 0.0, 0.0, 0.0, 0.0, 1.6527906188106177E9, 0.0, 2022-05-17 14:30:18.810
199.0, 77183.76990363239, 62312.95315181651, 27837.26487603961, 7351.175826928119, 76614.20275142226, 18918.36004476071, 17526.718083228836, 61147.35438196116, -0.08600000000000001, 0.996, 0.24, 192.0, 0.0, 0.0, 0.0, 0.0, 0.0, 0.0, 0.0, 0.0, 0.0, 1.6527906188106236E9, 0.0, 2022-05-17 14:30:18.810
200.0, 77210.61434872322, 62353.610974980715, 27871.306582845045, 7404.529440942936, 75680.99506866874, 18986.778734538406, 17423.25185814522, 61030.74533113782, -0.08600000000000001, 0.996, 0.24, 192.0, 0.0, 0.0, 0.0, 0.0, 0.0, 0.0, 0.0, 0.0, 0.0, 1.6527906188106294E9, 0.0, 2022-05-17 14:30:18.810
201.0, 77249.79695675337, 62380.47777181599, 27902.889597760393, 7433.676115712657, 74914.88902746308, 19077.68327923814, 17447.615259601505, 61023.14573802301, -0.08600000000000001, 0.996, 0.24, 192.0, 0.0, 0.0, 0.0, 0.0, 0.0, 0.0, 0.0, 0.0, 0.0, 1.6527906188106356E9, 0.0, 2022-05-17 14:30:18.810
202.0, 77263.92325924913, 62363.13281811868, 27891.579615066006, 7394.582914660325, 75380.63232667831, 19065.479226765543, 17588.54300839222, 61161.234815267904, -0.08600000000000001, 0.996, 0.24, 192.0, 0.0, 0.0, 0.0, 0.0, 0.0, 0.0, 0.0, 0.0, 0.0, 1.6527906188106415E9, 0.0, 2022-05-17 14:30:18.810
203.0, 77247.02534044092, 62324.93368684455, 27858.968419905716, 7332.288602863384, 76419.5861124499, 18956.134492890178, 17641.516642751296, 61251.17823495606, -0.08600000000000001, 0.996, 0.24, 192.0, 0.0, 0.0, 0.0, 0.0, 0.0, 0.0, 0.0, 0.0, 0.0, 1.6527906188106472E9, 0.0, 2022-05-17 14:30:18.810
204.0, 77236.09533740226, 62323.61493392169, 27851.27941981309, 7330.098131906764, 76612.6828327993, 18897.751736372917, 17545.538252060207, 61194.67302497304, -0.08600000000000001, 0.996, 0.24, 192.0, 0.0, 0.0, 0.0, 0.0, 0.0, 0.0, 0.0, 0.0, 0.0, 1.6527906188106544E9, 0.0, 2022-05-17 14:30:18.810
205.0, 77269.0418087294, 62367.312594331815, 27891.110228432444, 7402.9201153421545, 75693.60145254152, 18981.2802054024, 17422.02251220018, 61083.69661375244, -0.094, 0.962, 0.244, 192.0, 253.0, 16.0, 30.0, 16.0, 7.0, 160.0, 0.0, 0.0, 0.0, 1.6527906188106613E9, 0.0, 2022-05-17 14:30:18.810
206.0, 77311.51012319447, 62396.5263243349, 27916.412403155853, 7432.42441802316, 74909.54696053827, 19068.697877967104, 17438.629858330474, 61065.23407283236, -0.094, 0.962, 0.244, 192.0, 0.0, 0.0, 0.0, 0.0, 0.0, 0.0, 0.0, 0.0, 0.0, 1.6527906188106666E9, 0.0, 2022-05-17 14:30:18.810
207.0, 77329.57033271437, 62382.64589102816, 27907.248187929177, 7400.282609496428, 75340.80151805896, 19061.43356101913, 17570.885130272523, 61172.52244621783, -0.094, 0.962, 0.244, 192.0, 0.0, 0.0, 0.0, 0.0, 0.0, 0.0, 0.0, 0.0, 0.0, 1.6527906188106725E9, 0.0, 2022-05-17 14:30:18.810
208.0, 77313.03004181743, 62344.67027719859, 27877.408609081343, 7348.024230959921, 76362.74562630006, 18963.1752923936, 17633.49236649184, 61239.44356911702, -0.094, 0.962, 0.244, 192.0, 0.0, 0.0, 0.0, 0.0, 0.0, 0.0, 0.0, 0.0, 0.0, 1.6527906188106785E9, 0.0, 2022-05-17 14:30:18.810
209.0, 77296.8920823207, 62333.49440497094, 27855.258030326135, 7349.968832727532, 76577.21061434873, 18926.3172657868, 17553.249603897286, 61196.63997848511, -0.094, 0.962, 0.244, 192.0, 0.0, 0.0, 0.0, 0.0, 0.0, 0.0, 0.0, 0.0, 0.0, 1.6527906188106844E9, 0.0, 2022-05-17 14:30:18.810
210.0, 77307.3974022147, 62362.99870765194, 27891.110228432444, 7403.367150231261, 75674.91539417689, 18985.974071738015, 17426.671675046884, 61100.683939538474, -0.094, 0.962, 0.244, 192.0, 0.0, 0.0, 0.0, 0.0, 0.0, 0.0, 0.0, 0.0, 0.0, 1.6527906188106904E9, 0.0, 2022-05-17 14:30:18.810
211.0, 77337.7063676961, 62398.64974005816, 27926.493039905195, 7441.633336738746, 74879.72973343488, 19071.447142535108, 17427.498689591728, 61076.07466889318, -0.094, 0.962, 0.244, 192.0, 0.0, 0.0, 0.0, 0.0, 0.0, 0.0, 0.0, 0.0, 0.0, 1.6527906188106964E9, 0.0, 2022-05-17 14:30:18.810
212.0, 77339.96389388609, 62383.182332895085, 27919.18401946831, 7419.505109727992, 75333.98423600009, 19065.16630234317, 17563.754923791283, 61209.93926643602, -0.094, 0.962, 0.244, 192.0, 0.0, 0.0, 0.0, 0.0, 0.0, 0.0, 0.0, 0.0, 0.0, 1.6527906188107028E9, 0.0, 2022-05-17 14:30:18.810
213.0, 77315.06405056287, 62347.06191385531, 27886.684583030295, 7372.40998416066, 76384.44917016616, 18956.40271382364, 17623.545840209226, 61299.726223912985, -0.094, 0.962, 0.244, 192.0, 0.0, 0.0, 0.0, 0.0, 0.0, 0.0, 0.0, 0.0, 0.0, 1.6527906188107088E9, 0.0, 2022-05-17 14:30:18.810
214.0, 77289.78422758392, 62337.54007071735, 27873.65351601285, 7369.213684703552, 76584.8772626969, 18901.149201530123, 17530.026141408223, 61235.08497894824, -0.094, 0.962, 0.244, 192.0, 0.0, 0.0, 0.0, 0.0, 0.0, 0.0, 0.0, 0.0, 0.0, 1.652790618810718E9, 0.0, 2022-05-17 14:30:18.810
215.0, 77292.242919474, 62366.08324838678, 27894.507693589654, 7412.151385802196, 75675.87651918847, 18955.03925741187, 17401.593017768027, 61131.328181186705, -0.096, 0.98, 0.24, 192.0, 253.0, 0.0, 30.0, 160.0, 7.0, 128.0, 0.0, 0.0, 0.0, 1.6527906188107238E9, 0.0, 2022-05-17 14:30:18.810
216.0, 77322.57423669986, 62397.7780220244, 27937.065415032557, 7458.531255546958, 74882.68016370299, 19035.10320605078, 17403.11293639099, 61117.4253961355, -0.096, 0.98, 0.24, 192.0, 0.0, 0.0, 0.0, 0.0, 0.0, 0.0, 0.0, 0.0, 0.0, 1.6527906188107293E9, 0.0, 2022-05-17 14:30:18.810
217.0, 77323.11067856678, 62373.83930371277, 27929.421118428843, 7431.70916220059, 75313.46533459012, 19049.54243296891, 17542.90074621448, 61236.76135978239, -0.096, 0.98, 0.24, 192.0, 0.0, 0.0, 0.0, 0.0, 0.0, 0.0, 0.0, 0.0, 0.0, 1.6527906188107347E9, 0.0, 2022-05-17 14:30:18.810
218.0, 77290.09715200629, 62330.16399504709, 27883.443580084277, 7378.266141207951, 76375.06143749494, 18958.481426057988, 17608.503116190805, 61333.924392929606, -0.096, 0.98, 0.24, 192.0, 0.0, 0.0, 0.0, 0.0, 0.0, 0.0, 0.0, 0.0, 0.0, 1.65279061881074E9, 0.0, 2022-05-17 14:30:18.810
219.0, 77276.06025648836, 62333.00266659292, 27876.067504414026, 7393.599437904291, 76587.2241958647, 18920.014073850405, 17518.26912382473, 61270.04310727634, -0.096, 0.98, 0.24, 192.0, 0.0, 0.0, 0.0, 0.0, 0.0, 0.0, 0.0, 0.0, 0.0, 1.6527906188107457E9, 0.0, 2022-05-17 14:30:18.810
220.0, 77287.90668104967, 62368.60899551022, 27893.56892032253, 7446.349554818816, 75661.50434750371, 18977.2792431449, 17388.58430249504, 61149.74601861787, -0.096, 0.98, 0.24, 192.0, 0.0, 0.0, 0.0, 0.0, 0.0, 0.0, 0.0, 0.0, 0.0, 1.6527906188107512E9, 0.0, 2022-05-17 14:30:18.810
221.0, 77321.74722215501, 62400.236713914484, 27932.125679507935, 7484.503982604026, 74849.80074760923, 19062.93112789764, 17389.79129669563, 61130.79173931977, -0.096, 0.98, 0.24, 192.0, 0.0, 0.0, 0.0, 0.0, 0.0, 0.0, 0.0, 0.0, 0.0, 1.6527906188107593E9, 0.0, 2022-05-17 14:30:18.810
222.0, 77325.36820475677, 62384.34462360676, 27923.050871259078, 7443.6002902508135, 75247.57239193587, 19057.63376446173, 17527.65685649596, 61226.36779861067, -0.096, 0.98, 0.24, 192.0, 0.0, 0.0, 0.0, 0.0, 0.0, 0.0, 0.0, 0.0, 0.0, 1.6527906188107648E9, 0.0, 2022-05-17 14:30:18.810
223.0, 77276.99902975548, 62329.426387480074, 27866.79153046507, 7386.22336223404, 76312.63301523126, 18963.510568560432, 17603.831601599646, 61322.56970674631, -0.096, 0.98, 0.24, 192.0, 0.0, 0.0, 0.0, 0.0, 0.0, 0.0, 0.0, 0.0, 0.0, 1.65279061881077E9, 0.0, 2022-05-17 14:30:18.810
224.0, 77260.27992490292, 62325.13485254465, 27865.450425797753, 7401.623714163747, 76555.84234664946, 18910.872210368183, 17514.75989994525, 61277.843866091236, -0.096, 0.98, 0.24, 192.0, 0.0, 0.0, 0.0, 0.0, 0.0, 0.0, 0.0, 0.0, 0.0, 1.6527906188107758E9, 0.0, 2022-05-17 14:30:18.810
225.0, 77274.24976518747, 62365.703268731035, 27891.601966810464, 7455.491418301037, 75618.92427431635, 18964.918728461114, 17366.05374408409, 61140.961783046936, -0.1, 0.992, 0.232, 192.0, 252.0, 224.0, 31.0, 0.0, 7.0, 64.0, 0.0, 0.0, 0.0, 1.6527906188107812E9, 0.0, 2022-05-17 14:30:18.810
226.0, 77316.53926569692, 62404.237676171986, 27929.15289749538, 7495.635151342768, 74788.1993398904, 19054.124540582245, 17372.133418575933, 61105.66837855201, -0.1, 0.992, 0.232, 192.0, 0.0, 0.0, 0.0, 0.0, 0.0, 0.0, 0.0, 0.0, 0.0, 1.6527906188107865E9, 0.0, 2022-05-17 14:30:18.810
227.0, 77326.70930942408, 62390.40194635415, 27926.2918742051, 7461.0346509259525, 75171.39764683219, 19061.25474706349, 17502.89112363948, 61190.53795224881, -0.1, 0.992, 0.232, 192.0, 0.0, 0.0, 0.0, 0.0, 0.0, 0.0, 0.0, 0.0, 0.0, 1.6527906188107917E9, 0.0, 2022-05-17 14:30:18.810
228.0, 77296.37799219824, 62347.732466188965, 27887.086914430492, 7404.305923498384, 76229.46217411305, 18983.85065601476, 17586.48664790233, 61274.66991837859, -0.1, 0.992, 0.232, 192.0, 0.0, 0.0, 0.0, 0.0, 0.0, 0.0, 0.0, 0.0, 0.0, 1.6527906188107972E9, 0.0, 2022-05-17 14:30:18.810
229.0, 77275.52381462143, 62337.85299513972, 27859.79543445056, 7400.684940896624, 76478.63942130083, 18931.435815267065, 17506.199181818865, 61225.36197011018, -0.1, 0.992, 0.232, 192.0, 0.0, 0.0, 0.0, 0.0, 0.0, 0.0, 0.0, 0.0, 0.0, 1.6527906188108025E9, 0.0, 2022-05-17 14:30:18.810
230.0, 77290.74535259549, 62374.48750430197, 27885.34347836298, 7455.267900856484, 75571.67268653783, 18984.409449626142, 17379.129514590444, 61112.66447456652, -0.1, 0.992, 0.232, 192.0, 0.0, 0.0, 0.0, 0.0, 0.0, 0.0, 0.0, 0.0, 0.0, 1.652790618810808E9, 0.0, 2022-05-17 14:30:18.810
231.0, 77332.87839089375, 62407.501030862455, 27928.012958528157, 7495.858668787321, 74738.62317068853, 19071.245976835013, 17382.59403498102, 61081.01440441781, -0.1, 0.992, 0.232, 192.0, 0.0, 0.0, 0.0, 0.0, 0.0, 0.0, 0.0, 0.0, 0.0, 1.6527906188108132E9, 0.0, 2022-05-17 14:30:18.810
232.0, 77337.0581671069, 62384.501085817945, 27911.71853682024, 7458.531255546958, 75134.47256499203, 19058.86311040677, 17508.836687664592, 61184.48062950142, -0.1, 0.992, 0.232, 192.0, 0.0, 0.0, 0.0, 0.0, 0.0, 0.0, 0.0, 0.0, 0.0, 1.652790618810819E9, 0.0, 2022-05-17 14:30:18.810
233.0, 77315.04169881842, 62340.37874226317, 27865.718646731217, 7407.546926444403, 76179.64013572218, 18969.456132585543, 17579.781124565736, 61254.709810579996, -0.1, 0.992, 0.232, 192.0, 0.0, 0.0, 0.0, 0.0, 0.0, 0.0, 0.0, 0.0, 0.0, 1.6527906188108244E9, 0.0, 2022-05-17 14:30:18.810
234.0, 77293.42756193013, 62327.03475082335, 27847.345512788954, 7400.41671996316, 76420.25666478356, 18917.77889940487, 17485.836742620082, 61189.755641192874, -0.1, 0.992, 0.232, 192.0, 0.0, 0.0, 0.0, 0.0, 0.0, 0.0, 0.0, 0.0, 0.0, 1.6527906188108296E9, 0.0, 2022-05-17 14:30:18.810
235.0, 77306.65979464767, 62360.182387850575, 27877.743885248172, 7452.362174077293, 75492.25693848812, 18965.70103951705, 17357.604784679985, 61055.75693318331, -0.09, 0.99, 0.222, 192.0, 253.0, 48.0, 30.0, 240.0, 6.0, 240.0, 0.0, 0.0, 0.0, 1.6527906188108375E9, 0.0, 2022-05-17 14:30:18.810
236.0, 77349.61984749077, 62401.577818581805, 27922.983816025713, 7498.451471144137, 74644.92465793189, 19078.175017616155, 17379.1518663349, 61020.97761881085, -0.09, 0.99, 0.222, 192.0, 0.0, 0.0, 0.0, 0.0, 0.0, 0.0, 0.0, 0.0, 0.0, 1.6527906188108428E9, 0.0, 2022-05-17 14:30:18.810
237.0, 77348.79283294592, 62377.34852759225, 27899.246263414178, 7456.899578201721, 75056.57673556528, 19082.891235696225, 17512.994112133278, 61148.516672672835, -0.09, 0.99, 0.222, 192.0, 0.0, 0.0, 0.0, 0.0, 0.0, 0.0, 0.0, 0.0, 0.0, 1.652790618810848E9, 0.0, 2022-05-17 14:30:18.810
238.0, 77320.76374539897, 62334.455529982515, 27851.45823376873, 7394.158231515674, 76148.66061790712, 18976.653394300152, 17578.9988135098, 61251.26764193388, -0.09, 0.99, 0.222, 192.0, 0.0, 0.0, 0.0, 0.0, 0.0, 0.0, 0.0, 0.0, 0.0, 1.6527906188108535E9, 0.0, 2022-05-17 14:30:18.810
239.0, 77301.16126551166, 62325.00074207792, 27830.358187002923, 7386.826859334334, 76427.36451952036, 18915.07433832578, 17491.536437456183, 61202.36202506567, -0.09, 0.99, 0.222, 192.0, 0.0, 0.0, 0.0, 0.0, 0.0, 0.0, 0.0, 0.0, 0.0, 1.652790618810859E9, 0.0, 2022-05-17 14:30:18.810
240.0, 77321.36724249927, 62370.933576933574, 27881.096646916467, 7457.7489444910225, 75509.69129916326, 19005.017758013935, 17368.735953418727, 61068.63153798957, -0.09, 0.99, 0.222, 192.0, 0.0, 0.0, 0.0, 0.0, 0.0, 0.0, 0.0, 0.0, 0.0, 1.6527906188108647E9, 0.0, 2022-05-17 14:30:18.810
241.0, 77351.00565564701, 62400.728452292504, 27910.265673430644, 7505.268753203006, 74678.74284729277, 19099.96796846008, 17382.72814544775, 61050.83954940314, -0.09, 0.99, 0.222, 192.0, 0.0, 0.0, 0.0, 0.0, 0.0, 0.0, 0.0, 0.0, 0.0, 1.6527906192888744E9, 0.0, 2022-05-17 14:30:19.288
242.0, 77348.34579805682, 62374.4204490686, 27891.825484255016, 7465.393241094737, 75102.48721867648, 19093.173038145665, 17516.525687757217, 61189.08508885922, -0.09, 0.99, 0.222, 192.0, 0.0, 0.0, 0.0, 0.0, 0.0, 0.0, 0.0, 0.0, 0.0, 1.6527906192890701E9, 0.0, 2022-05-17 14:30:19.289
243.0, 77318.21564653107, 62329.24757352443, 27852.754634947138, 7408.396292733704, 76194.54874927388, 18993.461906130542, 17584.229121712342, 61285.689328395056, -0.09, 0.99, 0.222, 192.0, 0.0, 0.0, 0.0, 0.0, 0.0, 0.0, 0.0, 0.0, 0.0, 1.6527906192891042E9, 0.0, 2022-05-17 14:30:19.289
244.0, 77289.96304153957, 62320.53039318686, 27831.676939925783, 7402.249563008495, 76498.06308723248, 18926.36196927571, 17485.970853086812, 61249.41244714409, -0.09, 0.99, 0.222, 192.0, 0.0, 0.0, 0.0, 0.0, 0.0, 0.0, 0.0, 0.0, 0.0, 1.6527906192891104E9, 0.0, 2022-05-17 14:30:19.289
245.0, 77309.72198363805, 62367.938443176565, 27873.877033457404, 7468.9024649742205, 75603.65803285337, 18991.80787704085, 17357.895357357902, 61129.02595150781, -0.094, 0.992, 0.214, 192.0, 253.0, 16.0, 31.0, 0.0, 6.0, 176.0, 0.0, 0.0, 0.0, 1.652790619289116E9, 0.0, 2022-05-17 14:30:19.289
246.0, 77346.44589977812, 62400.61669357023, 27913.28315893211, 7508.777977082489, 74777.8504822076, 19083.07004965187, 17368.15480806289, 61113.46913736691, -0.094, 0.992, 0.214, 192.0, 0.0, 0.0, 0.0, 0.0, 0.0, 0.0, 0.0, 0.0, 0.0, 1.652790619289122E9, 0.0, 2022-05-17 14:30:19.289
247.0, 77354.44782429312, 62384.94812070706, 27905.817676284038, 7479.8771715017765, 75179.53368181392, 19084.567616530374, 17504.65691145145, 61227.083054433235, -0.094, 0.992, 0.214, 192.0, 0.0, 0.0, 0.0, 0.0, 0.0, 0.0, 0.0, 0.0, 0.0, 1.652790619289128E9, 0.0, 2022-05-17 14:30:19.289
248.0, 77320.62963493224, 62332.779149148366, 27855.056864626036, 7412.75488290249, 76292.89642487722, 18996.27822593191, 17582.418630411463, 61339.42292206561, -0.094, 0.992, 0.214, 192.0, 0.0, 0.0, 0.0, 0.0, 0.0, 0.0, 0.0, 0.0, 0.0, 1.6527906192891335E9, 0.0, 2022-05-17 14:30:19.289
249.0, 77301.07185853385, 62324.21843102198, 27836.03553009457, 7406.451690966093, 76607.8772077414, 18939.862422926715, 17490.374146744507, 61306.49880248294, -0.094, 0.992, 0.214, 192.0, 0.0, 0.0, 0.0, 0.0, 0.0, 0.0, 0.0, 0.0, 0.0, 1.6527906192891395E9, 0.0, 2022-05-17 14:30:19.289
250.0, 77318.01448083097, 62364.585681508266, 27879.464969571232, 7462.420459082182, 75702.5197985792, 19000.86033354525, 17352.374476477442, 61179.49619048789, -0.094, 0.992, 0.214, 192.0, 0.0, 0.0, 0.0, 0.0, 0.0, 0.0, 0.0, 0.0, 0.0, 1.6527906192891452E9, 0.0, 2022-05-17 14:30:19.289
251.0, 77358.58289701735, 62402.56129533784, 27922.022691014135, 7507.861555559821, 74841.30708471622, 19088.68033751015, 17359.705848658785, 61145.96857380493, -0.094, 0.992, 0.214, 192.0, 0.0, 0.0, 0.0, 0.0, 0.0, 0.0, 0.0, 0.0, 0.0, 1.6527906192891507E9, 0.0, 2022-05-17 14:30:19.289
252.0, 77370.9657634456, 62387.29505387486, 27918.84874330148, 7478.312549389905, 75225.08653701383, 19093.083631167847, 17496.65498693645, 61259.40367691561, -0.094, 0.992, 0.214, 192.0, 0.0, 0.0, 0.0, 0.0, 0.0, 0.0, 0.0, 0.0, 0.0, 1.652790619289157E9, 0.0, 2022-05-17 14:30:19.289
253.0, 77349.3069230684, 62347.39719002214, 27884.94114696278, 7420.130958572741, 76335.70001550914, 19006.314159192345, 17578.86470304307, 61367.49671310148, -0.094, 0.992, 0.214, 192.0, 0.0, 0.0, 0.0, 0.0, 0.0, 0.0, 0.0, 0.0, 0.0, 1.6527906192891626E9, 0.0, 2022-05-17 14:30:19.289
254.0, 77323.24478903352, 62339.082341084766, 27866.70212348725, 7414.095987569808, 76637.67208310033, 18932.016960622903, 17484.227417019298, 61309.20336356203, -0.094, 0.992, 0.214, 192.0, 0.0, 0.0, 0.0, 0.0, 0.0, 0.0, 0.0, 0.0, 0.0, 1.6527906192891684E9, 0.0, 2022-05-17 14:30:19.289
255.0, 77342.37788228726, 62380.00838518243, 27894.172417422822, 7471.495267331036, 75728.0231390027, 18983.3812693812, 17347.322982230544, 61168.32031826024, -0.106, 1.0, 0.214, 192.0, 252.0, 176.0, 31.0, 64.0, 6.0, 176.0, 0.0, 0.0, 0.0, 1.6527906192891743E9, 0.0, 2022-05-17 14:30:19.289
0.0, 77384.6673827967, 62417.13463272269, 27936.32780746553, 7515.282334718983, 74847.34205571914, 19085.886369453237, 17356.822473624048, 61121.38165490409, -0.106, 1.0, 0.214, 192.0, 0.0, 0.0, 0.0, 0.0, 0.0, 0.0, 0.0, 0.0, 0.0, 1.652790619289189E9, 0.0, 2022-05-17 14:30:19.289
1.0, 77392.19992067813, 62395.18521966758, 27927.25299921668, 7481.352386635827, 75229.51218241599, 19099.74445101553, 17496.99026310328, 61241.634040073644, -0.106, 1.0, 0.214, 192.0, 0.0, 0.0, 0.0, 0.0, 0.0, 0.0, 0.0, 0.0, 0.0, 1.652790619289195E9, 0.0, 2022-05-17 14:30:19.289
2.0, 77368.68588551115, 62350.77230343489, 27884.33764986249, 7417.918135871665, 76336.54938179844, 19012.61735112874, 17575.82486579715, 61345.8825762132, -0.106, 1.0, 0.214, 192.0, 0.0, 0.0, 0.0, 0.0, 0.0, 0.0, 0.0, 0.0, 0.0, 1.6527906192892003E9, 0.0, 2022-05-17 14:30:19.289
3.0, 77341.21559157557, 62336.064855583296, 27861.248297840157, 7408.329237500338, 76632.79940280908, 18948.289030586366, 17482.595739674063, 61279.00615680291, -0.106, 1.0, 0.214, 192.0, 0.0, 0.0, 0.0, 0.0, 0.0, 0.0, 0.0, 0.0, 0.0, 1.6527906192892056E9, 0.0, 2022-05-17 14:30:19.289
4.0, 77357.91234468369, 62379.606053782234, 27891.95959472175, 7473.5963313098355, 75714.38857488497, 18997.820496299326, 17350.742799132204, 61133.272782954315, -0.106, 1.0, 0.214, 192.0, 0.0, 0.0, 0.0, 0.0, 0.0, 0.0, 0.0, 0.0, 0.0, 1.652790619289211E9, 0.0, 2022-05-17 14:30:19.289
5.0, 77389.07067645439, 62412.5301733649, 27925.509563149164, 7512.15309049524, 74837.55199164772, 19090.714346255583, 17357.157749790877, 61099.007558704325, -0.106, 1.0, 0.214, 192.0, 0.0, 0.0, 0.0, 0.0, 0.0, 0.0, 0.0, 0.0, 0.0, 1.6527906192892165E9, 0.0, 2022-05-17 14:30:19.289
6.0, 77398.99485099255, 62399.29794064736, 27928.14706899489, 7488.706110561623, 75196.63276632223, 19105.39944236272, 17496.923207869913, 61211.19096412551, -0.106, 1.0, 0.214, 192.0, 0.0, 0.0, 0.0, 0.0, 0.0, 0.0, 0.0, 0.0, 0.0, 1.6527906192892215E9, 0.0, 2022-05-17 14:30:19.289
7.0, 77363.29911509743, 62351.174634835086, 27877.27449861461, 7421.13678707323, 76301.72536393708, 19012.81851682884, 17574.036726240724, 61320.75921544543, -0.106, 1.0, 0.214, 192.0, 0.0, 0.0, 0.0, 0.0, 0.0, 0.0, 0.0, 0.0, 0.0, 1.652790619289227E9, 0.0, 2022-05-17 14:30:19.289
8.0, 77335.78411767294, 62340.78107366337, 27857.94023966077, 7415.101816070297, 76607.18430366329, 18943.729274717483, 17476.98545181578, 61255.13449372465, -0.106, 1.0, 0.214, 192.0, 0.0, 0.0, 0.0, 0.0, 0.0, 0.0, 0.0, 0.0, 0.0, 1.6527906192892325E9, 0.0, 2022-05-17 14:30:19.289
9.0, 77356.88416443874, 62389.50787657594, 27901.794362282082, 7487.074433216386, 75677.17292036688, 19014.718415107538, 17350.698095643296, 61093.93371271298, -0.114, 1.01, 0.20400000000000001, 192.0, 252.0, 112.0, 31.0, 144.0, 6.0, 96.0, 0.0, 0.0, 0.0, 1.6527906192892377E9, 0.0, 2022-05-17 14:30:19.289
10.0, 77373.2679931245, 62405.95876049504, 27930.71751960725, 7517.450453931147, 74775.77176997326, 19115.59183783434, 17346.518319430153, 61045.49748247832, -0.114, 1.01, 0.20400000000000001, 192.0, 0.0, 0.0, 0.0, 0.0, 0.0, 0.0, 0.0, 0.0, 0.0, 1.6527906192892432E9, 0.0, 2022-05-17 14:30:19.289
11.0, 77368.41766457769, 62378.711984004025, 27911.00328099767, 7480.324206390883, 75124.83896313178, 19123.459651882607, 17472.045716291155, 61161.033649567806, -0.114, 1.01, 0.20400000000000001, 192.0, 0.0, 0.0, 0.0, 0.0, 0.0, 0.0, 0.0, 0.0, 0.0, 1.6527906192892487E9, 0.0, 2022-05-17 14:30:19.289
12.0, 77334.30890253889, 62337.04833233933, 27863.662286241328, 7419.773330661456, 76217.32517687383, 19030.565801926354, 17544.822996237635, 61258.956642026504, -0.114, 1.01, 0.20400000000000001, 192.0, 0.0, 0.0, 0.0, 0.0, 0.0, 0.0, 0.0, 0.0, 0.0, 1.652790619289254E9, 0.0, 2022-05-17 14:30:19.289
13.0, 77309.4537627046, 62327.884117112655, 27847.636085466875, 7415.772368403956, 76520.48188692116, 18952.46880679951, 17450.252765447232, 61185.218237068446, -0.114, 1.01, 0.20400000000000001, 192.0, 0.0, 0.0, 0.0, 0.0, 0.0, 0.0, 0.0, 0.0, 0.0, 1.6527906192892592E9, 0.0, 2022-05-17 14:30:19.289
14.0, 77333.5489432274, 62375.20276012454, 27889.52325457612, 7484.459279115114, 75596.57252986105, 19010.449231916577, 17310.062624223545, 61032.33230499415, -0.114, 1.01, 0.20400000000000001, 192.0, 0.0, 0.0, 0.0, 0.0, 0.0, 0.0, 0.0, 0.0, 0.0, 1.6527906192892647E9, 0.0, 2022-05-17 14:30:19.289
15.0, 77362.8073767194, 62412.66428383163, 27931.43277542982, 7534.057800061441, 74676.91000424743, 19122.029140237468, 17308.98974048969, 60982.21969392535, -0.114, 1.01, 0.20400000000000001, 192.0, 0.0, 0.0, 0.0, 0.0, 0.0, 0.0, 0.0, 0.0, 0.0, 1.6527906192892704E9, 0.0, 2022-05-17 14:30:19.289
16.0, 77369.08821691135, 62395.96753072352, 27925.755432338174, 7508.845032315855, 75005.03361285134, 19139.709370101617, 17456.73477133927, 61089.08338416617, -0.114, 1.01, 0.20400000000000001, 192.0, 0.0, 0.0, 0.0, 0.0, 0.0, 0.0, 0.0, 0.0, 0.0, 1.652790619289276E9, 0.0, 2022-05-17 14:30:19.289
17.0, 77344.6577602217, 62350.92876564607, 27881.633088783397, 7447.802418208411, 76088.5567770668, 19042.456929976575, 17542.05137992518, 61183.63126321212, -0.114, 1.01, 0.20400000000000001, 192.0, 0.0, 0.0, 0.0, 0.0, 0.0, 0.0, 0.0, 0.0, 0.0, 1.652790619289282E9, 0.0, 2022-05-17 14:30:19.289
18.0, 77315.06405056287, 62337.78593990635, 27858.2755158276, 7436.358325047294, 76404.05165005346, 18961.968298193016, 17444.82129154459, 61118.319465913715, -0.10200000000000001, 1.02, 0.194, 192.0, 252.0, 208.0, 31.0, 224.0, 6.0, 16.0, 0.0, 0.0, 0.0, 1.6527906192892883E9, 0.0, 2022-05-17 14:30:19.289
19.0, 77337.66166420719, 62388.68086203109, 27892.27251914412, 7505.358160180826, 75461.14331020633, 19007.677615604116, 17292.270635637124, 60942.09831262807, -0.10200000000000001, 1.02, 0.194, 192.0, 0.0, 0.0, 0.0, 0.0, 0.0, 0.0, 0.0, 0.0, 0.0, 1.6527906192892945E9, 0.0, 2022-05-17 14:30:19.289
20.0, 77373.78208324696, 62428.37756018372, 27926.090708505002, 7552.341527025882, 74517.00562441416, 19111.2108959211, 17290.549551314063, 60871.109172238015, -0.10200000000000001, 1.02, 0.194, 192.0, 0.0, 0.0, 0.0, 0.0, 0.0, 0.0, 0.0, 0.0, 0.0, 1.6527906192893012E9, 0.0, 2022-05-17 14:30:19.289
21.0, 77374.89967046972, 62403.187144182586, 27922.447374158786, 7519.81973884341, 74829.907695044, 19124.621942594284, 17443.41313164391, 60970.037993197206, -0.10200000000000001, 1.02, 0.194, 192.0, 0.0, 0.0, 0.0, 0.0, 0.0, 0.0, 0.0, 0.0, 0.0, 1.6527906192893078E9, 0.0, 2022-05-17 14:30:19.289
22.0, 77347.22821083406, 62357.54488200485, 27880.739019005185, 7457.346613090827, 75907.79821965673, 19039.081816563823, 17542.297249114188, 61056.04750586123, -0.10200000000000001, 1.02, 0.194, 192.0, 0.0, 0.0, 0.0, 0.0, 0.0, 0.0, 0.0, 0.0, 0.0, 1.6527906192893307E9, 0.0, 2022-05-17 14:30:19.289
23.0, 77319.04266107592, 62341.00459110792, 27857.00146639365, 7447.958880419598, 76219.96268271956, 18967.667993029117, 17456.287736450166, 60980.230388668824, -0.10200000000000001, 1.02, 0.194, 192.0, 0.0, 0.0, 0.0, 0.0, 0.0, 0.0, 0.0, 0.0, 0.0, 1.652790619289336E9, 0.0, 2022-05-17 14:30:19.289
24.0, 77336.99111187353, 62383.62936778419, 27887.66805978633, 7512.220145728606, 75285.77152321, 19011.678577861618, 17315.315284170545, 60812.48054653175, -0.10200000000000001, 1.02, 0.194, 192.0, 0.0, 0.0, 0.0, 0.0, 0.0, 0.0, 0.0, 0.0, 0.0, 1.6527906192893414E9, 0.0, 2022-05-17 14:30:19.289
25.0, 77376.24077513705, 62419.72743507951, 27925.01782477115, 7554.442591004681, 74324.53475290952, 19104.572427817875, 17307.71569105574, 60732.32719091501, -0.10200000000000001, 1.02, 0.194, 192.0, 0.0, 0.0, 0.0, 0.0, 0.0, 0.0, 0.0, 0.0, 0.0, 1.6527906192893467E9, 0.0, 2022-05-17 14:30:19.289
26.0, 77388.51188284301, 62401.95779823754, 27926.448336416288, 7526.413503457726, 74611.15117205992, 19123.012616993503, 17449.35869566902, 60816.012122155684, -0.10200000000000001, 1.02, 0.194, 192.0, 0.0, 0.0, 0.0, 0.0, 0.0, 0.0, 0.0, 0.0, 0.0, 1.652790619289352E9, 0.0, 2022-05-17 14:30:19.289
27.0, 77354.98426616004, 62349.36414353421, 27887.80217025306, 7459.246511369528, 75688.34879259454, 19029.00117981448, 17532.775405976226, 60899.00414931824, -0.10200000000000001, 1.02, 0.194, 192.0, 0.0, 0.0, 0.0, 0.0, 0.0, 0.0, 0.0, 0.0, 0.0, 1.6527906192893577E9, 0.0, 2022-05-17 14:30:19.289
28.0, 77332.23019030454, 62341.27281204138, 27864.958687419738, 7457.011336923998, 76011.82323835173, 18966.840978484273, 17446.69883807884, 60819.49899429071, -0.09, 1.02, 0.19, 192.0, 253.0, 48.0, 31.0, 224.0, 5.0, 240.0, 0.0, 0.0, 0.0, 1.652790619289363E9, 0.0, 2022-05-17 14:30:19.289
29.0, 77349.68690272413, 62380.790696238364, 27893.546568578073, 7518.7915585984665, 75099.44738143055, 19015.031339529913, 17313.393034147386, 60661.58391971397, -0.09, 1.02, 0.19, 192.0, 0.0, 0.0, 0.0, 0.0, 0.0, 0.0, 0.0, 0.0, 0.0, 1.6527906192893682E9, 0.0, 2022-05-17 14:30:19.289
30.0, 77382.63337405126, 62413.75951930995, 27926.20246722728, 7560.097582351874, 74140.46813732006, 19102.44901209462, 17307.782746289104, 60584.40334610979, -0.09, 1.02, 0.19, 192.0, 0.0, 0.0, 0.0, 0.0, 0.0, 0.0, 0.0, 0.0, 0.0, 1.6527906192893736E9, 0.0, 2022-05-17 14:30:19.289
31.0, 77392.64695556724, 62398.02389121341, 27918.647577601383, 7530.146244781762, 74406.67741378277, 19120.173945447677, 17436.193518184846, 60650.94448935324, -0.09, 1.02, 0.19, 192.0, 0.0, 0.0, 0.0, 0.0, 0.0, 0.0, 0.0, 0.0, 0.0, 1.652790619289379E9, 0.0, 2022-05-17 14:30:19.289
32.0, 77357.3088475834, 62344.35735277621, 27868.177338621303, 7458.0395171689415, 75499.56595892501, 19025.33549372381, 17527.254525095766, 60745.291202699096, -0.09, 1.02, 0.19, 192.0, 0.0, 0.0, 0.0, 0.0, 0.0, 0.0, 0.0, 0.0, 0.0, 1.6527906192893841E9, 0.0, 2022-05-17 14:30:19.289
33.0, 77343.92015265467, 62339.8646521407, 27851.99467563566, 7452.675098499668, 75842.82169852516, 18944.064550884315, 17430.02443671518, 60675.777277443085, -0.09, 1.02, 0.19, 192.0, 0.0, 0.0, 0.0, 0.0, 0.0, 0.0, 0.0, 0.0, 0.0, 1.65279061928939E9, 0.0, 2022-05-17 14:30:19.289
34.0, 77361.01923716298, 62382.17650439459, 27884.56116730704, 7515.416445185715, 74931.29520789329, 19007.118821992735, 17296.159839172346, 60511.51430744104, -0.09, 1.02, 0.19, 192.0, 0.0, 0.0, 0.0, 0.0, 0.0, 0.0, 0.0, 0.0, 0.0, 1.652790619289395E9, 0.0, 2022-05-17 14:30:19.289
35.0, 77398.50311261453, 62423.43782465909, 27929.555228895573, 7567.093678366385, 73992.38783030365, 19113.49077385554, 17298.193847917777, 60456.37255386979, -0.09, 1.02, 0.19, 192.0, 0.0, 0.0, 0.0, 0.0, 0.0, 0.0, 0.0, 0.0, 0.0, 1.6527906192894008E9, 0.0, 2022-05-17 14:30:19.289
36.0, 77412.80822906592, 62402.67305406011, 27924.52608639313, 7537.455265218648, 74274.28803137399, 19124.264314682998, 17442.630820587972, 60546.71830495814, -0.09, 1.02, 0.19, 192.0, 0.0, 0.0, 0.0, 0.0, 0.0, 0.0, 0.0, 0.0, 0.0, 1.652790619289406E9, 0.0, 2022-05-17 14:30:19.289
37.0, 77393.74219104555, 62360.607070995226, 27886.32695511901, 7480.212447668607, 75348.66933210724, 19029.694083892595, 17534.742359488293, 60620.68022736075, -0.09, 1.02, 0.19, 192.0, 0.0, 0.0, 0.0, 0.0, 0.0, 0.0, 0.0, 0.0, 0.0, 1.6527906192894115E9, 0.0, 2022-05-17 14:30:19.289
38.0, 77364.75197848702, 62340.75872191891, 27861.583574006985, 7467.203732395617, 75732.24761870476, 18964.628155783197, 17456.73477133927, 60578.65894778478, -0.07200000000000001, 1.02, 0.188, 192.0, 253.0, 192.0, 31.0, 224.0, 5.0, 224.0, 0.0, 0.0, 0.0, 1.6527906192894168E9, 0.0, 2022-05-17 14:30:19.289
39.0, 77375.1678914032, 62376.0744781583, 27883.153007406356, 7517.24928823105, 74843.98929405086, 18991.718470063028, 17294.41640310483, 60424.253097087516, -0.07200000000000001, 1.02, 0.188, 192.0, 0.0, 0.0, 0.0, 0.0, 0.0, 0.0, 0.0, 0.0, 0.0, 1.6527906192894223E9, 0.0, 2022-05-17 14:30:19.289
40.0, 77408.62845285279, 62412.10549022025, 27921.195676469288, 7561.125762596818, 73885.65825052957, 19078.376183316253, 17265.4261905463, 60347.72072407255, -0.07200000000000001, 1.02, 0.188, 192.0, 0.0, 0.0, 0.0, 0.0, 0.0, 0.0, 0.0, 0.0, 0.0, 1.6527906192894275E9, 0.0, 2022-05-17 14:30:19.289
41.0, 77417.0774122569, 62391.58658881028, 27917.529990378618, 7527.48638719158, 74167.42434113317, 19089.19442763262, 17403.001177668713, 60440.324001350884, -0.07200000000000001, 1.02, 0.188, 192.0, 0.0, 0.0, 0.0, 0.0, 0.0, 0.0, 0.0, 0.0, 0.0, 1.6527906192894328E9, 0.0, 2022-05-17 14:30:19.289
42.0, 77394.41274337922, 62345.58669872126, 27879.62143178242, 7467.494305073536, 75289.9736511676, 19015.791298841395, 17507.584989975094, 60560.12935163133, -0.07200000000000001, 1.02, 0.188, 192.0, 0.0, 0.0, 0.0, 0.0, 0.0, 0.0, 0.0, 0.0, 0.0, 1.652790619289438E9, 0.0, 2022-05-17 14:30:19.289
43.0, 77378.54300481595, 62341.9657161195, 27872.692391001274, 7468.187209151651, 75680.59273726854, 18960.09075165877, 17461.719210352803, 60517.77279588852, -0.07200000000000001, 1.02, 0.188, 192.0, 0.0, 0.0, 0.0, 0.0, 0.0, 0.0, 0.0, 0.0, 0.0, 1.6527906192894485E9, 0.0, 2022-05-17 14:30:19.289
44.0, 77395.44092362415, 62383.89758871766, 27899.872112258927, 7522.613706900323, 74761.77957794424, 18983.113048447736, 17296.763336272637, 60328.16294767415, -0.07200000000000001, 1.02, 0.188, 192.0, 0.0, 0.0, 0.0, 0.0, 0.0, 0.0, 0.0, 0.0, 0.0, 1.6527906192894535E9, 0.0, 2022-05-17 14:30:19.289
45.0, 77432.23189499759, 62423.59428687028, 27937.266580732656, 7571.16169585725, 73807.38244144707, 19072.989412902523, 17285.453353578254, 60257.71024915102, -0.07200000000000001, 1.02, 0.188, 192.0, 0.0, 0.0, 0.0, 0.0, 0.0, 0.0, 0.0, 0.0, 0.0, 1.652790619289459E9, 0.0, 2022-05-17 14:30:19.289
46.0, 77452.46022372965, 62420.01800775743, 27942.206316257278, 7556.767172428033, 74085.66165991566, 19102.11373592779, 17429.108015192513, 60353.75569507548, -0.07200000000000001, 1.02, 0.188, 192.0, 0.0, 0.0, 0.0, 0.0, 0.0, 0.0, 0.0, 0.0, 0.0, 1.6527906192894645E9, 0.0, 2022-05-17 14:30:19.289
47.0, 77419.55845589143, 62363.51279777441, 27888.67388828682, 7482.157049436218, 75189.16728367416, 19011.186839483602, 17509.909571398446, 60456.551367825436, -0.07200000000000001, 1.02, 0.188, 192.0, 0.0, 0.0, 0.0, 0.0, 0.0, 0.0, 0.0, 0.0, 0.0, 1.6527906192894697E9, 0.0, 2022-05-17 14:30:19.289
48.0, 77394.88213001277, 62345.81021616581, 27860.018951895116, 7462.688680015645, 75593.95737575977, 18935.995571135947, 17436.39468388494, 60415.446509772126, -0.062, 1.01, 0.198, 192.0, 254.0, 16.0, 31.0, 144.0, 6.0, 48.0, 0.0, 0.0, 0.0, 1.6527906192894752E9, 0.0, 2022-05-17 14:30:19.289
49.0, 77410.9753860206, 62377.661452014625, 27881.99071669468, 7509.381474182782, 74716.1373157665, 18978.218016412022, 17289.253150135657, 60254.69276364956, -0.062, 1.01, 0.198, 192.0, 0.0, 0.0, 0.0, 0.0, 0.0, 0.0, 0.0, 0.0, 0.0, 1.6527906192894807E9, 0.0, 2022-05-17 14:30:19.289
50.0, 77449.48744171708, 62420.64385660218, 27918.960502023758, 7556.588358472391, 73739.96958016987, 19081.01368916198, 17276.535007540584, 60163.58705324973, -0.062, 1.01, 0.198, 192.0, 0.0, 0.0, 0.0, 0.0, 0.0, 0.0, 0.0, 0.0, 0.0, 1.6527906192894864E9, 0.0, 2022-05-17 14:30:19.289
51.0, 77467.36883728133, 62408.618618085224, 27918.982853768215, 7535.912994851232, 73999.22746410698, 19125.717178072595, 17423.430672100865, 60248.5236821799, -0.062, 1.01, 0.198, 192.0, 0.0, 0.0, 0.0, 0.0, 0.0, 0.0, 0.0, 0.0, 0.0, 1.652790619289492E9, 0.0, 2022-05-17 14:30:19.289
52.0, 77447.4310812272, 62364.13864661916, 27880.247280627165, 7469.0142236964975, 75118.96045434003, 19028.352979225278, 17517.710330213347, 60363.65751786918, -0.062, 1.01, 0.198, 192.0, 0.0, 0.0, 0.0, 0.0, 0.0, 0.0, 0.0, 0.0, 0.0, 1.6527906192894976E9, 0.0, 2022-05-17 14:30:19.289
53.0, 77427.4262699397, 62352.7169052025, 27857.292039071566, 7458.5089038025035, 75547.80102345956, 18955.575699278797, 17440.12742520898, 60332.85681400977, -0.062, 1.01, 0.198, 192.0, 0.0, 0.0, 0.0, 0.0, 0.0, 0.0, 0.0, 0.0, 0.0, 1.652790619289503E9, 0.0, 2022-05-17 14:30:19.289
54.0, 77440.36792997931, 62388.30088237535, 27881.878957972403, 7516.131701008285, 74702.2345307153, 19007.252932459465, 17298.730289784704, 60193.04665244182, -0.062, 1.01, 0.198, 192.0, 0.0, 0.0, 0.0, 0.0, 0.0, 0.0, 0.0, 0.0, 0.0, 1.6527906192895083E9, 0.0, 2022-05-17 14:30:19.289
55.0, 77470.72159894963, 62420.62150485772, 27916.054775244567, 7555.806047416455, 73735.49923127881, 19076.833912948838, 17268.600138258953, 60115.866078837644, -0.062, 1.01, 0.198, 192.0, 0.0, 0.0, 0.0, 0.0, 0.0, 0.0, 0.0, 0.0, 0.0, 1.6527906192895143E9, 0.0, 2022-05-17 14:30:19.289
56.0, 77484.84790144538, 62412.97720825401, 27921.598007869485, 7537.477616963103, 73996.92523442808, 19096.615206791783, 17421.84369824454, 60214.0125887409, -0.062, 1.01, 0.198, 192.0, 0.0, 0.0, 0.0, 0.0, 0.0, 0.0, 0.0, 0.0, 0.0, 1.65279061928952E9, 0.0, 2022-05-17 14:30:19.289
57.0, 77465.75951168055, 62371.49237054496, 27882.4824550727, 7478.7595842790115, 75119.6310066737, 19029.358807725766, 17523.74530121628, 60336.656610567166, -0.062, 1.01, 0.198, 192.0, 0.0, 0.0, 0.0, 0.0, 0.0, 0.0, 0.0, 0.0, 0.0, 1.6527906192895253E9, 0.0, 2022-05-17 14:30:19.289
58.0, 77445.66529341522, 62355.82379768179, 27852.397007035855, 7459.961767192098, 75557.61343927545, 18954.078132400293, 17434.472433861785, 60309.29807535387, -0.054, 1.016, 0.202, 192.0, 254.0, 80.0, 31.0, 192.0, 6.0, 80.0, 0.0, 0.0, 0.0, 1.6527906192895308E9, 0.0, 2022-05-17 14:30:19.289
59.0, 77454.74010166408, 62387.25035038595, 27874.145254390867, 7513.1589189957285, 74721.4346792024, 18996.76996430993, 17295.556342072054, 60176.46165805598, -0.054, 1.016, 0.202, 192.0, 0.0, 0.0, 0.0, 0.0, 0.0, 0.0, 0.0, 0.0, 0.0, 1.6527906192895367E9, 0.0, 2022-05-17 14:30:19.289
60.0, 77493.36391608286, 62419.36980716823, 27915.786554311104, 7561.349280041371, 73761.51666182479, 19095.944654458126, 17277.27261510761, 60110.345197957184, -0.054, 1.016, 0.202, 192.0, 0.0, 0.0, 0.0, 0.0, 0.0, 0.0, 0.0, 0.0, 0.0, 1.652790619289542E9, 0.0, 2022-05-17 14:30:19.289
61.0, 77514.41925935975, 62408.126879707204, 27915.56303686655, 7539.779846642, 73999.49568504044, 19104.34891037332, 17403.91759919138, 60194.72303327597, -0.054, 1.016, 0.202, 192.0, 0.0, 0.0, 0.0, 0.0, 0.0, 0.0, 0.0, 0.0, 0.0, 1.6527906192895477E9, 0.0, 2022-05-17 14:30:19.289
62.0, 77492.91688119374, 62362.1716931071, 27873.385295079388, 7478.401956367727, 75105.7282216225, 19015.3889674412, 17514.625789478516, 60309.61099977625, -0.054, 1.016, 0.202, 192.0, 0.0, 0.0, 0.0, 0.0, 0.0, 0.0, 0.0, 0.0, 0.0, 1.6527906192895532E9, 0.0, 2022-05-17 14:30:19.289
63.0, 77465.781863425, 62341.518681230395, 27848.46310001172, 7463.985081194053, 75554.59595377397, 18947.216146852512, 17451.437407903362, 60289.606188488746, -0.054, 1.016, 0.202, 192.0, 0.0, 0.0, 0.0, 0.0, 0.0, 0.0, 0.0, 0.0, 0.0, 1.6527906192895584E9, 0.0, 2022-05-17 14:30:19.289
64.0, 77490.56994802594, 62387.74208876397, 27883.04124868408, 7524.826529601399, 74691.30452767665, 18982.688365303085, 17302.351272386466, 60123.80094811928, -0.054, 1.016, 0.202, 192.0, 0.0, 0.0, 0.0, 0.0, 0.0, 0.0, 0.0, 0.0, 0.0, 1.6527906192895696E9, 0.0, 2022-05-17 14:30:19.289
65.0, 77528.76907930007, 62427.77406308342, 27921.419193913844, 7568.54654175598, 73718.80247817069, 19081.527779284454, 17284.201655888755, 60050.1743018835, -0.054, 1.016, 0.202, 192.0, 0.0, 0.0, 0.0, 0.0, 0.0, 0.0, 0.0, 0.0, 0.0, 1.652790619289575E9, 0.0, 2022-05-17 14:30:19.289
66.0, 77544.03532076304, 62416.329969922306, 27911.85264728697, 7540.048067575463, 73970.55017597081, 19106.584084818853, 17416.233410386256, 60153.774637433846, -0.054, 1.016, 0.202, 192.0, 0.0, 0.0, 0.0, 0.0, 0.0, 0.0, 0.0, 0.0, 0.0, 1.6527906192895803E9, 0.0, 2022-05-17 14:30:19.289
67.0, 77522.64470131931, 62375.8733124582, 27872.714742745728, 7477.597293567335, 75112.45609670355, 19027.257743746966, 17519.65493198096, 60294.858848435746, -0.054, 1.016, 0.202, 192.0, 0.0, 0.0, 0.0, 0.0, 0.0, 0.0, 0.0, 0.0, 0.0, 1.6527906192895858E9, 0.0, 2022-05-17 14:30:19.289
68.0, 77495.42027657274, 62353.00747788042, 27849.89361165686, 7462.778086993467, 75609.0448032671, 18951.46297829902, 17452.107960237023, 60300.67030199413, -0.066, 1.012, 0.21, 192.0, 253.0, 240.0, 31.0, 160.0, 6.0, 144.0, 0.0, 0.0, 0.0, 1.6527906192895913E9, 0.0, 2022-05-17 14:30:19.289
69.0, 77491.95575618217, 62373.459324057025, 27868.400856065855, 7506.095767747852, 74821.43638389545, 18965.4775220725, 17297.255074650657, 60178.24979761241, -0.066, 1.012, 0.21, 192.0, 0.0, 0.0, 0.0, 0.0, 0.0, 0.0, 0.0, 0.0, 0.0, 1.6527906192895963E9, 0.0, 2022-05-17 14:30:19.289
70.0, 77519.15782918427, 62408.43980412958, 27905.840028028495, 7548.251157790561, 73922.44922190299, 19054.392761515708, 17276.982042429692, 60149.773675176344, -0.066, 1.012, 0.21, 192.0, 0.0, 0.0, 0.0, 0.0, 0.0, 0.0, 0.0, 0.0, 0.0, 1.652790619289602E9, 0.0, 2022-05-17 14:30:19.289
71.0, 77537.93329452674, 62399.610865069735, 27905.549455350574, 7528.760436625534, 74233.5184494875, 19082.62301476276, 17419.11678542099, 60289.76265069994, -0.066, 1.012, 0.21, 192.0, 0.0, 0.0, 0.0, 0.0, 0.0, 0.0, 0.0, 0.0, 0.0, 1.6527906192896078E9, 0.0, 2022-05-17 14:30:19.289
72.0, 77512.67582329224, 62349.94528889004, 27856.84500418246, 7458.62066252478, 75423.21239986568, 18993.19368519708, 17523.52178377173, 60449.82349274439, -0.066, 1.012, 0.21, 192.0, 0.0, 0.0, 0.0, 0.0, 0.0, 0.0, 0.0, 0.0, 0.0, 1.6527906192896135E9, 0.0, 2022-05-17 14:30:19.289
73.0, 77499.22007313014, 62339.14939631813, 27838.963608618214, 7450.708144987601, 75939.0236066608, 18921.399882006634, 17451.862091048013, 60435.69719024863, -0.066, 1.012, 0.21, 192.0, 0.0, 0.0, 0.0, 0.0, 0.0, 0.0, 0.0, 0.0, 0.0, 1.6527906192896223E9, 0.0, 2022-05-17 14:30:19.289
74.0, 77505.61267204436, 62367.71492573201, 27863.08114088549, 7502.899468290743, 75186.01568770596, 18961.051876670346, 17313.057757980558, 60316.31652311284, -0.066, 1.012, 0.21, 192.0, 0.0, 0.0, 0.0, 0.0, 0.0, 0.0, 0.0, 0.0, 0.0, 1.6527906192896297E9, 0.0, 2022-05-17 14:30:19.289
75.0, 77531.11601246787, 62389.7760975094, 27890.4843795877, 7543.601994943857, 74329.2956744785, 19065.00984013198, 17298.305606640053, 60311.10856665475, -0.066, 1.012, 0.21, 192.0, 0.0, 0.0, 0.0, 0.0, 0.0, 0.0, 0.0, 0.0, 0.0, 1.6527906192896404E9, 0.0, 2022-05-17 14:30:19.289
76.0, 77540.05671024999, 62377.303824103336, 27882.99654519517, 7518.880965576287, 74677.51350134773, 19087.138067142736, 17432.527832094172, 60472.08583022188, -0.066, 1.012, 0.21, 192.0, 0.0, 0.0, 0.0, 0.0, 0.0, 0.0, 0.0, 0.0, 0.0, 1.6527906192896755E9, 0.0, 2022-05-17 14:30:19.289
77.0, 77504.11510516585, 62322.31853274328, 27830.82757363648, 7449.299985086916, 75909.65341444653, 18995.182990453603, 17525.734606472804, 60652.71027716521, -0.066, 1.012, 0.21, 192.0, 0.0, 0.0, 0.0, 0.0, 0.0, 0.0, 0.0, 0.0, 0.0, 1.6527906192896862E9, 0.0, 2022-05-17 14:30:19.289
78.0, 77477.3377153084, 62302.20196273351, 27806.93355881376, 7432.983211634542, 76477.96886896716, 18914.26967552539, 17442.854338032525, 60667.6188907169, -0.074, 0.994, 0.20800000000000002, 192.0, 253.0, 176.0, 31.0, 16.0, 6.0, 128.0, 0.0, 0.0, 0.0, 1.6527906192896924E9, 0.0, 2022-05-17 14:30:19.289
79.0, 77493.63213701632, 62342.54686147533, 27839.164774318313, 7492.48355537457, 75757.50508993925, 18955.106312645235, 17292.114173425936, 60561.51515978756, -0.074, 0.994, 0.20800000000000002, 192.0, 0.0, 0.0, 0.0, 0.0, 0.0, 0.0, 0.0, 0.0, 0.0, 1.6527906192896984E9, 0.0, 2022-05-17 14:30:19.289
80.0, 77527.40562288828, 62383.78582999538, 27876.51453930313, 7542.104428065351, 74883.10484684764, 19050.548261469397, 17265.917928924315, 60536.07887459742, -0.074, 0.994, 0.20800000000000002, 192.0, 0.0, 0.0, 0.0, 0.0, 0.0, 0.0, 0.0, 0.0, 0.0, 1.6527906192897043E9, 0.0, 2022-05-17 14:30:19.289
81.0, 77543.6553411073, 62379.38253633768, 27882.03542018359, 7523.686590634178, 75189.23433890752, 19081.930110684647, 17396.809744454593, 60675.28553906507, -0.074, 0.994, 0.20800000000000002, 192.0, 0.0, 0.0, 0.0, 0.0, 0.0, 0.0, 0.0, 0.0, 0.0, 1.65279061928971E9, 0.0, 2022-05-17 14:30:19.289
82.0, 77517.28028265003, 62336.064855583296, 27840.46117549672, 7458.7994764804225, 76403.5822634199, 18995.04887998687, 17502.533495728196, 60855.70882030831, -0.074, 0.994, 0.20800000000000002, 192.0, 0.0, 0.0, 0.0, 0.0, 0.0, 0.0, 0.0, 0.0, 0.0, 1.652790619289716E9, 0.0, 2022-05-17 14:30:19.289
83.0, 77483.8420729449, 62314.07073903928, 27812.07446003848, 7441.208653594095, 76953.09990085363, 18909.866381867694, 17415.92048596388, 60850.59027082805, -0.074, 0.994, 0.20800000000000002, 192.0, 0.0, 0.0, 0.0, 0.0, 0.0, 0.0, 0.0, 0.0, 0.0, 1.652790619289722E9, 0.0, 2022-05-17 14:30:19.289
84.0, 77476.66716297474, 62341.093998085744, 27824.45732646672, 7487.409709383215, 76240.52628761844, 18960.26956561441, 17291.108344925447, 60751.03560102411, -0.074, 0.994, 0.20800000000000002, 192.0, 0.0, 0.0, 0.0, 0.0, 0.0, 0.0, 0.0, 0.0, 0.0, 1.652790619289728E9, 0.0, 2022-05-17 14:30:19.289
85.0, 77506.77496275604, 62384.366975351215, 27865.249260097655, 7540.450398975659, 75369.32234398393, 19072.072991379857, 17272.288176094076, 60735.25526943866, -0.074, 0.994, 0.20800000000000002, 192.0, 0.0, 0.0, 0.0, 0.0, 0.0, 0.0, 0.0, 0.0, 0.0, 1.6527906192897525E9, 0.0, 2022-05-17 14:30:19.289
86.0, 77520.87891350733, 62376.70032700305, 27865.80805370904, 7520.110311521329, 75656.49755674571, 19090.91551195568, 17387.600825739006, 60868.96340477031, -0.074, 0.994, 0.20800000000000002, 192.0, 0.0, 0.0, 0.0, 0.0, 0.0, 0.0, 0.0, 0.0, 0.0, 1.652790619289766E9, 0.0, 2022-05-17 14:30:19.289
87.0, 77493.05099166048, 62328.2640967684, 27826.11135555641, 7456.072563656875, 76829.89708541597, 19011.969150539535, 17484.786210630682, 61025.962057824385, -0.074, 0.994, 0.20800000000000002, 192.0, 0.0, 0.0, 0.0, 0.0, 0.0, 0.0, 0.0, 0.0, 0.0, 1.6527906192897716E9, 0.0, 2022-05-17 14:30:19.289
88.0, 77472.59914548388, 62310.695625626526, 27798.372840687378, 7434.592537235325, 77364.88608895375, 18930.161765833112, 17407.180953881856, 61018.60833389859, -0.058, 0.982, 0.21, 192.0, 254.0, 48.0, 30.0, 176.0, 6.0, 144.0, 0.0, 0.0, 0.0, 1.6527906192897768E9, 0.0, 2022-05-17 14:30:19.289
89.0, 77485.27258459003, 62348.47007375599, 27818.69057639725, 7486.739157049556, 76612.45931535475, 18958.168501635613, 17256.530196253087, 60883.223817732796, -0.058, 0.982, 0.21, 192.0, 0.0, 0.0, 0.0, 0.0, 0.0, 0.0, 0.0, 0.0, 0.0, 1.6527906192897823E9, 0.0, 2022-05-17 14:30:19.289
90.0, 77517.32498613895, 62380.25425437144, 27853.246373325157, 7529.028657558997, 75698.40707759942, 19056.96321212807, 17232.993809341646, 60843.214195157794, -0.058, 0.982, 0.21, 192.0, 0.0, 0.0, 0.0, 0.0, 0.0, 0.0, 0.0, 0.0, 0.0, 1.6527906192897897E9, 0.0, 2022-05-17 14:30:19.289
91.0, 77538.2462189491, 62367.245539098454, 27846.786719177573, 7498.362064166316, 75950.06536842172, 19074.62109024776, 17359.39292423641, 60969.97093796384, -0.058, 0.982, 0.21, 192.0, 0.0, 0.0, 0.0, 0.0, 0.0, 0.0, 0.0, 0.0, 0.0, 1.6527906192898235E9, 0.0, 2022-05-17 14:30:19.289
92.0, 77515.0451082045, 62330.76749214739, 27811.13568677136, 7445.209615851595, 77096.73221072344, 18993.37249915272, 17462.9709080423, 61119.95114325895, -0.058, 0.982, 0.21, 192.0, 0.0, 0.0, 0.0, 0.0, 0.0, 0.0, 0.0, 0.0, 0.0, 1.6527906192898357E9, 0.0, 2022-05-17 14:30:19.289
93.0, 77481.71865722165, 62306.359387202196, 27793.008422018105, 7437.4982640145145, 77617.70667048772, 18919.008245349916, 17404.007006169202, 61101.75682327233, -0.058, 0.982, 0.21, 192.0, 0.0, 0.0, 0.0, 0.0, 0.0, 0.0, 0.0, 0.0, 0.0, 1.6527906192898445E9, 0.0, 2022-05-17 14:30:19.289
94.0, 77487.19483461318, 62332.086245070255, 27821.015157820602, 7495.858668787321, 76853.1428996495, 18951.664143999118, 17259.301812565544, 60961.25375762627, -0.058, 0.982, 0.21, 192.0, 0.0, 0.0, 0.0, 0.0, 0.0, 0.0, 0.0, 0.0, 0.0, 1.652790619289868E9, 0.0, 2022-05-17 14:30:19.289
95.0, 77519.8507332624, 62366.35146932024, 27861.94120191827, 7542.663221676734, 75922.72918495288, 19046.882575378728, 17242.15802456832, 60921.75822517374, -0.058, 0.982, 0.21, 192.0, 0.0, 0.0, 0.0, 0.0, 0.0, 0.0, 0.0, 0.0, 0.0, 1.6527906192898736E9, 0.0, 2022-05-17 14:30:19.289
96.0, 77535.94398927022, 62357.25430932693, 27869.809015966537, 7526.1899860131725, 76144.36908297171, 19068.273194822454, 17377.319023289565, 61042.36823825458, -0.058, 0.982, 0.21, 192.0, 0.0, 0.0, 0.0, 0.0, 0.0, 0.0, 0.0, 0.0, 0.0, 1.6527906192898788E9, 0.0, 2022-05-17 14:30:19.289
97.0, 77510.10537267989, 62316.50707918491, 27834.94029461626, 7470.444735341637, 77237.0788141583, 18978.955623979047, 17474.01266980322, 61160.117228045136, -0.058, 0.982, 0.21, 192.0, 0.0, 0.0, 0.0, 0.0, 0.0, 0.0, 0.0, 0.0, 0.0, 1.652790619289884E9, 0.0, 2022-05-17 14:30:19.289
98.0, 77478.36589555335, 62298.06689000928, 27815.427221706777, 7450.082296142852, 77729.599503231, 18896.053003794314, 17401.905942190402, 61126.18727996198, -0.058, 1.008, 0.21, 192.0, 254.0, 48.0, 31.0, 128.0, 6.0, 144.0, 0.0, 0.0, 0.0, 1.6527906192898896E9, 0.0, 2022-05-17 14:30:19.289
99.0, 77485.56315726796, 62333.87438462668, 27850.072425612503, 7506.207526470128, 76945.94734262793, 18934.967390891004, 17257.84894917595, 60971.557911820164, -0.058, 1.008, 0.21, 192.0, 0.0, 0.0, 0.0, 0.0, 0.0, 0.0, 0.0, 0.0, 0.0, 1.6527906192898948E9, 0.0, 2022-05-17 14:30:19.289
100.0, 77511.87116049185, 62373.14639963465, 27890.439676098787, 7555.694288694178, 75993.67362185403, 19031.415168215655, 17242.493300735154, 60919.32188502811, -0.058, 1.008, 0.21, 192.0, 0.0, 0.0, 0.0, 0.0, 0.0, 0.0, 0.0, 0.0, 0.0, 1.6527906192899003E9, 0.0, 2022-05-17 14:30:19.289
101.0, 77519.15782918427, 62363.6692599856, 27886.79634175257, 7529.028657558997, 76194.77226671843, 19061.25474706349, 17377.073154100555, 61038.03199983025, -0.058, 1.008, 0.21, 192.0, 0.0, 0.0, 0.0, 0.0, 0.0, 0.0, 0.0, 0.0, 0.0, 1.6527906192899055E9, 0.0, 2022-05-17 14:30:19.289
102.0, 77499.53299755252, 62318.8093088638, 27851.61469597992, 7460.811133481399, 77276.52964312192, 18968.830283740794, 17475.68905063737, 61156.31743148773, -0.058, 1.008, 0.21, 192.0, 0.0, 0.0, 0.0, 0.0, 0.0, 0.0, 0.0, 0.0, 0.0, 1.652790619289911E9, 0.0, 2022-05-17 14:30:19.289
103.0, 77486.25606134607, 62314.22720125046, 27839.74591967415, 7446.550720518914, 77758.56736404507, 18885.2571112224, 17420.189669154843, 61110.92103849901, -0.058, 1.008, 0.21, 192.0, 0.0, 0.0, 0.0, 0.0, 0.0, 0.0, 0.0, 0.0, 0.0, 1.6527906192899165E9, 0.0, 2022-05-17 14:30:19.289
104.0, 77503.55631155448, 62360.65177448413, 27873.765274735128, 7506.967485781609, 76978.22326162139, 18934.07332111279, 17282.83819947698, 60953.40829532246, -0.058, 1.008, 0.21, 192.0, 0.0, 0.0, 0.0, 0.0, 0.0, 0.0, 0.0, 0.0, 0.0, 1.6527906192899215E9, 0.0, 2022-05-17 14:30:19.289
105.0, 77532.77004155757, 62395.29697838986, 27905.61651058394, 7549.59226245788, 76020.76393613387, 19040.0429415754, 17257.580728242487, 60901.731062141786, -0.058, 1.008, 0.21, 192.0, 0.0, 0.0, 0.0, 0.0, 0.0, 0.0, 0.0, 0.0, 0.0, 1.6527906197691429E9, 0.0, 2022-05-17 14:30:19.769
106.0, 77555.43471043525, 62389.329062620294, 27905.124772205923, 7524.223032501106, 76188.37966780421, 19065.948613399105, 17368.44538074081, 61001.73276683483, -0.058, 1.008, 0.21, 192.0, 0.0, 0.0, 0.0, 0.0, 0.0, 0.0, 0.0, 0.0, 0.0, 1.6527906197692492E9, 0.0, 2022-05-17 14:30:19.769
107.0, 77551.2549342221, 62353.454512769524, 27874.391123579877, 7469.058927185408, 77244.87957297321, 18985.348222893266, 17471.755143613238, 61106.71891054141, -0.06, 0.992, 0.20600000000000002, 192.0, 254.0, 32.0, 31.0, 0.0, 6.0, 112.0, 0.0, 0.0, 0.0, 1.652790619769354E9, 0.0, 2022-05-17 14:30:19.769
108.0, 77534.69229158072, 62333.51675671539, 27851.145309346357, 7436.894766914221, 77708.588863443, 18895.11423052719, 17412.523020806675, 61044.04461908873, -0.06, 0.992, 0.20600000000000002, 192.0, 0.0, 0.0, 0.0, 0.0, 0.0, 0.0, 0.0, 0.0, 0.0, 1.65279061976936E9, 0.0, 2022-05-17 14:30:19.769
109.0, 77545.21996321916, 62364.54097801936, 27875.70987650274, 7477.23966565605, 76926.0095865738, 18933.246306567944, 17280.13363839789, 60884.00612878873, -0.06, 0.992, 0.20600000000000002, 192.0, 0.0, 0.0, 0.0, 0.0, 0.0, 0.0, 0.0, 0.0, 0.0, 1.6527906197693653E9, 0.0, 2022-05-17 14:30:19.769
110.0, 77569.18103327525, 62396.77219352391, 27907.404650140365, 7511.795462583955, 75938.35305432715, 19021.15571751067, 17243.767350169106, 60808.88191567444, -0.06, 0.992, 0.20600000000000002, 192.0, 0.0, 0.0, 0.0, 0.0, 0.0, 0.0, 0.0, 0.0, 0.0, 1.6527906197693708E9, 0.0, 2022-05-17 14:30:19.769
111.0, 77587.33064977296, 62402.36012963774, 27919.653406101872, 7508.912087549221, 76090.61313755669, 19052.58227021483, 17382.124648347457, 60911.29760876866, -0.06, 0.992, 0.20600000000000002, 192.0, 0.0, 0.0, 0.0, 0.0, 0.0, 0.0, 0.0, 0.0, 0.0, 1.652790619769376E9, 0.0, 2022-05-17 14:30:19.769
112.0, 77566.45412045172, 62365.18917860856, 27892.786609266594, 7461.638148026246, 77125.63301630414, 18960.202510381045, 17489.994167088767, 61011.96986579536, -0.06, 0.992, 0.20600000000000002, 192.0, 0.0, 0.0, 0.0, 0.0, 0.0, 0.0, 0.0, 0.0, 0.0, 1.6527906197693815E9, 0.0, 2022-05-17 14:30:19.769
113.0, 77552.1043005114, 62362.95400416303, 27886.058734185546, 7457.637185768746, 77586.50363522812, 18891.11326826969, 17426.91754423589, 60946.79217896369, -0.06, 0.992, 0.20600000000000002, 192.0, 0.0, 0.0, 0.0, 0.0, 0.0, 0.0, 0.0, 0.0, 0.0, 1.652790619769387E9, 0.0, 2022-05-17 14:30:19.769
114.0, 77556.21702149117, 62390.55840856534, 27907.47170537373, 7506.811023570422, 76789.28396574069, 18920.751681417427, 17270.857664448937, 60763.88785408591, -0.06, 0.992, 0.20600000000000002, 192.0, 0.0, 0.0, 0.0, 0.0, 0.0, 0.0, 0.0, 0.0, 0.0, 1.6527906197693925E9, 0.0, 2022-05-17 14:30:19.769
115.0, 77576.22183277868, 62414.78769955489, 27932.706824863773, 7553.392059015282, 75831.55641931969, 19034.119729294747, 17252.551585740042, 60721.844222765474, -0.06, 0.992, 0.20600000000000002, 192.0, 0.0, 0.0, 0.0, 0.0, 0.0, 0.0, 0.0, 0.0, 0.0, 1.6527906197693975E9, 0.0, 2022-05-17 14:30:19.769
116.0, 77592.13627483086, 62407.14340295117, 27932.729176608227, 7536.963526840631, 75962.20236566095, 19060.651249963197, 17375.039145355124, 60816.66032274489, -0.06, 0.992, 0.20600000000000002, 192.0, 0.0, 0.0, 0.0, 0.0, 0.0, 0.0, 0.0, 0.0, 0.0, 1.652790619769403E9, 0.0, 2022-05-17 14:30:19.769
117.0, 77569.78453037555, 62364.13864661916, 27895.111190689946, 7476.14443017774, 76968.27673533878, 18972.406562853645, 17466.88246332198, 60897.126602783996, -0.056, 1.0, 0.202, 192.0, 254.0, 64.0, 31.0, 64.0, 6.0, 80.0, 0.0, 0.0, 0.0, 1.6527906197694085E9, 0.0, 2022-05-17 14:30:19.769
118.0, 77555.61352439088, 62359.04244888335, 27874.2793648576, 7464.47681957207, 77431.82956359739, 18894.376622960168, 17404.655206758405, 60837.29098287714, -0.056, 1.0, 0.202, 192.0, 0.0, 0.0, 0.0, 0.0, 0.0, 0.0, 0.0, 0.0, 0.0, 1.6527906197694137E9, 0.0, 2022-05-17 14:30:19.769
119.0, 77571.48326295415, 62402.67305406011, 27903.068411716034, 7527.933422080687, 76663.33188573502, 18930.586448977763, 17273.517522039117, 60681.70048972374, -0.056, 1.0, 0.202, 192.0, 0.0, 0.0, 0.0, 0.0, 0.0, 0.0, 0.0, 0.0, 0.0, 1.6527906197694192E9, 0.0, 2022-05-17 14:30:19.769
120.0, 77597.63480396687, 62431.97619104102, 27940.373473211945, 7575.542637770491, 75679.74337097924, 19027.235392002513, 17251.70221945074, 60612.879468545856, -0.056, 1.0, 0.202, 192.0, 0.0, 0.0, 0.0, 0.0, 0.0, 0.0, 0.0, 0.0, 0.0, 1.6527906197694244E9, 0.0, 2022-05-17 14:30:19.769
121.0, 77598.43946676725, 62417.11228097824, 27941.178136012335, 7558.465905006637, 75779.07452333863, 19061.768837185962, 17374.05566859909, 60682.996890902155, -0.056, 1.0, 0.202, 192.0, 0.0, 0.0, 0.0, 0.0, 0.0, 0.0, 0.0, 0.0, 0.0, 1.6527906197694297E9, 0.0, 2022-05-17 14:30:19.769
122.0, 77581.47449272567, 62379.85192297125, 27899.581539581006, 7487.163840194206, 76804.63961418148, 18966.773923250905, 17481.768725129215, 60789.3464910205, -0.056, 1.0, 0.202, 192.0, 0.0, 0.0, 0.0, 0.0, 0.0, 0.0, 0.0, 0.0, 0.0, 1.6527906197694352E9, 0.0, 2022-05-17 14:30:19.769
123.0, 77556.93227731375, 62359.08715237226, 27874.324068346512, 7460.542912547936, 77282.96694552506, 18874.908253539594, 17424.436500601354, 60740.731446830214, -0.056, 1.0, 0.202, 192.0, 0.0, 0.0, 0.0, 0.0, 0.0, 0.0, 0.0, 0.0, 0.0, 1.6527906197694407E9, 0.0, 2022-05-17 14:30:19.769
124.0, 77556.77581510256, 62388.412641097624, 27893.546568578073, 7511.616648628313, 76526.15923001281, 18921.332826773265, 17293.879961237904, 60592.18175318024, -0.056, 1.0, 0.202, 192.0, 0.0, 0.0, 0.0, 0.0, 0.0, 0.0, 0.0, 0.0, 0.0, 1.652790619769446E9, 0.0, 2022-05-17 14:30:19.769
125.0, 77584.49197822715, 62423.8848595482, 27927.990606783704, 7561.729259697111, 75543.10715712394, 19037.62895317423, 17268.823655703505, 60530.13331057231, -0.056, 1.0, 0.202, 192.0, 0.0, 0.0, 0.0, 0.0, 0.0, 0.0, 0.0, 0.0, 0.0, 1.6527906197694514E9, 0.0, 2022-05-17 14:30:19.769
126.0, 77601.21108307972, 62415.0335687439, 27930.53870565161, 7542.39500074327, 75624.91454183037, 19071.983584402034, 17385.544465249117, 60596.87561951586, -0.056, 1.0, 0.202, 192.0, 0.0, 0.0, 0.0, 0.0, 0.0, 0.0, 0.0, 0.0, 0.0, 1.6527906197694569E9, 0.0, 2022-05-17 14:30:19.769
127.0, 77599.19942607873, 62385.909245718634, 27901.034402970603, 7483.9228372481875, 76617.04142296809, 18988.410411883644, 17488.40719323244, 60680.94053041226, -0.048, 0.994, 0.20400000000000001, 192.0, 254.0, 128.0, 31.0, 16.0, 6.0, 96.0, 0.0, 0.0, 0.0, 1.652790619769462E9, 0.0, 2022-05-17 14:30:19.769
128.0, 77584.3131642715, 62372.36408857872, 27878.012106181635, 7463.247473627028, 77067.65259118707, 18900.389242218644, 17419.809689499103, 60603.983474252644, -0.048, 0.994, 0.20400000000000001, 192.0, 0.0, 0.0, 0.0, 0.0, 0.0, 0.0, 0.0, 0.0, 0.0, 1.6527906197694829E9, 0.0, 2022-05-17 14:30:19.769
129.0, 77580.69218166974, 62377.99672818145, 27886.349306863467, 7500.217258956106, 76304.22875931606, 18919.1647075611, 17282.994661688168, 60444.57083279739, -0.048, 0.994, 0.20400000000000001, 192.0, 0.0, 0.0, 0.0, 0.0, 0.0, 0.0, 0.0, 0.0, 0.0, 1.6527906197694888E9, 0.0, 2022-05-17 14:30:19.769
130.0, 77612.27519658509, 62406.048167472865, 27923.341443937, 7545.9712798561195, 75300.74719199505, 19021.021607043935, 17241.35336176793, 60365.06567776987, -0.048, 0.994, 0.20400000000000001, 192.0, 0.0, 0.0, 0.0, 0.0, 0.0, 0.0, 0.0, 0.0, 0.0, 1.6527906197694943E9, 0.0, 2022-05-17 14:30:19.769
131.0, 77644.30524638954, 62415.122975721715, 27939.322941222545, 7539.44457047517, 75366.52837592702, 19053.766912670962, 17364.95850860578, 60425.41538779919, -0.048, 0.994, 0.20400000000000001, 192.0, 0.0, 0.0, 0.0, 0.0, 0.0, 0.0, 0.0, 0.0, 0.0, 1.6527906197695003E9, 0.0, 2022-05-17 14:30:19.769
132.0, 77632.95056020624, 62381.17067589411, 27902.487266360196, 7478.826639512377, 76366.99245774657, 18974.686440788086, 17491.447030478364, 60526.601734948366, -0.048, 0.994, 0.20400000000000001, 192.0, 0.0, 0.0, 0.0, 0.0, 0.0, 0.0, 0.0, 0.0, 0.0, 1.6527906197695057E9, 0.0, 2022-05-17 14:30:19.769
133.0, 77600.62993772388, 62348.44772201154, 27865.338667075477, 7440.940432660632, 76855.75805375076, 18877.813980318784, 17435.902945506925, 60487.240312962575, -0.048, 0.994, 0.20400000000000001, 192.0, 0.0, 0.0, 0.0, 0.0, 0.0, 0.0, 0.0, 0.0, 0.0, 1.6527906197695117E9, 0.0, 2022-05-17 14:30:19.769
134.0, 77608.94478666125, 62372.43114381208, 27890.0820481875, 7482.335863391861, 76096.53634983735, 18916.571905204288, 17298.685586295796, 60324.206688905564, -0.048, 0.994, 0.20400000000000001, 192.0, 0.0, 0.0, 0.0, 0.0, 0.0, 0.0, 0.0, 0.0, 0.0, 1.6527906197695172E9, 0.0, 2022-05-17 14:30:19.769
135.0, 77641.73479577719, 62419.77213856842, 27931.365720196452, 7530.5932796708685, 75111.24910250296, 19026.162508268655, 17272.914024938826, 60263.23113003148, -0.048, 0.994, 0.20400000000000001, 192.0, 0.0, 0.0, 0.0, 0.0, 0.0, 0.0, 0.0, 0.0, 0.0, 1.6527906197695227E9, 0.0, 2022-05-17 14:30:19.769
136.0, 77641.73479577719, 62406.316388406325, 27923.542609637097, 7502.161860723718, 75177.4996730685, 19050.280040535934, 17370.904072630892, 60333.21444192105, -0.048, 0.994, 0.20400000000000001, 192.0, 0.0, 0.0, 0.0, 0.0, 0.0, 0.0, 0.0, 0.0, 0.0, 1.652790619769528E9, 0.0, 2022-05-17 14:30:19.769
137.0, 77617.59491176545, 62363.0210593964, 27884.739981262683, 7434.592537235325, 76150.47110920801, 18959.3754958362, 17466.010745288222, 60410.9091056477, -0.058, 1.006, 0.20800000000000002, 192.0, 254.0, 48.0, 31.0, 112.0, 6.0, 128.0, 0.0, 0.0, 0.0, 1.6527906197695336E9, 0.0, 2022-05-17 14:30:19.769
138.0, 77589.81169340751, 62348.29125980035, 27866.545661276064, 7419.460406239082, 76624.05987072705, 18876.27170995137, 17413.484145818253, 60353.86745379776, -0.058, 1.006, 0.20800000000000002, 192.0, 0.0, 0.0, 0.0, 0.0, 0.0, 0.0, 0.0, 0.0, 0.0, 1.6527906197695389E9, 0.0, 2022-05-17 14:30:19.769
139.0, 77595.17611207678, 62392.34654812176, 27894.57474882302, 7472.992834209542, 75860.63603885604, 18910.715748156996, 17255.613774730416, 60180.17204763556, -0.058, 1.006, 0.20800000000000002, 192.0, 0.0, 0.0, 0.0, 0.0, 0.0, 0.0, 0.0, 0.0, 0.0, 1.6527906197695444E9, 0.0, 2022-05-17 14:30:19.769
140.0, 77619.74067923316, 62427.79641482788, 27931.94686555229, 7523.239555745073, 74863.72588440489, 19032.219831016046, 17231.429187229776, 60108.333540956206, -0.058, 1.006, 0.20800000000000002, 192.0, 0.0, 0.0, 0.0, 0.0, 0.0, 0.0, 0.0, 0.0, 0.0, 1.6527906197695496E9, 0.0, 2022-05-17 14:30:19.769
141.0, 77612.58812100746, 62403.63417907169, 27919.452240401777, 7493.914067019709, 74934.9385422395, 19061.031229618937, 17368.668898185362, 60199.93098973406, -0.058, 1.006, 0.20800000000000002, 192.0, 0.0, 0.0, 0.0, 0.0, 0.0, 0.0, 0.0, 0.0, 0.0, 1.652790619769555E9, 0.0, 2022-05-17 14:30:19.769
142.0, 77596.85249291093, 62366.28441408687, 27888.13744641989, 7437.610022736791, 75898.05285907422, 18960.001344680946, 17470.391687201463, 60287.16984834312, -0.058, 1.006, 0.20800000000000002, 192.0, 0.0, 0.0, 0.0, 0.0, 0.0, 0.0, 0.0, 0.0, 0.0, 1.6527906197695603E9, 0.0, 2022-05-17 14:30:19.769
143.0, 77584.98371660516, 62357.85780642722, 27888.62918479791, 7433.273784312461, 76351.94973372815, 18891.40384094761, 17423.944762223335, 60215.33134166376, -0.058, 1.006, 0.20800000000000002, 192.0, 0.0, 0.0, 0.0, 0.0, 0.0, 0.0, 0.0, 0.0, 0.0, 1.652790619769566E9, 0.0, 2022-05-17 14:30:19.769
144.0, 77577.65234442381, 62374.48750430197, 27894.731211034206, 7468.947168463132, 75598.76300081766, 18915.163745303602, 17276.490304051677, 60051.38129608409, -0.058, 1.006, 0.20800000000000002, 192.0, 0.0, 0.0, 0.0, 0.0, 0.0, 0.0, 0.0, 0.0, 0.0, 1.6527906197695715E9, 0.0, 2022-05-17 14:30:19.769
145.0, 77613.95157741924, 62428.265801461435, 27940.14995576739, 7526.033523801986, 74605.51853245718, 19026.922467580138, 17259.950013154747, 59987.36589996408, -0.058, 1.006, 0.20800000000000002, 192.0, 0.0, 0.0, 0.0, 0.0, 0.0, 0.0, 0.0, 0.0, 0.0, 1.6527906197695794E9, 0.0, 2022-05-17 14:30:19.769
146.0, 77634.93986546277, 62427.572897383325, 27943.30155173559, 7521.563174910924, 74658.872146472, 19062.86407266427, 17382.63873846993, 60067.76512476982, -0.058, 1.006, 0.20800000000000002, 192.0, 0.0, 0.0, 0.0, 0.0, 0.0, 0.0, 0.0, 0.0, 0.0, 1.652790619769585E9, 0.0, 2022-05-17 14:30:19.769
147.0, 77631.05066192754, 62394.55937082283, 27913.73019382122, 7456.497246801526, 75604.03801250912, 18972.786542509384, 17501.0806323386, 60142.017619850354, -0.068, 1.014, 0.202, 192.0, 253.0, 224.0, 31.0, 176.0, 6.0, 80.0, 0.0, 0.0, 0.0, 1.6527906197695901E9, 0.0, 2022-05-17 14:30:19.769
148.0, 77598.52887374508, 62365.211530353015, 27880.22492888271, 7435.643069224724, 76072.24000361442, 18883.960710043993, 17441.468529876296, 60085.35594765615, -0.068, 1.014, 0.202, 192.0, 0.0, 0.0, 0.0, 0.0, 0.0, 0.0, 0.0, 0.0, 0.0, 1.6527906197695956E9, 0.0, 2022-05-17 14:30:19.769
149.0, 77608.40834479433, 62402.56129533784, 27908.74575480768, 7478.7595842790115, 75306.51394206453, 18900.255131751914, 17294.706975782752, 59904.30681756816, -0.068, 1.014, 0.202, 192.0, 0.0, 0.0, 0.0, 0.0, 0.0, 0.0, 0.0, 0.0, 0.0, 1.652790619769601E9, 0.0, 2022-05-17 14:30:19.769
150.0, 77651.94954299326, 62456.227833775025, 27959.39480774341, 7549.949890369165, 74320.1985144852, 19025.156679768166, 17277.13850464088, 59847.55573839614, -0.068, 1.014, 0.202, 192.0, 0.0, 0.0, 0.0, 0.0, 0.0, 0.0, 0.0, 0.0, 0.0, 1.6527906197696085E9, 0.0, 2022-05-17 14:30:19.769
151.0, 77664.33240942149, 62440.24633648949, 27961.40646474439, 7526.078227290896, 74368.03124761954, 19060.07010460736, 17387.801991439104, 59931.28537312572, -0.068, 1.014, 0.202, 192.0, 0.0, 0.0, 0.0, 0.0, 0.0, 0.0, 0.0, 0.0, 0.0, 1.652790619769614E9, 0.0, 2022-05-17 14:30:19.769
152.0, 77641.824202755, 62391.296016132364, 27918.513467134653, 7455.111438645296, 75314.89584623526, 18961.23069062599, 17481.992242573768, 60013.15981306551, -0.068, 1.014, 0.202, 192.0, 0.0, 0.0, 0.0, 0.0, 0.0, 0.0, 0.0, 0.0, 0.0, 1.6527906197696195E9, 0.0, 2022-05-17 14:30:19.769
153.0, 77622.93697869027, 62375.850960713746, 27895.267652901133, 7428.132883087741, 75802.7450207168, 18873.745962827918, 17429.2644774037, 59966.91405378748, -0.068, 1.014, 0.202, 192.0, 0.0, 0.0, 0.0, 0.0, 0.0, 0.0, 0.0, 0.0, 0.0, 1.6527906197696254E9, 0.0, 2022-05-17 14:30:19.769
154.0, 77642.2265341552, 62417.559315867344, 27923.654368359374, 7483.9228372481875, 75083.46588414501, 18921.60104770673, 17307.00043523317, 59823.57231659559, -0.068, 1.014, 0.202, 192.0, 0.0, 0.0, 0.0, 0.0, 0.0, 0.0, 0.0, 0.0, 0.0, 1.652790619769631E9, 0.0, 2022-05-17 14:30:19.769
155.0, 77671.19439496928, 62451.95865058406, 27961.853499633493, 7529.609802914835, 74088.94736635058, 19033.47152870554, 17276.624414518406, 59761.43446700984, -0.068, 1.014, 0.202, 192.0, 0.0, 0.0, 0.0, 0.0, 0.0, 0.0, 0.0, 0.0, 0.0, 1.6527906197696364E9, 0.0, 2022-05-17 14:30:19.769
