%OpenBCI Raw EEG Data
%Number of channels = 8
%Sample Rate = 250 Hz
%Board = OpenBCI_GUI$BoardCytonSerial
Sample Index, EXG Channel 0, EXG Channel 1, EXG Channel 2, EXG Channel 3, EXG Channel 4, EXG Channel 5, EXG Channel 6, EXG Channel 7, Accel Channel 0, Accel Channel 1, Accel Channel 2, Other, Other, Other, Other, Other, Other, Other, Analog Channel 0, Analog Channel 1, Analog Channel 2, Timestamp, Other, Timestamp (Formatted)
83.0, 17916.39839606266, 95.9113354577226, -54850.06330610077, -44578.67676957569, -20014.713110293524, -20986.67871793255, 361.1147834199409, -5529.598060798414, -0.006, 0.966, 0.3, 192.0, 255.0, 208.0, 30.0, 48.0, 9.0, 96.0, 0.0, 0.0, 0.0, 1.6541731774064295E9, 0.0, 2022-06-02 14:32:57.406
84.0, 17923.618009521724, 101.09694017135385, -54859.78631493883, -44618.7310956396, -19997.27874961838, -20957.532043162828, 358.70079501876774, -5500.585496495426, -0.006, 0.966, 0.3, 192.0, 0.0, 0.0, 0.0, 0.0, 0.0, 0.0, 0.0, 0.0, 0.0, 1.6541731774064374E9, 0.0, 2022-06-02 14:32:57.406
85.0, 17926.791957234378, 92.33505634487348, -54892.03988218783, -44647.69895645368, -20019.76460454042, -20979.369697495666, 315.80779740903347, -5498.909115661278, -0.006, 0.966, 0.3, 192.0, 0.0, 0.0, 0.0, 0.0, 0.0, 0.0, 0.0, 0.0, 0.0, 1.654173177406443E9, 0.0, 2022-06-02 14:32:57.406
86.0, 17934.01157069344, 88.9375911876668, -54913.519908609385, -44568.08204270388, -20043.34569494077, -21020.07222414878, 292.5843349199695, -5527.631107286347, -0.006, 0.966, 0.3, 192.0, 0.0, 0.0, 0.0, 0.0, 0.0, 0.0, 0.0, 0.0, 0.0, 1.6541731774064486E9, 0.0, 2022-06-02 14:32:57.406
87.0, 17939.465396340536, 95.17372789069748, -54880.59578902672, -44568.126746192786, -20031.163994212628, -21012.91966592308, 321.61925096741334, -5538.337592880439, -0.006, 0.966, 0.3, 192.0, 0.0, 0.0, 0.0, 0.0, 0.0, 0.0, 0.0, 0.0, 0.0, 1.654173177406454E9, 0.0, 2022-06-02 14:32:57.406
88.0, 17931.530527058905, 101.14164366026446, -54860.926253906044, -44593.719493594115, -20003.157258410127, -20983.013031841878, 355.8174199840331, -5524.032476429043, -0.006, 0.966, 0.3, 192.0, 0.0, 0.0, 0.0, 0.0, 0.0, 0.0, 0.0, 0.0, 0.0, 1.6541731774064593E9, 0.0, 2022-06-02 14:32:57.406
89.0, 17940.672390541124, 110.81994900941241, -54872.951492423, -44573.80408928444, -19990.930854193077, -20953.508729160872, 368.0661759455414, -5491.667150457758, -0.006, 0.966, 0.3, 192.0, 0.0, 0.0, 0.0, 0.0, 0.0, 0.0, 0.0, 0.0, 0.0, 1.6541731774064648E9, 0.0, 2022-06-02 14:32:57.406
90.0, 17952.11648370224, 110.21645190911913, -54904.355693382706, -44607.08583677839, -20010.66744454711, -20978.363868995177, 358.6560915298571, -5506.888688431823, -0.006, 0.966, 0.3, 192.0, 0.0, 0.0, 0.0, 0.0, 0.0, 0.0, 0.0, 0.0, 0.0, 1.6541731774064703E9, 0.0, 2022-06-02 14:32:57.406
91.0, 17960.274870428428, 107.69070478566942, -54938.06212402131, -44676.331541100924, -20029.375854656202, -21013.92549442357, 332.5939574949691, -5544.283156905551, -0.006, 0.966, 0.3, 192.0, 0.0, 0.0, 0.0, 0.0, 0.0, 0.0, 0.0, 0.0, 0.0, 1.654173177406476E9, 0.0, 2022-06-02 14:32:57.406
92.0, 17963.40411465217, 106.39430360726162, -54880.61814077117, -44624.6319561758, -20037.131909982196, -21026.330712596264, 326.49193125867026, -5564.489133893148, -0.006, 0.966, 0.3, 192.0, 0.0, 0.0, 0.0, 0.0, 0.0, 0.0, 0.0, 0.0, 0.0, 1.6541731774064813E9, 0.0, 2022-06-02 14:32:57.406
93.0, 17953.234070925006, 97.36419884731757, -54862.78144869584, -44607.86814783432, -20018.132927195184, -21011.73502346695, 342.27226284411705, -5550.318127908484, -0.014, 0.98, 0.268, 192.0, 255.0, 144.0, 30.0, 160.0, 8.0, 96.0, 0.0, 0.0, 0.0, 1.654173177406487E9, 0.0, 2022-06-02 14:32:57.406
94.0, 17938.54897481787, 72.28554156846305, -54905.1603561831, -44636.74660167058, -20016.61300857222, -21007.555247253807, 333.4433237842708, -5549.088781963442, -0.014, 0.98, 0.268, 192.0, 0.0, 0.0, 0.0, 0.0, 0.0, 0.0, 0.0, 0.0, 0.0, 1.6541731774064925E9, 0.0, 2022-06-02 14:32:57.406
95.0, 17945.947402232578, 68.75396594452452, -54941.616051389705, -44713.23427119664, -20026.313665665828, -21019.960465426502, 321.8427684119664, -5573.563942142003, -0.014, 0.98, 0.268, 192.0, 0.0, 0.0, 0.0, 0.0, 0.0, 0.0, 0.0, 0.0, 0.0, 1.654173177406498E9, 0.0, 2022-06-02 14:32:57.406
96.0, 17958.576137849825, 71.8608584238122, -54940.7666851004, -44617.188825272184, -20050.855881077754, -21055.41033213262, 307.6494106828464, -5596.720349397701, -0.014, 0.98, 0.268, 192.0, 0.0, 0.0, 0.0, 0.0, 0.0, 0.0, 0.0, 0.0, 0.0, 1.6541731774065032E9, 0.0, 2022-06-02 14:32:57.406
97.0, 17991.097926032297, 106.70722802963591, -54878.271207603364, -44532.76628646449, -20023.944380753564, -21035.87490747868, 350.14007689238514, -5560.801096058023, -0.014, 0.98, 0.268, 192.0, 0.0, 0.0, 0.0, 0.0, 0.0, 0.0, 0.0, 0.0, 0.0, 1.6541731774065087E9, 0.0, 2022-06-02 14:32:57.406
98.0, 18002.810240126877, 119.09009445787603, -54878.18180062554, -44526.41839103918, -20004.833639244276, -21007.890523420636, 369.2284666572174, -5538.0693719469755, -0.014, 0.98, 0.268, 192.0, 0.0, 0.0, 0.0, 0.0, 0.0, 0.0, 0.0, 0.0, 0.0, 1.654173177406514E9, 0.0, 2022-06-02 14:32:57.406
99.0, 18009.26989427446, 113.65862055523641, -54877.60065526971, -44545.886760459754, -19998.57515079679, -20990.456162745497, 361.20419039776215, -5537.868206246878, -0.014, 0.98, 0.268, 192.0, 0.0, 0.0, 0.0, 0.0, 0.0, 0.0, 0.0, 0.0, 0.0, 1.6541731774065194E9, 0.0, 2022-06-02 14:32:57.406
100.0, 18023.060920603388, 115.37970487829506, -54915.0621789768, -44559.63308329977, -20006.733537522978, -20996.468782003973, 356.48797231769237, -5555.011994244099, -0.014, 0.98, 0.268, 192.0, 0.0, 0.0, 0.0, 0.0, 0.0, 0.0, 0.0, 0.0, 0.0, 1.654173177406525E9, 0.0, 2022-06-02 14:32:57.406
101.0, 18033.789757941933, 118.77717003550173, -54937.145702498645, -44560.77302226699, -20022.893848764164, -21020.273389848877, 339.52299827611427, -5581.141183512353, -0.014, 0.98, 0.268, 192.0, 0.0, 0.0, 0.0, 0.0, 0.0, 0.0, 0.0, 0.0, 0.0, 1.6541731774065301E9, 0.0, 2022-06-02 14:32:57.406
102.0, 18042.61869700178, 129.32719341840667, -54920.60541160172, -44537.30369058892, -20017.01533997242, -21014.037253145845, 364.9145799773431, -5555.101401221919, -0.014, 0.98, 0.268, 192.0, 0.0, 0.0, 0.0, 0.0, 0.0, 0.0, 0.0, 0.0, 0.0, 1.6541731774065356E9, 0.0, 2022-06-02 14:32:57.406
103.0, 18053.03460991795, 148.01325178304336, -54886.76487049638, -44541.416411568694, -19984.76177272341, -20972.23949101442, 405.81827233055503, -5519.495072304616, -0.002, 0.992, 0.254, 192.0, 255.0, 240.0, 31.0, 0.0, 7.0, 240.0, 0.0, 0.0, 0.0, 1.6541731774065409E9, 0.0, 2022-06-02 14:32:57.406
104.0, 18060.768313499488, 147.8120860829456, -54904.46745210498, -44552.97226345209, -19966.410990525605, -20944.23275521192, 423.7890748726219, -5498.082101116432, -0.002, 0.992, 0.254, 192.0, 0.0, 0.0, 0.0, 0.0, 0.0, 0.0, 0.0, 0.0, 0.0, 1.6541731774065475E9, 0.0, 2022-06-02 14:32:57.406
105.0, 18071.63126130477, 145.08517325939815, -54924.3158011813, -44510.28043154245, -19969.18260683806, -20963.38820021012, 413.6190311454572, -5527.117017163875, -0.002, 0.992, 0.254, 192.0, 0.0, 0.0, 0.0, 0.0, 0.0, 0.0, 0.0, 0.0, 0.0, 1.6541731774065568E9, 0.0, 2022-06-02 14:32:57.406
106.0, 18087.72451731259, 153.42237394122768, -54928.316763438794, -44527.33481256185, -19985.700545990534, -20987.975119110957, 400.6773711058344, -5557.895369278833, -0.002, 0.992, 0.254, 192.0, 0.0, 0.0, 0.0, 0.0, 0.0, 0.0, 0.0, 0.0, 0.0, 1.654173177406562E9, 0.0, 2022-06-02 14:32:57.406
107.0, 18094.318281926906, 150.9860337955992, -54911.93293475306, -44513.67789669966, -19993.121325149696, -20995.127677336655, 410.69095262181196, -5549.357002896906, -0.002, 0.992, 0.254, 192.0, 0.0, 0.0, 0.0, 0.0, 0.0, 0.0, 0.0, 0.0, 0.0, 1.6541731774065676E9, 0.0, 2022-06-02 14:32:57.406
108.0, 18087.679813823677, 142.51472264703784, -54900.06415844729, -44508.1570158192, -19980.22436859898, -20978.2521102729, 435.38963024492625, -5525.485339818638, -0.002, 0.992, 0.254, 192.0, 0.0, 0.0, 0.0, 0.0, 0.0, 0.0, 0.0, 0.0, 0.0, 1.654173177406573E9, 0.0, 2022-06-02 14:32:57.406
109.0, 18087.21042719012, 132.94817602016641, -54921.00774300191, -44526.55250150592, -19978.8162086983, -20961.018915297856, 433.33326975503803, -5519.9868106826325, -0.002, 0.992, 0.254, 192.0, 0.0, 0.0, 0.0, 0.0, 0.0, 0.0, 0.0, 0.0, 0.0, 1.6541731774065783E9, 0.0, 2022-06-02 14:32:57.406
110.0, 18100.77793607449, 136.81502781093454, -54935.42461817558, -44549.15011515023, -19974.211749340506, -20964.170511266057, 421.75506612718897, -5529.28513637604, -0.002, 0.992, 0.254, 192.0, 0.0, 0.0, 0.0, 0.0, 0.0, 0.0, 0.0, 0.0, 0.0, 1.6541731774065838E9, 0.0, 2022-06-02 14:32:57.406
111.0, 18109.226895478594, 133.2387486980854, -54951.85315035024, -44590.523194137, -20000.20682814203, -20999.843895416725, 400.1856327278177, -5561.985738514154, -0.002, 0.992, 0.254, 192.0, 0.0, 0.0, 0.0, 0.0, 0.0, 0.0, 0.0, 0.0, 0.0, 1.6541731774065893E9, 0.0, 2022-06-02 14:32:57.406
112.0, 18104.68949135417, 124.00747823804359, -54953.26131025092, -44537.46015280011, -20030.560497112336, -21031.963352199004, 386.90869652136524, -5593.792270874056, -0.002, 0.992, 0.254, 192.0, 0.0, 0.0, 0.0, 0.0, 0.0, 0.0, 0.0, 0.0, 0.0, 1.6541731774065945E9, 0.0, 2022-06-02 14:32:57.406
113.0, 18086.472819623094, 117.12314094580901, -54956.1223335412, -44544.94798719263, -20035.232011703494, -21024.900200951124, 386.26049593216135, -5601.905954111333, -0.008, 0.982, 0.226, 192.0, 255.0, 192.0, 30.0, 176.0, 7.0, 16.0, 0.0, 0.0, 0.0, 1.6541731774066E9, 0.0, 2022-06-02 14:32:57.406
114.0, 18094.430040649182, 134.8257225544122, -54976.998862862456, -44573.75938579552, -20029.666427334123, -21013.411404301096, 379.62202782893513, -5604.588163445969, -0.008, 0.982, 0.226, 192.0, 0.0, 0.0, 0.0, 0.0, 0.0, 0.0, 0.0, 0.0, 0.0, 1.6541731774066055E9, 0.0, 2022-06-02 14:32:57.406
115.0, 18102.230799464083, 133.50696963154908, -55018.64016278269, -44595.1276534948, -20053.40397994566, -21035.15965165611, 349.53657979209186, -5632.5725475040135, -0.008, 0.982, 0.226, 192.0, 0.0, 0.0, 0.0, 0.0, 0.0, 0.0, 0.0, 0.0, 0.0, 1.6541731774066107E9, 0.0, 2022-06-02 14:32:57.406
116.0, 18105.20358147664, 128.36606840682845, -54990.70048221356, -44571.81478402791, -20052.375799700716, -21043.429797104574, 364.4451933437817, -5627.5210532571145, -0.008, 0.982, 0.226, 192.0, 0.0, 0.0, 0.0, 0.0, 0.0, 0.0, 0.0, 0.0, 0.0, 1.6541731774066162E9, 0.0, 2022-06-02 14:32:57.406
117.0, 18098.29689243995, 124.14158870477543, -54940.274946722384, -44546.57966453787, -20042.67514260711, -21042.960410471012, 388.8980017778876, -5632.907823670844, -0.008, 0.982, 0.226, 192.0, 0.0, 0.0, 0.0, 0.0, 0.0, 0.0, 0.0, 0.0, 0.0, 1.6541731774066217E9, 0.0, 2022-06-02 14:32:57.406
118.0, 18080.907235253722, 119.44772236916094, -54949.46151369352, -44545.70794650411, -20042.29516295137, -21043.027465704377, 392.7425018242004, -5629.912689913833, -0.008, 0.982, 0.226, 192.0, 0.0, 0.0, 0.0, 0.0, 0.0, 0.0, 0.0, 0.0, 0.0, 1.6541731774066267E9, 0.0, 2022-06-02 14:32:57.406
119.0, 18066.915043224697, 114.08330369988725, -54999.26120033994, -44573.24529567305, -20052.912241567643, -21043.809776760314, 363.90875147685426, -5611.874832138399, -0.008, 0.982, 0.226, 192.0, 0.0, 0.0, 0.0, 0.0, 0.0, 0.0, 0.0, 0.0, 0.0, 1.6541731774066324E9, 0.0, 2022-06-02 14:32:57.406
120.0, 18082.315395154405, 128.54488236247093, -55022.8869942292, -44602.25785997604, -20070.771285387433, -21046.380227372676, 342.00404191065337, -5631.343201558972, -0.008, 0.982, 0.226, 192.0, 0.0, 0.0, 0.0, 0.0, 0.0, 0.0, 0.0, 0.0, 0.0, 1.654173177406638E9, 0.0, 2022-06-02 14:32:57.406
121.0, 18082.20363643213, 130.17655970770832, -54977.66941519611, -44610.773874613515, -20088.5409222294, -21053.801006531838, 378.03505397260835, -5611.763073416123, -0.008, 0.982, 0.226, 192.0, 0.0, 0.0, 0.0, 0.0, 0.0, 0.0, 0.0, 0.0, 0.0, 1.6541731774066432E9, 0.0, 2022-06-02 14:32:57.406
122.0, 18093.82654354889, 152.97533905212154, -54959.720964398504, -44521.635117725746, -20077.968547102042, -21060.46182637952, 401.07970250602995, -5617.775692674601, -0.008, 0.982, 0.226, 192.0, 0.0, 0.0, 0.0, 0.0, 0.0, 0.0, 0.0, 0.0, 0.0, 1.6541731774066486E9, 0.0, 2022-06-02 14:32:57.406
123.0, 18102.655482608734, 183.73133942262405, -54939.179711244076, -44506.592393707324, -20061.62942190521, -21041.0158087034, 413.5966794010019, -5616.456939751737, -0.016, 0.996, 0.2, 192.0, 255.0, 128.0, 31.0, 32.0, 6.0, 64.0, 0.0, 0.0, 0.0, 1.654173177406654E9, 0.0, 2022-06-02 14:32:57.406
124.0, 18108.95867454513, 191.5097464930709, -54954.37889747368, -44529.92761491866, -20056.041485791386, -21024.475517806473, 384.6958738202899, -5624.816492178023, -0.016, 0.996, 0.2, 192.0, 0.0, 0.0, 0.0, 0.0, 0.0, 0.0, 0.0, 0.0, 0.0, 1.6541731774066594E9, 0.0, 2022-06-02 14:32:57.406
125.0, 18140.45228248266, 217.4824735501377, -54958.44691496455, -44523.69147821564, -20025.06196797633, -21015.043081646334, 386.5063651211697, -5622.626021221402, -0.016, 0.996, 0.2, 192.0, 0.0, 0.0, 0.0, 0.0, 0.0, 0.0, 0.0, 0.0, 0.0, 1.6541731774066648E9, 0.0, 2022-06-02 14:32:57.406
126.0, 18152.857500655355, 224.3668108423723, -54964.39247898966, -44504.62544019526, -20009.751023024444, -21011.511506022394, 433.5567871995911, -5557.090706478442, -0.016, 0.996, 0.2, 192.0, 0.0, 0.0, 0.0, 0.0, 0.0, 0.0, 0.0, 0.0, 0.0, 1.6541731774066725E9, 0.0, 2022-06-02 14:32:57.406
127.0, 18116.8264885934, 181.60792369936988, -54999.708235229045, -44536.05199289942, -20028.481784877993, -21084.199378991056, 400.6326676169238, -5647.21294012224, -0.016, 0.996, 0.2, 192.0, 0.0, 0.0, 0.0, 0.0, 0.0, 0.0, 0.0, 0.0, 0.0, 1.6541731774066777E9, 0.0, 2022-06-02 14:32:57.406
128.0, 18116.848840337854, 181.58557195491457, -54995.81903169383, -44518.550576990914, -20006.845296245254, -21079.483160910986, 413.82019684555496, -5677.723071303734, -0.016, 0.996, 0.2, 192.0, 0.0, 0.0, 0.0, 0.0, 0.0, 0.0, 0.0, 0.0, 0.0, 1.6541731774066832E9, 0.0, 2022-06-02 14:32:57.406
129.0, 18126.236573009082, 186.03356910152067, -55012.62754352421, -44522.685649715146, -19992.830752471775, -21037.059549934813, 414.46839743475886, -5595.759224386123, -0.016, 0.996, 0.2, 192.0, 0.0, 0.0, 0.0, 0.0, 0.0, 0.0, 0.0, 0.0, 0.0, 1.6541731774066887E9, 0.0, 2022-06-02 14:32:57.406
130.0, 18144.92263137372, 199.22109833015185, -55036.342744391295, -44534.93440567666, -20002.8219822433, -21037.953619713026, 402.5772693845355, -5593.613456918413, -0.016, 0.996, 0.2, 192.0, 0.0, 0.0, 0.0, 0.0, 0.0, 0.0, 0.0, 0.0, 0.0, 1.654173177406694E9, 0.0, 2022-06-02 14:32:57.406
131.0, 18163.049896126973, 204.00437164358758, -55040.52252060444, -44522.97622239307, -20013.036729459374, -21044.882660494168, 414.40134220139294, -5609.3267332704945, -0.016, 0.996, 0.2, 192.0, 0.0, 0.0, 0.0, 0.0, 0.0, 0.0, 0.0, 0.0, 0.0, 1.6541731774066994E9, 0.0, 2022-06-02 14:32:57.406
132.0, 18171.051820641973, 206.75363621159033, -55020.7859302504, -44494.500099957004, -20013.841392259765, -21056.97495424449, 420.72688588224486, -5622.804835177045, -0.016, 0.996, 0.2, 192.0, 0.0, 0.0, 0.0, 0.0, 0.0, 0.0, 0.0, 0.0, 0.0, 1.654173177406705E9, 0.0, 2022-06-02 14:32:57.406
133.0, 18168.6378322408, 203.08795012091997, -55011.241735367985, -44477.378663704236, -20008.499325334946, -21048.771864029393, 441.35754601449327, -5621.061399109531, 0.014, 1.01, 0.188, 192.0, 0.0, 112.0, 31.0, 144.0, 5.0, 224.0, 0.0, 0.0, 0.0, 1.6541731774067101E9, 0.0, 2022-06-02 14:32:57.406
134.0, 18168.257852585062, 199.7351884526239, -55021.03179943941, -44492.197870278105, -20007.180572412082, -21045.709675039016, 433.3109180105827, -5637.467579539726, 0.014, 1.01, 0.188, 192.0, 0.0, 0.0, 0.0, 0.0, 0.0, 0.0, 0.0, 0.0, 0.0, 1.6541731774067156E9, 0.0, 2022-06-02 14:32:57.406
135.0, 18191.97305345214, 209.10056937939757, -55038.734381048016, -44499.41748373717, -20008.85695324623, -21048.146015184644, 441.5363599701357, -5623.967125888721, 0.014, 1.01, 0.188, 192.0, 0.0, 0.0, 0.0, 0.0, 0.0, 0.0, 0.0, 0.0, 0.0, 1.654173177406721E9, 0.0, 2022-06-02 14:32:57.406
136.0, 18215.442385130213, 217.795397972512, -55026.53032857541, -44493.13664354523, -20014.176668426593, -21061.98174500248, 441.69282218132287, -5624.458864266738, 0.014, 1.01, 0.188, 192.0, 0.0, 0.0, 0.0, 0.0, 0.0, 0.0, 0.0, 0.0, 0.0, 1.6541731774067264E9, 0.0, 2022-06-02 14:32:57.406
137.0, 18230.552164382003, 233.77689525805656, -54995.14847936016, -44464.74992808699, -20015.80834577183, -21062.87581478069, 439.010612846686, -5643.301384842562, 0.014, 1.01, 0.188, 192.0, 0.0, 0.0, 0.0, 0.0, 0.0, 0.0, 0.0, 0.0, 0.0, 1.6541731774067323E9, 0.0, 2022-06-02 14:32:57.406
138.0, 18229.501632392603, 231.3405551124281, -54989.135860101684, -44444.521599354935, -20007.985235212476, -21046.559041328317, 446.2302263057502, -5639.345126073972, 0.014, 1.01, 0.188, 192.0, 0.0, 0.0, 0.0, 0.0, 0.0, 0.0, 0.0, 0.0, 0.0, 1.6541731774067378E9, 0.0, 2022-06-02 14:32:57.406
139.0, 18233.435539416736, 231.20644464569625, -54999.41766255113, -44451.69650932509, -19996.67525251809, -21018.93228518156, 446.6325577059457, -5604.141128556863, 0.014, 1.01, 0.188, 192.0, 0.0, 0.0, 0.0, 0.0, 0.0, 0.0, 0.0, 0.0, 0.0, 1.6541731774067433E9, 0.0, 2022-06-02 14:32:57.406
140.0, 18233.413187672282, 221.5951945299142, -55026.485625086505, -44488.062797553874, -20018.088223706272, -21030.264619620397, 423.31968823906044, -5599.559020943525, 0.014, 1.01, 0.188, 192.0, 0.0, 0.0, 0.0, 0.0, 0.0, 0.0, 0.0, 0.0, 0.0, 1.6541731774067488E9, 0.0, 2022-06-02 14:32:57.406
141.0, 18232.60852487189, 206.75363621159033, -55034.95693623507, -44535.828475454866, -20037.936572782586, -21067.949660772047, 423.8114266170772, -5627.185777090285, 0.014, 1.01, 0.188, 192.0, 0.0, 0.0, 0.0, 0.0, 0.0, 0.0, 0.0, 0.0, 0.0, 1.654173177406754E9, 0.0, 2022-06-02 14:32:57.406
142.0, 18234.195498728215, 203.35617105438365, -55005.81026146535, -44497.33877150283, -20040.529375139402, -21078.611442877227, 440.7540489142, -5630.87381492541, 0.014, 1.01, 0.188, 192.0, 0.0, 0.0, 0.0, 0.0, 0.0, 0.0, 0.0, 0.0, 0.0, 1.6541731774067595E9, 0.0, 2022-06-02 14:32:57.406
143.0, 18231.021551015565, 205.88191817783334, -54983.145592587665, -44447.874361023234, -20028.861764533733, -21062.428779891587, 442.1175053259737, -5647.615271522435, 0.034, 1.026, 0.184, 192.0, 1.0, 16.0, 32.0, 16.0, 5.0, 192.0, 0.0, 0.0, 0.0, 1.6541731774067652E9, 0.0, 2022-06-02 14:32:57.406
144.0, 18235.961286540187, 207.73711296762383, -54997.71892997252, -44477.46807068206, -20024.369063898215, -21040.792291258847, 412.47909217823656, -5658.701736772267, 0.034, 1.026, 0.184, 192.0, 0.0, 0.0, 0.0, 0.0, 0.0, 0.0, 0.0, 0.0, 0.0, 1.6541731774067705E9, 0.0, 2022-06-02 14:32:57.406
145.0, 18248.478263435158, 211.31339208047297, -55035.69454380209, -44497.42817848065, -20035.433177403593, -21045.106177938724, 371.70951029175643, -5682.685158572813, 0.034, 1.026, 0.184, 192.0, 0.0, 0.0, 0.0, 0.0, 0.0, 0.0, 0.0, 0.0, 0.0, 1.654173177406776E9, 0.0, 2022-06-02 14:32:57.406
146.0, 18253.932089082253, 209.25703159058472, -55028.20670940956, -44511.46507399858, -20047.972506043017, -21077.359745187732, 390.239106445206, -5732.4177899858705, 0.034, 1.026, 0.184, 192.0, 0.0, 0.0, 0.0, 0.0, 0.0, 0.0, 0.0, 0.0, 0.0, 1.6541731774067814E9, 0.0, 2022-06-02 14:32:57.406
147.0, 18259.341211240437, 211.31339208047297, -54960.23505452098, -44485.58175391934, -20048.888927565687, -21070.229538706488, 454.7462409432222, -5667.642434554391, 0.034, 1.026, 0.184, 192.0, 0.0, 0.0, 0.0, 0.0, 0.0, 0.0, 0.0, 0.0, 0.0, 1.6541731774067893E9, 0.0, 2022-06-02 14:32:57.406
148.0, 18248.254745990605, 197.8129384294675, -54972.5732174603, -44474.85291658079, -20039.948229783564, -21042.35691337072, 489.1902791488504, -5588.226686504685, 0.034, 1.026, 0.184, 192.0, 0.0, 0.0, 0.0, 0.0, 0.0, 0.0, 0.0, 0.0, 0.0, 1.6541731774067943E9, 0.0, 2022-06-02 14:32:57.406
149.0, 18227.869955047365, 172.91309510625544, -55046.17751195163, -44517.34358279033, -20042.049293762364, -21042.44632034854, 466.4585550378031, -5622.000172376654, 0.034, 1.026, 0.184, 192.0, 0.0, 0.0, 0.0, 0.0, 0.0, 0.0, 0.0, 0.0, 0.0, 1.6541731774068E9, 0.0, 2022-06-02 14:32:57.406
150.0, 18214.481260118635, 156.41750769823884, -55056.973404523545, -44555.9673972091, -20054.186291001595, -21071.190663718065, 430.53930169812463, -5668.3800421214155, 0.034, 1.026, 0.184, 192.0, 0.0, 0.0, 0.0, 0.0, 0.0, 0.0, 0.0, 0.0, 0.0, 1.6541731774068055E9, 0.0, 2022-06-02 14:32:57.406
151.0, 18225.88064979084, 162.36307172335052, -55040.07548571533, -44554.492182075046, -20057.136721269693, -21081.65128012315, 410.1768624993399, -5697.705530846779, 0.034, 1.026, 0.184, 192.0, 0.0, 0.0, 0.0, 0.0, 0.0, 0.0, 0.0, 0.0, 0.0, 1.6541731774068108E9, 0.0, 2022-06-02 14:32:57.406
152.0, 18224.964228268174, 168.48744970410465, -55038.33204964782, -44541.93050169117, -20066.099770796274, -21095.576416918804, 387.31102792156076, -5733.155397552896, 0.052000000000000005, 1.012, 0.196, 192.0, 1.0, 160.0, 31.0, 160.0, 6.0, 32.0, 0.0, 0.0, 0.0, 1.6541731774068167E9, 0.0, 2022-06-02 14:32:57.406
153.0, 18217.02935898654, 167.30280724797336, -55027.15617742016, -44552.882856474265, -20062.948174828074, -21086.2780912254, 391.66961809034564, -5755.551845497113, 0.052000000000000005, 1.012, 0.196, 192.0, 0.0, 0.0, 0.0, 0.0, 0.0, 0.0, 0.0, 0.0, 0.0, 1.6541731774068222E9, 0.0, 2022-06-02 14:32:57.406
154.0, 18201.65135880129, 160.12789727781978, -55033.481721101016, -44601.09556926436, -20058.656639892655, -21054.248041420942, 416.7035718802896, -5710.5801356530355, 0.052000000000000005, 1.012, 0.196, 192.0, 0.0, 0.0, 0.0, 0.0, 0.0, 0.0, 0.0, 0.0, 0.0, 1.6541731774068277E9, 0.0, 2022-06-02 14:32:57.406
155.0, 18192.17421915224, 148.61674888333667, -55042.33301190532, -44580.59901959885, -20064.31163123985, -21049.285954151866, 430.3604877424822, -5657.450039082771, 0.052000000000000005, 1.012, 0.196, 192.0, 0.0, 0.0, 0.0, 0.0, 0.0, 0.0, 0.0, 0.0, 0.0, 1.654173177406833E9, 0.0, 2022-06-02 14:32:57.406
156.0, 18208.870972260353, 163.5924176683924, -55028.229061154016, -44583.25887718903, -20073.96758484454, -21055.767960043904, 427.45476096329224, -5669.832905511011, 0.052000000000000005, 1.012, 0.196, 192.0, 0.0, 0.0, 0.0, 0.0, 0.0, 0.0, 0.0, 0.0, 0.0, 1.6541731774068394E9, 0.0, 2022-06-02 14:32:57.406
157.0, 18220.203306699193, 182.2561242885738, -55003.99977016447, -44568.52907759298, -20059.21543350404, -21054.516262354406, 451.751107186211, -5700.834775070522, 0.052000000000000005, 1.012, 0.196, 192.0, 0.0, 0.0, 0.0, 0.0, 0.0, 0.0, 0.0, 0.0, 0.0, 1.6541731774068449E9, 0.0, 2022-06-02 14:32:57.406
158.0, 18222.28201893354, 191.08506334842008, -54983.39146177667, -44557.10733617632, -20020.97159874101, -21028.007093430413, 482.0600726676074, -5713.03882754312, 0.052000000000000005, 1.012, 0.196, 192.0, 0.0, 0.0, 0.0, 0.0, 0.0, 0.0, 0.0, 0.0, 0.0, 1.6541731774068503E9, 0.0, 2022-06-02 14:32:57.406
159.0, 18206.45698385918, 170.5661619384482, -55009.96768593403, -44621.97209858562, -20009.974540468997, -21015.132488624156, 473.61111326350135, -5705.08160651703, 0.052000000000000005, 1.012, 0.196, 192.0, 0.0, 0.0, 0.0, 0.0, 0.0, 0.0, 0.0, 0.0, 0.0, 1.6541731774068556E9, 0.0, 2022-06-02 14:32:57.406
160.0, 18202.053690201486, 163.21243801265217, -55036.54391009139, -44610.483301935594, -20025.263133676428, -21032.097462665733, 426.76185688517774, -5720.012571813175, 0.052000000000000005, 1.012, 0.196, 192.0, 0.0, 0.0, 0.0, 0.0, 0.0, 0.0, 0.0, 0.0, 0.0, 1.6541731774068613E9, 0.0, 2022-06-02 14:32:57.406
161.0, 18229.7027980927, 197.56706924045912, -55015.46621507004, -44577.38036839728, -20032.147470968663, -21049.755340785425, 400.05152226108584, -5771.175714871373, 0.052000000000000005, 1.012, 0.196, 192.0, 0.0, 0.0, 0.0, 0.0, 0.0, 0.0, 0.0, 0.0, 0.0, 1.6541731774068663E9, 0.0, 2022-06-02 14:32:57.406
162.0, 18224.830117801444, 206.9548019116881, -54992.48862176998, -44568.52907759298, -20040.887003050688, -21056.12558795519, 426.11365629597384, -5755.976528641764, 0.052000000000000005, 0.936, 0.17, 192.0, 1.0, 160.0, 29.0, 64.0, 5.0, 80.0, 0.0, 0.0, 0.0, 1.654173177406872E9, 0.0, 2022-06-02 14:32:57.406
163.0, 18202.143097179305, 190.95095288168824, -54963.47605746699, -44537.43780105565, -20013.036729459374, -21033.97500919998, 505.1270729454843, -5693.235181955717, 0.052000000000000005, 0.936, 0.17, 192.0, 0.0, 0.0, 0.0, 0.0, 0.0, 0.0, 0.0, 0.0, 0.0, 1.6541731774068775E9, 0.0, 2022-06-02 14:32:57.406
164.0, 18206.479335603635, 184.93833362321064, -54955.56353992982, -44525.39021079424, -19976.178702852572, -21018.50760203691, 514.8277300390876, -5676.717242803245, 0.052000000000000005, 0.936, 0.17, 192.0, 0.0, 0.0, 0.0, 0.0, 0.0, 0.0, 0.0, 0.0, 0.0, 1.6541731774068832E9, 0.0, 2022-06-02 14:32:57.406
165.0, 18196.711623276668, 167.1239932923309, -54992.376863047706, -44554.93921696416, -20013.39435737066, -21040.188794158556, 459.7977351901216, -5692.251705199684, 0.052000000000000005, 0.936, 0.17, 192.0, 0.0, 0.0, 0.0, 0.0, 0.0, 0.0, 0.0, 0.0, 0.0, 1.6541731774070172E9, 0.0, 2022-06-02 14:32:57.407
166.0, 18221.678521833244, 189.5651447254592, -54990.611075235734, -44546.22203662658, -20030.784014556888, -21052.79517803135, 437.4012872459039, -5704.723978605745, 0.052000000000000005, 0.936, 0.17, 192.0, 0.0, 0.0, 0.0, 0.0, 0.0, 0.0, 0.0, 0.0, 0.0, 1.6541731774070227E9, 0.0, 2022-06-02 14:32:57.407
167.0, 18253.775626871065, 211.51455778057073, -54962.42552547759, -44523.803236937914, -20020.54691559636, -21069.46957939501, 436.90954886788717, -5736.150531309907, 0.052000000000000005, 0.936, 0.17, 192.0, 0.0, 0.0, 0.0, 0.0, 0.0, 0.0, 0.0, 0.0, 0.0, 1.654173177407028E9, 0.0, 2022-06-02 14:32:57.407
168.0, 18231.84856556041, 185.56418246795923, -54944.36531595771, -44507.307649529896, -19994.954168195032, -21054.985648987968, 473.4993545412248, -5715.095188033008, 0.052000000000000005, 0.936, 0.17, 192.0, 0.0, 0.0, 0.0, 0.0, 0.0, 0.0, 0.0, 0.0, 0.0, 1.6541731774070334E9, 0.0, 2022-06-02 14:32:57.407
169.0, 18220.717396821667, 169.0015398265767, -54965.733583656984, -44500.445663982115, -19984.068868645296, -21017.792346214337, 504.5012241007357, -5655.304271615061, 0.052000000000000005, 0.936, 0.17, 192.0, 0.0, 0.0, 0.0, 0.0, 0.0, 0.0, 0.0, 0.0, 0.0, 1.6541731774070404E9, 0.0, 2022-06-02 14:32:57.407
170.0, 18230.730978337644, 169.6720921602359, -54973.86961863871, -44524.25027182702, -19992.38371758267, -21013.232590345455, 497.1251484304844, -5619.720294442212, 0.052000000000000005, 0.936, 0.17, 192.0, 0.0, 0.0, 0.0, 0.0, 0.0, 0.0, 0.0, 0.0, 0.0, 1.654173177407046E9, 0.0, 2022-06-02 14:32:57.407
171.0, 18235.827176073453, 166.65460665876947, -54963.31959525581, -44536.76724872199, -20003.984272954975, -21032.142166154645, 478.5061452992136, -5638.07107664002, 0.052000000000000005, 0.936, 0.17, 192.0, 0.0, 0.0, 0.0, 0.0, 0.0, 0.0, 0.0, 0.0, 0.0, 1.654173177407051E9, 0.0, 2022-06-02 14:32:57.407
172.0, 18244.700818622212, 165.1570397802639, -54948.90272008214, -44466.828640321335, -20014.86957250471, -21060.126550212688, 485.03285468016327, -5662.300367629572, 0.074, 0.996, 0.184, 192.0, 2.0, 80.0, 31.0, 32.0, 5.0, 192.0, 0.0, 0.0, 0.0, 1.6541731774070566E9, 0.0, 2022-06-02 14:32:57.407
173.0, 18253.954440826707, 179.88683937631123, -54910.59183008574, -44439.201884174574, -19985.47702854598, -21033.416215588597, 520.8179975531099, -5628.705695713245, 0.074, 0.996, 0.184, 192.0, 0.0, 0.0, 0.0, 0.0, 0.0, 0.0, 0.0, 0.0, 0.0, 1.654173177407062E9, 0.0, 2022-06-02 14:32:57.407
174.0, 18261.621089174878, 186.23473480161846, -54914.279867920864, -44486.72169288656, -19962.454731757014, -20992.33370927974, 531.8597593140315, -5602.934134356276, 0.074, 0.996, 0.184, 192.0, 0.0, 0.0, 0.0, 0.0, 0.0, 0.0, 0.0, 0.0, 0.0, 1.6541731774070673E9, 0.0, 2022-06-02 14:32:57.407
175.0, 18240.968077298174, 153.5117809190489, -54965.15243830114, -44552.882856474265, -19983.063040144807, -21029.437605075553, 511.9890584932636, -5637.02054465062, 0.074, 0.996, 0.184, 192.0, 0.0, 0.0, 0.0, 0.0, 0.0, 0.0, 0.0, 0.0, 0.0, 1.6541731774070728E9, 0.0, 2022-06-02 14:32:57.407
176.0, 18242.286830221037, 145.04046977048753, -55002.27868584141, -44473.33299795783, -20002.44200258756, -21070.631870106685, 501.6625525549117, -5675.5996555804795, 0.074, 0.996, 0.184, 192.0, 0.0, 0.0, 0.0, 0.0, 0.0, 0.0, 0.0, 0.0, 0.0, 1.654173177407078E9, 0.0, 2022-06-02 14:32:57.407
177.0, 18247.360676212393, 154.02587104152096, -54997.29424682787, -44468.86264906677, -20006.241799144962, -21095.419954707617, 513.2631079272161, -5730.227319029251, 0.074, 0.996, 0.184, 192.0, 0.0, 0.0, 0.0, 0.0, 0.0, 0.0, 0.0, 0.0, 0.0, 1.6541731774070835E9, 0.0, 2022-06-02 14:32:57.407
178.0, 18247.31597272348, 160.7537461225684, -54981.42450826461, -44460.883076296224, -19989.254473358927, -21063.144035714155, 514.1124742165177, -5722.94065033682, 0.074, 0.996, 0.184, 192.0, 0.0, 0.0, 0.0, 0.0, 0.0, 0.0, 0.0, 0.0, 0.0, 1.6541731774070888E9, 0.0, 2022-06-02 14:32:57.407
179.0, 18252.27805999256, 168.0627665594538, -54974.69663318356, -44477.82569859335, -19977.072772630785, -21029.68347426456, 492.61009605051237, -5717.889156089921, 0.074, 0.996, 0.184, 192.0, 0.0, 0.0, 0.0, 0.0, 0.0, 0.0, 0.0, 0.0, 0.0, 1.6541731774070942E9, 0.0, 2022-06-02 14:32:57.407
180.0, 18269.153627056316, 180.87031613234475, -54998.948275917566, -44503.731370417045, -19975.508150518912, -21023.693206750537, 481.54598254513536, -5736.552862710102, 0.074, 0.996, 0.184, 192.0, 0.0, 0.0, 0.0, 0.0, 0.0, 0.0, 0.0, 0.0, 0.0, 1.6541731774070995E9, 0.0, 2022-06-02 14:32:57.407
181.0, 18270.9641183572, 168.57685668192588, -55011.50995630145, -44524.76436194949, -19992.96486293851, -21067.54732937185, 495.0687879405961, -5776.0930986515405, 0.074, 0.996, 0.184, 192.0, 0.0, 0.0, 0.0, 0.0, 0.0, 0.0, 0.0, 0.0, 0.0, 1.654173177407105E9, 0.0, 2022-06-02 14:32:57.407
182.0, 18267.99133634464, 163.6594729017583, -55017.23200288201, -44525.16669334969, -20004.230142143984, -21079.1255329997, 536.5312739051907, -5737.558691210591, 0.08600000000000001, 0.992, 0.18, 192.0, 2.0, 176.0, 31.0, 0.0, 5.0, 160.0, 0.0, 0.0, 0.0, 1.6541731774071105E9, 0.0, 2022-06-02 14:32:57.407
183.0, 18251.786321614545, 148.99672853907688, -55014.70625575856, -44492.08611155583, -19997.85989497422, -21053.152805942635, 527.2552999562383, -5720.526661935647, 0.08600000000000001, 0.992, 0.18, 192.0, 0.0, 0.0, 0.0, 0.0, 0.0, 0.0, 0.0, 0.0, 0.0, 1.6541731774071157E9, 0.0, 2022-06-02 14:32:57.407
184.0, 18248.254745990605, 143.3640889363395, -55036.72272404704, -44521.67982121466, -19981.27490058838, -21041.88752673716, 526.3612301780261, -5753.987223385242, 0.08600000000000001, 0.992, 0.18, 192.0, 0.0, 0.0, 0.0, 0.0, 0.0, 0.0, 0.0, 0.0, 0.0, 1.6541731774071212E9, 0.0, 2022-06-02 14:32:57.407
185.0, 18247.025400045564, 137.21735921113006, -55067.12109650626, -44561.264760645005, -19991.15437163763, -21038.73593076896, 525.8918435444646, -5756.334156553049, 0.08600000000000001, 0.992, 0.18, 192.0, 0.0, 0.0, 0.0, 0.0, 0.0, 0.0, 0.0, 0.0, 0.0, 1.654173177407127E9, 0.0, 2022-06-02 14:32:57.407
186.0, 18241.7056848652, 122.800484037457, -55087.81881187187, -44616.80884561645, -20010.53333408038, -21062.920518269602, 485.61400003600124, -5774.886104450954, 0.08600000000000001, 0.992, 0.18, 192.0, 0.0, 0.0, 0.0, 0.0, 0.0, 0.0, 0.0, 0.0, 0.0, 1.6541731774071355E9, 0.0, 2022-06-02 14:32:57.407
187.0, 18231.26742020457, 109.68001004219175, -55083.84020135882, -44585.047016745455, -20028.079453477796, -21099.957358832045, 444.2632727936832, -5833.738247601777, 0.08600000000000001, 0.992, 0.18, 192.0, 0.0, 0.0, 0.0, 0.0, 0.0, 0.0, 0.0, 0.0, 0.0, 1.654173177407142E9, 0.0, 2022-06-02 14:32:57.407
188.0, 18224.785414312533, 114.86561475582299, -55069.199808740595, -44561.555333322925, -20030.24757268996, -21103.712451900537, 417.0611997915745, -5885.817812182643, 0.08600000000000001, 0.992, 0.18, 192.0, 0.0, 0.0, 0.0, 0.0, 0.0, 0.0, 0.0, 0.0, 0.0, 1.6541731774071517E9, 0.0, 2022-06-02 14:32:57.407
189.0, 18222.013798000073, 112.89866124375597, -55065.40001218319, -44572.887667761766, -20006.062985189317, -21070.207186962034, 474.0357964081522, -5846.478741941302, 0.08600000000000001, 0.992, 0.18, 192.0, 0.0, 0.0, 0.0, 0.0, 0.0, 0.0, 0.0, 0.0, 0.0, 1.654173177407164E9, 0.0, 2022-06-02 14:32:57.407
190.0, 18229.479280648146, 115.13383568928668, -55081.82854435784, -44610.572708913416, -20008.38756661267, -21051.54348034185, 496.72281703028887, -5785.14555515594, 0.08600000000000001, 0.992, 0.18, 192.0, 0.0, 0.0, 0.0, 0.0, 0.0, 0.0, 0.0, 0.0, 0.0, 1.6541731774071755E9, 0.0, 2022-06-02 14:32:57.407
191.0, 18236.40832142929, 121.99582123706595, -55090.165745039674, -44605.49886292206, -20029.7781860564, -21065.334506670777, 453.5615984870909, -5811.028875235185, 0.08600000000000001, 0.992, 0.18, 192.0, 0.0, 0.0, 0.0, 0.0, 0.0, 0.0, 0.0, 0.0, 0.0, 1.654173177407181E9, 0.0, 2022-06-02 14:32:57.407
192.0, 18242.219774987672, 127.27083292851842, -55067.47872441754, -44556.101507675834, -20039.121215238716, -21071.235367206977, 447.34781352851553, -5831.413666178425, 0.058, 0.98, 0.162, 192.0, 1.0, 208.0, 30.0, 160.0, 5.0, 16.0, 0.0, 0.0, 0.0, 1.6541731774071865E9, 0.0, 2022-06-02 14:32:57.407
193.0, 18248.880594835355, 138.6255191118144, -55041.1930729381, -44555.050975686434, -20012.947322481552, -21061.132378713177, 500.43320660986984, -5816.996791004753, 0.058, 0.98, 0.162, 192.0, 0.0, 0.0, 0.0, 0.0, 0.0, 0.0, 0.0, 0.0, 0.0, 1.6541731774071918E9, 0.0, 2022-06-02 14:32:57.407
194.0, 18254.04384780453, 145.17458023721937, -55036.56626183585, -44606.32587746691, -19998.70926126352, -21036.657218534616, 491.82778499457663, -5843.617718651023, 0.058, 0.98, 0.162, 192.0, 0.0, 0.0, 0.0, 0.0, 0.0, 0.0, 0.0, 0.0, 0.0, 1.6541731774071972E9, 0.0, 2022-06-02 14:32:57.407
195.0, 18262.626917675367, 146.56038839344842, -55041.95303224958, -44602.43667393168, -19997.72578450749, -21051.901108253136, 482.0377209231521, -5876.832410911609, 0.058, 0.98, 0.162, 192.0, 0.0, 0.0, 0.0, 0.0, 0.0, 0.0, 0.0, 0.0, 0.0, 1.6541731774072027E9, 0.0, 2022-06-02 14:32:57.407
196.0, 18263.968022342688, 136.45739989964963, -55067.97046279556, -44565.57864732488, -20023.58675284228, -21072.88939629667, 446.09611583901835, -5830.609003378035, 0.058, 0.98, 0.162, 192.0, 0.0, 0.0, 0.0, 0.0, 0.0, 0.0, 0.0, 0.0, 0.0, 1.6541731774072084E9, 0.0, 2022-06-02 14:32:57.407
197.0, 18268.08074332246, 136.52445513301555, -55059.58855862481, -44533.99563240953, -20036.707226837545, -21092.357765717243, 429.0640865640744, -5843.617718651023, 0.058, 0.98, 0.162, 192.0, 0.0, 0.0, 0.0, 0.0, 0.0, 0.0, 0.0, 0.0, 0.0, 1.6541731774072137E9, 0.0, 2022-06-02 14:32:57.407
198.0, 18267.365487499894, 147.25329247156293, -55010.347665589776, -44525.36785904978, -20029.554668611847, -21089.139114515678, 408.32166770954944, -5884.007320881763, 0.058, 0.98, 0.162, 192.0, 0.0, 0.0, 0.0, 0.0, 0.0, 0.0, 0.0, 0.0, 0.0, 1.6541731774072192E9, 0.0, 2022-06-02 14:32:57.407
199.0, 18271.165284057293, 156.0375280424986, -55013.58866853579, -44519.22112932457, -20008.096993934752, -21052.79517803135, 417.84351084751023, -5854.614776923034, 0.058, 0.98, 0.162, 192.0, 0.0, 0.0, 0.0, 0.0, 0.0, 0.0, 0.0, 0.0, 0.0, 1.654173177407225E9, 0.0, 2022-06-02 14:32:57.407
200.0, 18281.29062429555, 154.6964233751802, -55027.804378009365, -44530.28524282995, -20002.151429909638, -21042.53572732636, 475.3769010754706, -5814.940430514865, 0.058, 0.98, 0.162, 192.0, 0.0, 0.0, 0.0, 0.0, 0.0, 0.0, 0.0, 0.0, 0.0, 1.65417317740723E9, 0.0, 2022-06-02 14:32:57.407
201.0, 18316.20404913474, 177.8975341197889, -55008.715988244534, -44509.56517571988, -19995.24474087295, -21057.846672278247, 504.1212444449955, -5836.755733103244, 0.058, 0.98, 0.162, 192.0, 0.0, 0.0, 0.0, 0.0, 0.0, 0.0, 0.0, 0.0, 0.0, 1.6541731774072356E9, 0.0, 2022-06-02 14:32:57.407
202.0, 18308.492697297657, 169.314464248951, -55004.044473653375, -44519.399943280216, -20000.56445605331, -21079.058477766335, 469.85602019500976, -5848.512750686736, 0.05, 1.008, 0.166, 192.0, 1.0, 144.0, 31.0, 128.0, 5.0, 48.0, 0.0, 0.0, 0.0, 1.654173177407241E9, 0.0, 2022-06-02 14:32:57.407
203.0, 18306.14576412985, 169.22505727112977, -54995.48375552699, -44531.29107133044, -19980.62669999918, -21054.426855376587, 504.21065142281674, -5795.114433183006, 0.05, 1.008, 0.166, 192.0, 0.0, 0.0, 0.0, 0.0, 0.0, 0.0, 0.0, 0.0, 0.0, 1.6541731774072464E9, 0.0, 2022-06-02 14:32:57.407
204.0, 18302.01069140562, 167.25810375906275, -55027.670267542635, -44479.61383814977, -19973.65295572912, -21032.276276621375, 504.81414852311, -5790.509973825214, 0.05, 1.008, 0.166, 192.0, 0.0, 0.0, 0.0, 0.0, 0.0, 0.0, 0.0, 0.0, 0.0, 1.6541731774072516E9, 0.0, 2022-06-02 14:32:57.407
205.0, 18309.073842653495, 170.16383053825265, -54994.72379621551, -44490.40973072168, -19968.199130082026, -21027.761224241403, 509.2844974141714, -5785.279665622672, 0.05, 1.008, 0.166, 192.0, 0.0, 0.0, 0.0, 0.0, 0.0, 0.0, 0.0, 0.0, 0.0, 1.6541731774072573E9, 0.0, 2022-06-02 14:32:57.407
206.0, 18328.519860329612, 185.7876999125123, -54991.86277292523, -44520.785751436444, -19967.394467281636, -21043.49685233794, 491.3136948721045, -5841.0696197831185, 0.05, 1.008, 0.166, 192.0, 0.0, 0.0, 0.0, 0.0, 0.0, 0.0, 0.0, 0.0, 0.0, 1.6541731774072628E9, 0.0, 2022-06-02 14:32:57.407
0.0, 0.0, 0.0, 0.0, 0.0, 0.0, 0.0, 0.0, 0.0, -0.006, 0.978, 0.28600000000000003, 192.0, 255.0, 208.0, 30.0, 144.0, 8.0, 240.0, 0.0, 0.0, 0.0, 1.6541731774893916E9, 0.0, 2022-06-02 14:32:57.489
1.0, 18854.54581434081, -333.06334412853056, -54478.599664998015, -44620.36277298484, -20169.27542320197, -21052.41519837561, -207.021857145054, -6255.292148028869, -0.006, 0.978, 0.28600000000000003, 192.0, 0.0, 0.0, 0.0, 0.0, 0.0, 0.0, 0.0, 0.0, 0.0, 1.6541731779665923E9, 0.0, 2022-06-02 14:32:57.966
2.0, 18858.055038220293, -318.0429718545642, -54447.977775094245, -44594.65826686123, -20153.09276021633, -21038.937096469057, -183.75369116707935, -6245.457380468533, -0.006, 0.978, 0.28600000000000003, 192.0, 0.0, 0.0, 0.0, 0.0, 0.0, 0.0, 0.0, 0.0, 0.0, 1.6541731779668264E9, 0.0, 2022-06-02 14:32:57.966
3.0, 18845.62746830314, -326.6483934698574, -54454.32567051955, -44567.25502815903, -20136.93244897514, -21017.367663069686, -176.17644979673028, -6218.769397588897, -0.006, 0.978, 0.28600000000000003, 192.0, 0.0, 0.0, 0.0, 0.0, 0.0, 0.0, 0.0, 0.0, 0.0, 1.6541731779668324E9, 0.0, 2022-06-02 14:32:57.966
4.0, 18831.747034996395, -346.31792859052763, -54481.14776386592, -44604.269516977016, -20144.420283367668, -21020.608666015705, -189.74395868110165, -6224.223223235992, -0.006, 0.978, 0.28600000000000003, 192.0, 0.0, 0.0, 0.0, 0.0, 0.0, 0.0, 0.0, 0.0, 0.0, 1.654173177966851E9, 0.0, 2022-06-02 14:32:57.966
5.0, 18851.416570117068, -334.2032830957512, -54480.65602548791, -44614.35015372636, -20146.49899560201, -21035.427872589575, -194.37076978335023, -6242.194025778059, -0.006, 0.978, 0.28600000000000003, 192.0, 0.0, 0.0, 0.0, 0.0, 0.0, 0.0, 0.0, 0.0, 0.0, 1.6541731779668565E9, 0.0, 2022-06-02 14:32:57.966
6.0, 18853.338820140223, -338.3830593088936, -54473.52581900667, -44598.279249463, -20155.216175939582, -21052.906936753625, -202.59621174290322, -6245.122104301704, -0.006, 0.978, 0.28600000000000003, 192.0, 0.0, 0.0, 0.0, 0.0, 0.0, 0.0, 0.0, 0.0, 0.0, 1.6541731779668639E9, 0.0, 2022-06-02 14:32:57.966
7.0, 18844.21930840246, -348.240178613684, -54472.89997016192, -44587.48335689108, -20159.060675985897, -21052.41519837561, -191.152118581786, -6233.409790207123, -0.034, 0.984, 0.34800000000000003, 192.0, 254.0, 240.0, 30.0, 192.0, 10.0, 224.0, 0.0, 0.0, 0.0, 1.654173177966869E9, 0.0, 2022-06-02 14:32:57.966
8.0, 18836.910287965573, -339.12066687591874, -54442.23337676923, -44621.681525907705, -20131.232754139037, -21020.988645671445, -171.1920107831968, -6216.601278376732, -0.034, 0.984, 0.34800000000000003, 192.0, 0.0, 0.0, 0.0, 0.0, 0.0, 0.0, 0.0, 0.0, 0.0, 1.6541731779668748E9, 0.0, 2022-06-02 14:32:57.966
9.0, 18842.900555479595, -338.0030796531534, -54453.40924899689, -44609.54452866847, -20127.052977925894, -21009.119869365677, -183.37371151133914, -6223.575022646788, -0.034, 0.984, 0.34800000000000003, 192.0, 0.0, 0.0, 0.0, 0.0, 0.0, 0.0, 0.0, 0.0, 0.0, 1.65417317796688E9, 0.0, 2022-06-02 14:32:57.966
10.0, 18836.239735631912, -351.078850159508, -54493.10594714951, -44637.86418889334, -20155.149120706217, -21038.02067494639, -219.42707531774943, -6263.450534755056, -0.034, 0.984, 0.34800000000000003, 192.0, 0.0, 0.0, 0.0, 0.0, 0.0, 0.0, 0.0, 0.0, 0.0, 1.6541731779668856E9, 0.0, 2022-06-02 14:32:57.966
11.0, 18844.956915969484, -340.61823375442435, -54485.372243567974, -44648.77184018753, -20165.296812688925, -21053.532785598374, -198.57289774094795, -6270.759555191941, -0.034, 0.984, 0.34800000000000003, 192.0, 0.0, 0.0, 0.0, 0.0, 0.0, 0.0, 0.0, 0.0, 0.0, 1.6541731779668913E9, 0.0, 2022-06-02 14:32:57.966
12.0, 18855.663401563575, -324.72614344670103, -54413.57844037753, -44556.68265303167, -20136.93244897514, -21022.128584638667, -149.89079831728915, -6218.255307466425, -0.034, 0.984, 0.34800000000000003, 192.0, 0.0, 0.0, 0.0, 0.0, 0.0, 0.0, 0.0, 0.0, 0.0, 1.6541731779668968E9, 0.0, 2022-06-02 14:32:57.966
13.0, 18856.06573296377, -319.0935038439636, -54418.36171369097, -44563.00819671252, -20114.87127719775, -20987.77395341086, -160.217304255641, -6200.105690968716, -0.034, 0.984, 0.34800000000000003, 192.0, 0.0, 0.0, 0.0, 0.0, 0.0, 0.0, 0.0, 0.0, 0.0, 1.654173177966902E9, 0.0, 2022-06-02 14:32:57.966
14.0, 18862.212462688978, -312.49973922964807, -54443.57448143655, -44571.32304564989, -20117.21821036556, -20981.783685896837, -181.47381323263804, -6202.072644480782, -0.034, 0.984, 0.34800000000000003, 192.0, 0.0, 0.0, 0.0, 0.0, 0.0, 0.0, 0.0, 0.0, 0.0, 1.6541731779669075E9, 0.0, 2022-06-02 14:32:57.966
15.0, 18858.703238809496, -320.4569602557374, -54443.239205269725, -44590.702008092645, -20131.165698905672, -21002.481401262452, -174.0753858179314, -6218.054141766327, -0.034, 0.984, 0.34800000000000003, 192.0, 0.0, 0.0, 0.0, 0.0, 0.0, 0.0, 0.0, 0.0, 0.0, 1.6541731779669127E9, 0.0, 2022-06-02 14:32:57.966
16.0, 18877.366945429676, -306.0624368265196, -54419.591059636005, -44575.27930441849, -20131.657437283688, -21007.376433298163, -158.38446121030586, -6227.1289500151815, -0.034, 0.984, 0.34800000000000003, 192.0, 0.0, 0.0, 0.0, 0.0, 0.0, 0.0, 0.0, 0.0, 0.0, 1.6541731779669185E9, 0.0, 2022-06-02 14:32:57.966
17.0, 18863.48651212293, -311.4939107291592, -54415.00895202267, -44587.88568829128, -20136.150137919205, -21001.050889617312, -154.51760941953773, -6226.592508148255, -0.05, 0.9520000000000001, 0.384, 192.0, 254.0, 112.0, 29.0, 192.0, 12.0, 0.0, 0.0, 0.0, 0.0, 1.6541731779669242E9, 0.0, 2022-06-02 14:32:57.966
18.0, 18859.798474287807, -320.0546288555418, -54425.760141105675, -44612.53966242548, -20128.774062248955, -20980.174360296056, -159.30088273297343, -6208.889926539651, -0.05, 0.9520000000000001, 0.384, 192.0, 0.0, 0.0, 0.0, 0.0, 0.0, 0.0, 0.0, 0.0, 0.0, 1.6541731779669297E9, 0.0, 2022-06-02 14:32:57.966
19.0, 18839.324276366744, -332.951585406254, -54447.553091949594, -44590.63495285928, -20122.02383542345, -20981.71663066347, -174.3212550069398, -6212.645019608142, -0.05, 0.9520000000000001, 0.384, 192.0, 0.0, 0.0, 0.0, 0.0, 0.0, 0.0, 0.0, 0.0, 0.0, 1.6541731779669352E9, 0.0, 2022-06-02 14:32:57.966
20.0, 18847.92969798204, -327.3636492924272, -54449.83296988404, -44645.21791281914, -20119.20751562208, -21000.33563379474, -180.53503996551515, -6233.432141951578, -0.05, 0.9520000000000001, 0.384, 192.0, 0.0, 0.0, 0.0, 0.0, 0.0, 0.0, 0.0, 0.0, 0.0, 1.654173177966941E9, 0.0, 2022-06-02 14:32:57.966
21.0, 18853.048247462302, -321.01575386712005, -54446.368449493464, -44652.12460185583, -20129.26580062697, -21021.502735793918, -186.61471445735867, -6253.816932894819, -0.05, 0.9520000000000001, 0.384, 192.0, 0.0, 0.0, 0.0, 0.0, 0.0, 0.0, 0.0, 0.0, 0.0, 1.654173177966947E9, 0.0, 2022-06-02 14:32:57.966
22.0, 18852.601212573198, -311.0468758400531, -54415.701856100786, -44578.185031197674, -20121.71091100108, -21004.783630941347, -167.88395260381134, -6238.036601309372, -0.05, 0.9520000000000001, 0.384, 192.0, 0.0, 0.0, 0.0, 0.0, 0.0, 0.0, 0.0, 0.0, 0.0, 1.6541731779669523E9, 0.0, 2022-06-02 14:32:57.966
23.0, 18851.997715472906, -306.44241648225983, -54407.5434693746, -44583.59415335586, -20092.45247750908, -20967.187996767523, -139.8995685457669, -6206.118310227193, -0.05, 0.9520000000000001, 0.384, 192.0, 0.0, 0.0, 0.0, 0.0, 0.0, 0.0, 0.0, 0.0, 0.0, 1.6541731779669578E9, 0.0, 2022-06-02 14:32:57.966
24.0, 18850.34368638321, -313.8855473858771, -54428.978792307236, -44597.563993640426, -20090.552579230378, -20963.52231067685, -155.83636234240083, -6214.388455675657, -0.05, 0.9520000000000001, 0.384, 192.0, 0.0, 0.0, 0.0, 0.0, 0.0, 0.0, 0.0, 0.0, 0.0, 1.6541731779669635E9, 0.0, 2022-06-02 14:32:57.966
25.0, 18862.3018696668, -311.5162624736145, -54438.120655789455, -44609.54452866847, -20103.02485263644, -20979.34734575121, -177.5846096974146, -6233.5886041627655, -0.05, 0.9520000000000001, 0.384, 192.0, 0.0, 0.0, 0.0, 0.0, 0.0, 0.0, 0.0, 0.0, 0.0, 1.6541731779669693E9, 0.0, 2022-06-02 14:32:57.966
26.0, 18861.586613844232, -315.8972043868547, -54434.834949354525, -44610.572708913416, -20114.804221964387, -21001.408517528598, -168.50980144855995, -6245.055049068338, -0.05, 0.9520000000000001, 0.384, 192.0, 0.0, 0.0, 0.0, 0.0, 0.0, 0.0, 0.0, 0.0, 0.0, 1.654173177966978E9, 0.0, 2022-06-02 14:32:57.966
27.0, 18847.527366581842, -324.01088762413116, -54431.01280105267, -44586.075196990394, -20113.977207419543, -21003.62134022967, -163.5924176683924, -6246.574967691299, -0.074, 0.9420000000000001, 0.394, 192.0, 253.0, 176.0, 29.0, 112.0, 12.0, 80.0, 0.0, 0.0, 0.0, 1.6541731779669836E9, 0.0, 2022-06-02 14:32:57.966
28.0, 18849.20374741599, -313.2820502855838, -54409.66688509785, -44619.35694448435, -20100.11912585725, -20970.38429622463, -157.08806003189804, -6221.384551690167, -0.074, 0.9420000000000001, 0.394, 192.0, 0.0, 0.0, 0.0, 0.0, 0.0, 0.0, 0.0, 0.0, 0.0, 1.6541731779669888E9, 0.0, 2022-06-02 14:32:57.966
29.0, 18852.377695128645, -312.4550357407374, -54422.34032420401, -44622.64265091928, -20102.913093914165, -20967.0985897897, -167.25810375906275, -6218.724694099987, -0.074, 0.9420000000000001, 0.394, 192.0, 0.0, 0.0, 0.0, 0.0, 0.0, 0.0, 0.0, 0.0, 0.0, 1.654173177966994E9, 0.0, 2022-06-02 14:32:57.966
30.0, 18861.787779544327, -318.9593933772318, -54460.78532466714, -44592.043112759966, -20116.659416754177, -20994.121848836166, -180.46798473214923, -6245.591490935265, -0.074, 0.9420000000000001, 0.394, 192.0, 0.0, 0.0, 0.0, 0.0, 0.0, 0.0, 0.0, 0.0, 0.0, 1.6541731779669995E9, 0.0, 2022-06-02 14:32:57.966
31.0, 18859.977288243448, -320.8145881670223, -54453.14102806342, -44599.15096749675, -20129.06463492687, -21023.849668961724, -172.734281150613, -6269.753726691452, -0.074, 0.9420000000000001, 0.394, 192.0, 0.0, 0.0, 0.0, 0.0, 0.0, 0.0, 0.0, 0.0, 0.0, 1.6541731779670053E9, 0.0, 2022-06-02 14:32:57.967
32.0, 18851.863605006172, -318.17708232129604, -54403.63191409492, -44590.76906332601, -20128.17056514866, -21022.374453827677, -165.93935083619962, -6243.222206023002, -0.074, 0.9420000000000001, 0.394, 192.0, 0.0, 0.0, 0.0, 0.0, 0.0, 0.0, 0.0, 0.0, 0.0, 1.654173177967011E9, 0.0, 2022-06-02 14:32:57.967
33.0, 18846.476834592442, -319.0711520995083, -54415.67950435633, -44594.56885988342, -20115.608884764777, -20994.479476747452, -154.22703674161872, -6212.600316119232, -0.074, 0.9420000000000001, 0.394, 192.0, 0.0, 0.0, 0.0, 0.0, 0.0, 0.0, 0.0, 0.0, 0.0, 1.6541731779670167E9, 0.0, 2022-06-02 14:32:57.967
34.0, 18848.10851193768, -321.28397480058374, -54438.23241451173, -44606.05765653344, -20108.16575386116, -20982.945976608513, -146.67214711572495, -6208.554650372822, -0.074, 0.9420000000000001, 0.394, 192.0, 0.0, 0.0, 0.0, 0.0, 0.0, 0.0, 0.0, 0.0, 0.0, 1.6541731779670222E9, 0.0, 2022-06-02 14:32:57.967
35.0, 18862.212462688978, -318.3335445324832, -54450.235301284236, -44612.718476381124, -20118.35814933278, -21001.45322101751, -158.4962199325824, -6224.022057535894, -0.074, 0.9420000000000001, 0.394, 192.0, 0.0, 0.0, 0.0, 0.0, 0.0, 0.0, 0.0, 0.0, 0.0, 1.6541731779670277E9, 0.0, 2022-06-02 14:32:57.967
36.0, 18867.576881358254, -309.7728264061006, -54444.557958192585, -44623.11203755284, -20135.83721349683, -21021.413328816096, -163.9723973241326, -6248.0278310808935, -0.074, 0.9420000000000001, 0.394, 192.0, 0.0, 0.0, 0.0, 0.0, 0.0, 0.0, 0.0, 0.0, 0.0, 1.654173177967033E9, 0.0, 2022-06-02 14:32:57.967
37.0, 18863.93354701204, -306.10714031543023, -54428.30823997358, -44644.27913955202, -20129.399911093704, -21012.517334522883, -157.6021501543701, -6241.434066466578, -0.08, 0.936, 0.402, 192.0, 253.0, 128.0, 29.0, 64.0, 12.0, 144.0, 0.0, 0.0, 0.0, 1.6541731779670384E9, 0.0, 2022-06-02 14:32:57.967
38.0, 18853.897613751604, -318.6241172104022, -54435.90783308838, -44576.57570559689, -20117.73230048803, -21001.0061861284, -173.69540616219118, -6245.747953146452, -0.08, 0.936, 0.402, 192.0, 0.0, 0.0, 0.0, 0.0, 0.0, 0.0, 0.0, 0.0, 0.0, 1.6541731779670436E9, 0.0, 2022-06-02 14:32:57.967
39.0, 18844.06284619127, -324.4132190243267, -54462.327595034556, -44629.92931961171, -20117.88876269922, -21004.11307860769, -177.62931318632522, -6250.039488081871, -0.08, 0.936, 0.402, 192.0, 0.0, 0.0, 0.0, 0.0, 0.0, 0.0, 0.0, 0.0, 0.0, 1.6541731779670506E9, 0.0, 2022-06-02 14:32:57.967
40.0, 18848.28732589332, -324.6367364688798, -54480.007824898705, -44623.38025848631, -20137.580649564345, -21027.962389941502, -184.1560225672749, -6245.345621746257, -0.08, 0.936, 0.402, 192.0, 0.0, 0.0, 0.0, 0.0, 0.0, 0.0, 0.0, 0.0, 0.0, 1.654173177967056E9, 0.0, 2022-06-02 14:32:57.967
41.0, 18869.365020914676, -315.2266520531955, -54461.4558770008, -44625.12369455382, -20141.89453624422, -21039.83116624727, -170.45440321617167, -6244.004517078939, -0.08, 0.936, 0.402, 192.0, 0.0, 0.0, 0.0, 0.0, 0.0, 0.0, 0.0, 0.0, 0.0, 1.6541731779670615E9, 0.0, 2022-06-02 14:32:57.967
42.0, 18860.82665453275, -322.1109893454301, -54454.25861528619, -44605.49886292206, -20139.03351295394, -21027.44829981903, -153.10944951885338, -6226.525452914889, -0.08, 0.936, 0.402, 192.0, 0.0, 0.0, 0.0, 0.0, 0.0, 0.0, 0.0, 0.0, 0.0, 1.6541731779670668E9, 0.0, 2022-06-02 14:32:57.967
43.0, 18833.803395486284, -342.56283552203604, -54462.57346422356, -44616.3841624718, -20138.005332708995, -21012.852610689715, -163.9500455796773, -6215.908374298618, -0.08, 0.936, 0.402, 192.0, 0.0, 0.0, 0.0, 0.0, 0.0, 0.0, 0.0, 0.0, 0.0, 1.6541731779670722E9, 0.0, 2022-06-02 14:32:57.967
44.0, 18841.224174645446, -334.8738354294104, -54459.667737444375, -44670.251866609084, -20133.713797773577, -21003.800154185315, -183.217249300152, -6225.944307559051, -0.08, 0.936, 0.402, 192.0, 0.0, 0.0, 0.0, 0.0, 0.0, 0.0, 0.0, 0.0, 0.0, 1.6541731779670775E9, 0.0, 2022-06-02 14:32:57.967
45.0, 18849.58372707173, -336.01377439663105, -54474.419888784876, -44619.17813052871, -20144.04030371193, -21021.078052649267, -198.52819425203734, -6252.833456138785, -0.08, 0.936, 0.402, 192.0, 0.0, 0.0, 0.0, 0.0, 0.0, 0.0, 0.0, 0.0, 0.0, 1.6541731779670827E9, 0.0, 2022-06-02 14:32:57.967
46.0, 18848.73436078243, -344.26156810063935, -54477.54913300862, -44630.86809287883, -20160.17826320866, -21050.53765184136, -194.34841803889492, -6269.91018890264, -0.08, 0.936, 0.402, 192.0, 0.0, 0.0, 0.0, 0.0, 0.0, 0.0, 0.0, 0.0, 0.0, 1.6541731779670882E9, 0.0, 2022-06-02 14:32:57.967
47.0, 18846.11920668116, -345.5356175345919, -54468.65313871541, -44612.49495893657, -20163.441617899134, -21063.725181069993, -199.95870589717697, -6276.571008750321, -0.084, 0.9400000000000001, 0.4, 192.0, 253.0, 96.0, 29.0, 96.0, 12.0, 128.0, 0.0, 0.0, 0.0, 1.6541731779670963E9, 0.0, 2022-06-02 14:32:57.967
48.0, 18850.656610805585, -333.30921331753893, -54466.82029567007, -44606.54939491146, -20142.83330951134, -21024.699035251026, -208.8547001903892, -6243.199854278548, -0.084, 0.9400000000000001, 0.4, 192.0, 0.0, 0.0, 0.0, 0.0, 0.0, 0.0, 0.0, 0.0, 0.0, 1.6541731779671016E9, 0.0, 2022-06-02 14:32:57.967
49.0, 18852.64591606211, -336.1478848633629, -54482.89119993344, -44625.526025954015, -20136.41835885267, -21014.01490140139, -209.70406647969085, -6248.51956945891, -0.084, 0.9400000000000001, 0.4, 192.0, 0.0, 0.0, 0.0, 0.0, 0.0, 0.0, 0.0, 0.0, 0.0, 1.6541731779671068E9, 0.0, 2022-06-02 14:32:57.967
50.0, 18856.289250408325, -340.7746959656115, -54471.000071883216, -44641.06048835045, -20141.067521699373, -21029.616419031194, -194.6166389723586, -6255.627424195698, -0.084, 0.9400000000000001, 0.4, 192.0, 0.0, 0.0, 0.0, 0.0, 0.0, 0.0, 0.0, 0.0, 0.0, 1.6541731779671123E9, 0.0, 2022-06-02 14:32:57.967
51.0, 18848.91317473807, -334.4715040292149, -54460.986490367235, -44656.68435772471, -20144.956725234595, -21039.518241824895, -186.88293539082235, -6260.924787631606, -0.084, 0.9400000000000001, 0.4, 192.0, 0.0, 0.0, 0.0, 0.0, 0.0, 0.0, 0.0, 0.0, 0.0, 1.654173177967118E9, 0.0, 2022-06-02 14:32:57.967
52.0, 18840.53127056733, -338.628928497902, -54459.33246127755, -44615.89242409378, -20153.76331254999, -21038.914744724603, -191.97913312663235, -6252.6099386942315, -0.084, 0.9400000000000001, 0.4, 192.0, 0.0, 0.0, 0.0, 0.0, 0.0, 0.0, 0.0, 0.0, 0.0, 1.6541731779671237E9, 0.0, 2022-06-02 14:32:57.967
53.0, 18831.81409022976, -352.10703040445213, -54477.6608917309, -44605.36475245533, -20141.64866705521, -21021.838011960746, -167.95100783717726, -6233.655659396131, -0.084, 0.9400000000000001, 0.4, 192.0, 0.0, 0.0, 0.0, 0.0, 0.0, 0.0, 0.0, 0.0, 0.0, 1.6541731779671292E9, 0.0, 2022-06-02 14:32:57.967
54.0, 18824.147441881592, -357.627911284913, -54469.4578015158, -44643.09449709589, -20139.681713543145, -21022.866192205693, -169.11329854885324, -6233.5215489294, -0.084, 0.9400000000000001, 0.4, 192.0, 0.0, 0.0, 0.0, 0.0, 0.0, 0.0, 0.0, 0.0, 0.0, 1.6541731779671352E9, 0.0, 2022-06-02 14:32:57.967
55.0, 18850.92483173905, -336.1031813744523, -54463.78045842415, -44683.01471269306, -20136.954800719595, -21028.007093430413, -176.06469107445372, -6244.071572312305, -0.084, 0.9400000000000001, 0.4, 192.0, 0.0, 0.0, 0.0, 0.0, 0.0, 0.0, 0.0, 0.0, 0.0, 1.6541731779671407E9, 0.0, 2022-06-02 14:32:57.967
56.0, 18856.468064363966, -334.5162075181255, -54466.529722992156, -44642.31218603995, -20151.88576601574, -21055.63384957717, -205.16666235526353, -6275.073441871816, -0.084, 0.9400000000000001, 0.4, 192.0, 0.0, 0.0, 0.0, 0.0, 0.0, 0.0, 0.0, 0.0, 0.0, 1.654173177967146E9, 0.0, 2022-06-02 14:32:57.967
57.0, 18846.834462503728, -337.22076859721767, -54463.82516191306, -44574.29582766245, -20155.953783506608, -21056.50556761093, -190.59332497040333, -6273.57587499331, -0.076, 0.9400000000000001, 0.404, 192.0, 253.0, 160.0, 29.0, 96.0, 12.0, 160.0, 0.0, 0.0, 0.0, 1.6541731779671512E9, 0.0, 2022-06-02 14:32:57.967
58.0, 18849.851948005195, -332.19162609477354, -54441.07108605756, -44599.41918843021, -20120.41450982267, -21007.77876469836, -137.08324874439822, -6232.09103728426, -0.076, 0.9400000000000001, 0.404, 192.0, 0.0, 0.0, 0.0, 0.0, 0.0, 0.0, 0.0, 0.0, 0.0, 1.6541731779671574E9, 0.0, 2022-06-02 14:32:57.967
59.0, 18852.042418961813, -335.5220360186143, -54440.28877500162, -44640.36758427234, -20115.251256853495, -21001.520276250874, -138.11142898934233, -6210.588659118254, -0.076, 0.9400000000000001, 0.404, 192.0, 0.0, 0.0, 0.0, 0.0, 0.0, 0.0, 0.0, 0.0, 0.0, 1.654173177967164E9, 0.0, 2022-06-02 14:32:57.967
60.0, 18860.78195104384, -331.789294694578, -54460.6065107115, -44600.46972041961, -20131.92565821715, -21021.994474171934, -159.63615889980304, -6221.473958667989, -0.076, 0.9400000000000001, 0.404, 192.0, 0.0, 0.0, 0.0, 0.0, 0.0, 0.0, 0.0, 0.0, 0.0, 1.6541731779671695E9, 0.0, 2022-06-02 14:32:57.967
61.0, 18871.086105237737, -325.41904752481554, -54449.385934994934, -44609.20925250164, -20138.899402487208, -21041.239326147956, -169.44857471568284, -6270.245465069469, -0.076, 0.9400000000000001, 0.404, 192.0, 0.0, 0.0, 0.0, 0.0, 0.0, 0.0, 0.0, 0.0, 0.0, 1.6541731779671752E9, 0.0, 2022-06-02 14:32:57.967
62.0, 18871.421381404565, -325.307288802539, -54426.36363820596, -44635.226683047615, -20129.84694598281, -21025.660160262607, -153.69059487469136, -6244.496255456956, -0.076, 0.9400000000000001, 0.404, 192.0, 0.0, 0.0, 0.0, 0.0, 0.0, 0.0, 0.0, 0.0, 0.0, 1.654173177967181E9, 0.0, 2022-06-02 14:32:57.967
63.0, 18858.032686475835, -319.3840765218826, -54428.93408881833, -44611.73499962509, -20108.612788750266, -20986.902235377103, -126.66733582822512, -6179.966769214484, -0.076, 0.9400000000000001, 0.404, 192.0, 0.0, 0.0, 0.0, 0.0, 0.0, 0.0, 0.0, 0.0, 0.0, 1.6541731779671867E9, 0.0, 2022-06-02 14:32:57.967
64.0, 18859.06086672078, -316.92538463179886, -54453.14102806342, -44616.33945898288, -20108.903361428187, -20978.81090388428, -129.7965800519681, -6161.548931783311, -0.076, 0.9400000000000001, 0.404, 192.0, 0.0, 0.0, 0.0, 0.0, 0.0, 0.0, 0.0, 0.0, 0.0, 1.6541731779671922E9, 0.0, 2022-06-02 14:32:57.967
65.0, 18857.518596353366, -322.06628585651947, -54464.51806599118, -44668.55313403048, -20131.74684426151, -21005.54359025283, -156.0375280424986, -6180.5255628258665, -0.076, 0.9400000000000001, 0.404, 192.0, 0.0, 0.0, 0.0, 0.0, 0.0, 0.0, 0.0, 0.0, 0.0, 1.6541731779671984E9, 0.0, 2022-06-02 14:32:57.967
66.0, 18850.477796849944, -323.5415009905697, -54458.21487405478, -44639.87584589432, -20154.031533483452, -21036.254887134422, -165.80524036946778, -6212.354446930224, -0.076, 0.9400000000000001, 0.404, 192.0, 0.0, 0.0, 0.0, 0.0, 0.0, 0.0, 0.0, 0.0, 0.0, 1.6541731779672036E9, 0.0, 2022-06-02 14:32:57.967
67.0, 18856.73628529743, -314.35493401943853, -54420.06044626957, -44598.279249463, -20137.71476003108, -21019.960465426502, -136.27858594400715, -6206.721807327486, -0.07200000000000001, 0.9380000000000001, 0.41600000000000004, 192.0, 253.0, 192.0, 29.0, 80.0, 13.0, 0.0, 0.0, 0.0, 0.0, 1.6541731779672096E9, 0.0, 2022-06-02 14:32:57.967
68.0, 18857.876224264648, -304.1848902922738, -54407.297600185586, -44584.46587138961, -20107.539905016412, -20971.837159614224, -100.15816690423095, -6159.850199204708, -0.07200000000000001, 0.9380000000000001, 0.41600000000000004, 192.0, 0.0, 0.0, 0.0, 0.0, 0.0, 0.0, 0.0, 0.0, 0.0, 1.6541731779672172E9, 0.0, 2022-06-02 14:32:57.967
69.0, 18847.326200881744, -317.1041985874413, -54437.986545322725, -44616.80884561645, -20113.530172530434, -20975.033459071336, -123.91807126022236, -6164.298196351314, -0.07200000000000001, 0.9380000000000001, 0.41600000000000004, 192.0, 0.0, 0.0, 0.0, 0.0, 0.0, 0.0, 0.0, 0.0, 0.0, 1.6541731779672227E9, 0.0, 2022-06-02 14:32:57.967
70.0, 18855.68575330803, -313.9973061081536, -54449.60945243949, -44635.33844176989, -20128.12586165975, -20996.021747114868, -153.64589138578074, -6196.819984533785, -0.07200000000000001, 0.9380000000000001, 0.41600000000000004, 192.0, 0.0, 0.0, 0.0, 0.0, 0.0, 0.0, 0.0, 0.0, 0.0, 1.654173177967228E9, 0.0, 2022-06-02 14:32:57.967
71.0, 18860.62548883265, -313.5279194745922, -54446.41315298238, -44634.042040591485, -20146.767216535478, -21013.746680467928, -170.5214584495376, -6218.098845255237, -0.07200000000000001, 0.9380000000000001, 0.41600000000000004, 192.0, 0.0, 0.0, 0.0, 0.0, 0.0, 0.0, 0.0, 0.0, 0.0, 1.6541731779672332E9, 0.0, 2022-06-02 14:32:57.967
72.0, 18856.289250408325, -312.74560841865645, -54428.419998695856, -44622.84381661938, -20142.520385088967, -21012.942017667534, -146.4486296711719, -6203.659618337109, -0.07200000000000001, 0.9380000000000001, 0.41600000000000004, 192.0, 0.0, 0.0, 0.0, 0.0, 0.0, 0.0, 0.0, 0.0, 0.0, 1.6541731779672384E9, 0.0, 2022-06-02 14:32:57.967
73.0, 18864.15706445659, -300.22863152368444, -54428.44235044031, -44652.16930534474, -20111.02677715144, -20979.280290517843, -116.60905082333694, -6166.153391141104, -0.07200000000000001, 0.9380000000000001, 0.41600000000000004, 192.0, 0.0, 0.0, 0.0, 0.0, 0.0, 0.0, 0.0, 0.0, 0.0, 1.654173177967244E9, 0.0, 2022-06-02 14:32:57.967
74.0, 18861.005468488394, -307.47059672720394, -54436.53368193313, -44691.150747674794, -20112.479640541034, -20975.92752884955, -136.83737955538984, -6168.254455119903, -0.07200000000000001, 0.9380000000000001, 0.41600000000000004, 192.0, 0.0, 0.0, 0.0, 0.0, 0.0, 0.0, 0.0, 0.0, 0.0, 1.6541731779672492E9, 0.0, 2022-06-02 14:32:57.967
75.0, 18851.64008756162, -317.93121313228767, -54467.08851660354, -44601.96728729812, -20136.50776583049, -21014.81956420178, -167.66043515925827, -6212.980295774973, -0.07200000000000001, 0.9380000000000001, 0.41600000000000004, 192.0, 0.0, 0.0, 0.0, 0.0, 0.0, 0.0, 0.0, 0.0, 0.0, 1.6541731779672544E9, 0.0, 2022-06-02 14:32:57.967
76.0, 18875.288233195333, -297.1664425333074, -54424.68725737182, -44594.45710116114, -20140.106396687795, -21019.78165147086, -184.87127838984472, -6216.1542434876255, -0.07200000000000001, 0.9380000000000001, 0.41600000000000004, 192.0, 0.0, 0.0, 0.0, 0.0, 0.0, 0.0, 0.0, 0.0, 0.0, 1.65417317796726E9, 0.0, 2022-06-02 14:32:57.967
77.0, 18869.20855870349, -296.13826228836325, -54409.957457775774, -44595.328819194896, -20140.821652510363, -21011.69031997804, -167.54867643698174, -6192.081414709261, -0.076, 0.922, 0.41400000000000003, 192.0, 253.0, 160.0, 28.0, 208.0, 12.0, 240.0, 0.0, 0.0, 0.0, 1.654173177967267E9, 0.0, 2022-06-02 14:32:57.967
78.0, 18860.290212665823, -310.4433787397598, -54422.6979521153, -44612.87493859231, -20125.041320924916, -20992.691337191027, -136.21153071064123, -6178.7597750138975, -0.076, 0.922, 0.41400000000000003, 192.0, 0.0, 0.0, 0.0, 0.0, 0.0, 0.0, 0.0, 0.0, 0.0, 1.6541731779672723E9, 0.0, 2022-06-02 14:32:57.967
79.0, 18861.273689421858, -321.1051608449413, -54447.217815782766, -44645.64259596379, -20125.108376158285, -20989.003299355903, -135.07159174342058, -6173.864742978185, -0.076, 0.922, 0.41400000000000003, 192.0, 0.0, 0.0, 0.0, 0.0, 0.0, 0.0, 0.0, 0.0, 0.0, 1.654173177967278E9, 0.0, 2022-06-02 14:32:57.967
80.0, 18869.521483125864, -317.86415789892175, -54466.95440613681, -44678.05262542399, -20135.904268730195, -21008.96340715449, -158.8538478438673, -6202.877307281174, -0.076, 0.922, 0.41400000000000003, 192.0, 0.0, 0.0, 0.0, 0.0, 0.0, 0.0, 0.0, 0.0, 0.0, 1.6541731779672835E9, 0.0, 2022-06-02 14:32:57.967
81.0, 18876.808151818295, -314.75726541963405, -54460.89708338941, -44669.60366601988, -20161.340553920338, -21036.701922023527, -195.37659828383903, -6236.85195885324, -0.076, 0.922, 0.41400000000000003, 192.0, 0.0, 0.0, 0.0, 0.0, 0.0, 0.0, 0.0, 0.0, 0.0, 1.654173177967289E9, 0.0, 2022-06-02 14:32:57.967
82.0, 18865.76639005737, -316.61246020942457, -54434.007934809684, -44602.168452998216, -20163.66513534369, -21035.718445267492, -180.53503996551515, -6207.235897449958, -0.076, 0.922, 0.41400000000000003, 192.0, 0.0, 0.0, 0.0, 0.0, 0.0, 0.0, 0.0, 0.0, 0.0, 1.6541731779672945E9, 0.0, 2022-06-02 14:32:57.967
83.0, 18872.270747693867, -304.274297270095, -54413.98077177772, -44632.298604523974, -20118.469908055056, -20987.550435966306, -116.65375431224756, -6176.41284184609, -0.076, 0.922, 0.41400000000000003, 192.0, 0.0, 0.0, 0.0, 0.0, 0.0, 0.0, 0.0, 0.0, 0.0, 1.6541731779673011E9, 0.0, 2022-06-02 14:32:57.967
84.0, 18876.003489017905, -302.2402885246621, -54435.7960743661, -44673.22464862164, -20113.999559163996, -20981.604871941196, -116.74316129006878, -6166.063984163283, -0.076, 0.922, 0.41400000000000003, 192.0, 0.0, 0.0, 0.0, 0.0, 0.0, 0.0, 0.0, 0.0, 0.0, 1.6541731779673064E9, 0.0, 2022-06-02 14:32:57.967
85.0, 18879.870340808673, -304.6542769258353, -54450.54822570661, -44617.613508416835, -20129.08698667133, -21010.192753099534, -146.11335350434226, -6185.308836139302, -0.076, 0.922, 0.41400000000000003, 192.0, 0.0, 0.0, 0.0, 0.0, 0.0, 0.0, 0.0, 0.0, 0.0, 1.654173177967312E9, 0.0, 2022-06-02 14:32:57.967
86.0, 18896.924721828073, -294.52893668758117, -54434.857301098986, -44616.853549105355, -20132.752672762, -21012.763203711893, -150.11431576184222, -6190.449737364022, -0.076, 0.922, 0.41400000000000003, 192.0, 0.0, 0.0, 0.0, 0.0, 0.0, 0.0, 0.0, 0.0, 0.0, 1.65417317796732E9, 0.0, 2022-06-02 14:32:57.967
87.0, 18890.129791513657, -301.1674047908074, -54431.01280105267, -44608.49399667907, -20136.396007108215, -21016.741814224937, -155.7693071090349, -6196.216487433492, -0.092, 0.928, 0.418, 192.0, 253.0, 32.0, 29.0, 0.0, 13.0, 16.0, 0.0, 0.0, 0.0, 1.6541731779673254E9, 0.0, 2022-06-02 14:32:57.967
88.0, 18872.15898897159, -302.32969550248333, -54430.655173141386, -44635.62901444781, -20114.6477597532, -20988.82448540026, -123.20281543765253, -6167.3156818527805, -0.092, 0.928, 0.418, 192.0, 0.0, 0.0, 0.0, 0.0, 0.0, 0.0, 0.0, 0.0, 0.0, 1.654173177967331E9, 0.0, 2022-06-02 14:32:57.967
89.0, 18873.678907594553, -296.7641111331119, -54417.0429607681, -44630.10813356735, -20103.60599799228, -20974.42996197104, -118.84422526886765, -6158.062059648283, -0.092, 0.928, 0.418, 192.0, 0.0, 0.0, 0.0, 0.0, 0.0, 0.0, 0.0, 0.0, 0.0, 1.6541731779673364E9, 0.0, 2022-06-02 14:32:57.967
90.0, 18878.97627103046, -288.56102091801415, -54443.28390875863, -44606.12471176681, -20124.32606510235, -20995.597063970217, -170.14147879379735, -6189.17568793007, -0.092, 0.928, 0.418, 192.0, 0.0, 0.0, 0.0, 0.0, 0.0, 0.0, 0.0, 0.0, 0.0, 1.6541731779673443E9, 0.0, 2022-06-02 14:32:57.967
91.0, 18869.16385521458, -307.6717624273017, -54461.67939444535, -44638.802962160466, -20158.300716674414, -21039.339427869254, -192.15794708227483, -6219.529356900377, -0.092, 0.928, 0.418, 192.0, 0.0, 0.0, 0.0, 0.0, 0.0, 0.0, 0.0, 0.0, 0.0, 1.6541731779673498E9, 0.0, 2022-06-02 14:32:57.967
92.0, 18874.81884656177, -307.0459135825531, -54437.33834473352, -44610.01391530203, -20141.514556588478, -21024.07318640628, -128.67899282920277, -6191.6790833090645, -0.092, 0.928, 0.418, 192.0, 0.0, 0.0, 0.0, 0.0, 0.0, 0.0, 0.0, 0.0, 0.0, 1.6541731779673555E9, 0.0, 2022-06-02 14:32:57.967
93.0, 18871.868416293673, -306.308306015528, -54434.11969353196, -44641.17224707273, -20124.191954635615, -20985.24820628741, -123.62749858230336, -6165.013452173884, -0.092, 0.928, 0.418, 192.0, 0.0, 0.0, 0.0, 0.0, 0.0, 0.0, 0.0, 0.0, 0.0, 1.6541731779673607E9, 0.0, 2022-06-02 14:32:57.967
94.0, 18877.74692508542, -298.1499192893409, -54418.38406543542, -44624.967232342635, -20116.36884407626, -20972.328897992244, -134.2445771985742, -6150.842446189219, -0.092, 0.928, 0.418, 192.0, 0.0, 0.0, 0.0, 0.0, 0.0, 0.0, 0.0, 0.0, 0.0, 1.6541731779673662E9, 0.0, 2022-06-02 14:32:57.967
95.0, 18877.031669262848, -301.212108279718, -54438.143007533916, -44601.27438322001, -20125.13072790274, -20993.920683136068, -148.6838041167026, -6174.468240078479, -0.092, 0.928, 0.418, 192.0, 0.0, 0.0, 0.0, 0.0, 0.0, 0.0, 0.0, 0.0, 0.0, 1.6541731779673717E9, 0.0, 2022-06-02 14:32:57.967
96.0, 18889.50394266891, -288.8962970848438, -54423.61437363796, -44601.20732798664, -20129.757539004986, -21006.951750153512, -155.59049315339246, -6185.88998149514, -0.098, 0.932, 0.422, 192.0, 252.0, 240.0, 29.0, 32.0, 13.0, 48.0, 0.0, 0.0, 0.0, 1.6541731779673777E9, 0.0, 2022-06-02 14:32:57.967
97.0, 18882.84312282123, -294.3501227319387, -54419.1440247469, -44601.69906636466, -20135.323123374357, -21014.037253145845, -166.54284793649293, -6199.502193868422, -0.098, 0.932, 0.422, 192.0, 0.0, 0.0, 0.0, 0.0, 0.0, 0.0, 0.0, 0.0, 0.0, 1.654173177967383E9, 0.0, 2022-06-02 14:32:57.967
98.0, 18877.74692508542, -294.08190179847503, -54414.67367585584, -44610.3268397244, -20118.961646433076, -20983.325956264252, -142.06768775793168, -6190.293275152836, -0.098, 0.932, 0.422, 192.0, 0.0, 0.0, 0.0, 0.0, 0.0, 0.0, 0.0, 0.0, 0.0, 1.6541731779673884E9, 0.0, 2022-06-02 14:32:57.967
99.0, 18878.864512308184, -297.0323320665756, -54417.26647821265, -44589.8749935478, -20105.55059975989, -20973.178264281545, -130.7130015746357, -6192.282580409358, -0.098, 0.932, 0.422, 192.0, 0.0, 0.0, 0.0, 0.0, 0.0, 0.0, 0.0, 0.0, 0.0, 1.654173177967394E9, 0.0, 2022-06-02 14:32:57.967
100.0, 18876.67404135156, -302.10617805793026, -54444.490902959216, -44612.025572303006, -20124.191954635615, -20996.87111340417, -158.04918504347623, -6183.744214027431, -0.098, 0.932, 0.422, 192.0, 0.0, 0.0, 0.0, 0.0, 0.0, 0.0, 0.0, 0.0, 0.0, 1.6541731779673998E9, 0.0, 2022-06-02 14:32:57.967
101.0, 18886.039422278336, -294.12660528738564, -54443.68624015883, -44614.21604325963, -20139.860527498786, -21013.433756045553, -175.3270835074286, -6200.664484580098, -0.098, 0.932, 0.422, 192.0, 0.0, 0.0, 0.0, 0.0, 0.0, 0.0, 0.0, 0.0, 0.0, 1.654173177967405E9, 0.0, 2022-06-02 14:32:57.967
102.0, 18884.854779822206, -288.20339300672924, -54434.52202493215, -44591.327856937394, -20134.6525710407, -21004.31424430779, -159.2114757551522, -6196.887039767152, -0.098, 0.932, 0.422, 192.0, 0.0, 0.0, 0.0, 0.0, 0.0, 0.0, 0.0, 0.0, 0.0, 1.6541731779674108E9, 0.0, 2022-06-02 14:32:57.967
103.0, 18856.222195174956, -307.13532056037434, -54433.98558306522, -44597.34047619587, -20113.01608240796, -20981.06843007427, -126.64498408376981, -6175.161144156593, -0.098, 0.932, 0.422, 192.0, 0.0, 0.0, 0.0, 0.0, 0.0, 0.0, 0.0, 0.0, 0.0, 1.6541731779674163E9, 0.0, 2022-06-02 14:32:57.967
104.0, 18854.277593407347, -303.76020714762296, -54437.31599298907, -44658.04781413649, -20109.708024228577, -20977.000412583402, -139.18431272319708, -6175.407013345602, -0.098, 0.932, 0.422, 192.0, 0.0, 0.0, 0.0, 0.0, 0.0, 0.0, 0.0, 0.0, 0.0, 1.654173177967422E9, 0.0, 2022-06-02 14:32:57.967
105.0, 18871.06375349328, -291.8914308418549, -54459.01953685517, -44705.27705017055, -20125.488355814025, -20994.702994192005, -168.24158051509627, -6194.98714148845, -0.098, 0.932, 0.422, 192.0, 0.0, 0.0, 0.0, 0.0, 0.0, 0.0, 0.0, 0.0, 0.0, 1.6541731779674277E9, 0.0, 2022-06-02 14:32:57.967
106.0, 18872.807189560794, -303.69315191425704, -54448.55892045009, -44602.48137742059, -20136.731283275043, -21017.45707004751, -162.43012695671644, -6210.052217251327, -0.088, 0.926, 0.42, 192.0, 253.0, 64.0, 28.0, 240.0, 13.0, 32.0, 0.0, 0.0, 0.0, 1.6541731779674335E9, 0.0, 2022-06-02 14:32:57.967
107.0, 18843.81697700226, -325.9107859028323, -54439.88644360143, -44573.62527532879, -20147.16954793567, -21025.727215495972, -154.60701639735896, -6219.641115622654, -0.088, 0.926, 0.42, 192.0, 0.0, 0.0, 0.0, 0.0, 0.0, 0.0, 0.0, 0.0, 0.0, 1.654173177967439E9, 0.0, 2022-06-02 14:32:57.967
108.0, 18832.216421629957, -328.14596034836296, -54434.38791446542, -44596.13348199528, -20130.13751866073, -20996.178209326055, -142.58177788040376, -6202.698493325531, -0.088, 0.926, 0.42, 192.0, 0.0, 0.0, 0.0, 0.0, 0.0, 0.0, 0.0, 0.0, 0.0, 1.654173177967445E9, 0.0, 2022-06-02 14:32:57.967
109.0, 18836.99969494339, -322.5803759789915, -54449.27417627266, -44625.43661897619, -20125.22013488056, -20976.19574978301, -140.5030656460602, -6179.653844792109, -0.088, 0.926, 0.42, 192.0, 0.0, 0.0, 0.0, 0.0, 0.0, 0.0, 0.0, 0.0, 0.0, 1.6541731779674504E9, 0.0, 2022-06-02 14:32:57.967
110.0, 18851.1483491836, -308.7446461611565, -54449.810618139585, -44653.6892239677, -20132.37269310626, -20982.074258574758, -146.09100175988695, -6186.962865228995, -0.088, 0.926, 0.42, 192.0, 0.0, 0.0, 0.0, 0.0, 0.0, 0.0, 0.0, 0.0, 0.0, 1.654173177967456E9, 0.0, 2022-06-02 14:32:57.967
111.0, 18858.367962642667, -309.66106768382406, -54447.150760549404, -44619.80397937346, -20156.89255677373, -21011.556209511305, -163.72652813512423, -6220.177557489581, -0.088, 0.926, 0.42, 192.0, 0.0, 0.0, 0.0, 0.0, 0.0, 0.0, 0.0, 0.0, 0.0, 1.6541731779674647E9, 0.0, 2022-06-02 14:32:57.967
112.0, 18841.984133956925, -313.9973061081536, -54435.93018483284, -44633.50559872456, -20171.80117032542, -21021.435680560553, -174.25419977357387, -6218.6799906110755, -0.088, 0.926, 0.42, 192.0, 0.0, 0.0, 0.0, 0.0, 0.0, 0.0, 0.0, 0.0, 0.0, 1.654173177967471E9, 0.0, 2022-06-02 14:32:57.967
113.0, 18836.418549587554, -313.0138293521201, -54436.57838542204, -44618.12759853931, -20155.03736198394, -20990.702031934507, -157.22217049862988, -6183.386586116146, -0.088, 0.926, 0.42, 192.0, 0.0, 0.0, 0.0, 0.0, 0.0, 0.0, 0.0, 0.0, 0.0, 1.6541731779674766E9, 0.0, 2022-06-02 14:32:57.967
114.0, 18824.10273839268, -321.35103003394966, -54485.64046450144, -44613.6796013927, -20159.686524830642, -20992.91485463558, -159.30088273297343, -6183.073661693771, -0.088, 0.926, 0.42, 192.0, 0.0, 0.0, 0.0, 0.0, 0.0, 0.0, 0.0, 0.0, 0.0, 1.6541731779674828E9, 0.0, 2022-06-02 14:32:57.967
115.0, 18842.699389779496, -302.68732341376824, -54445.049696570604, -44611.332668224895, -20159.954745764106, -21002.146125095624, -166.49814444758232, -6197.624647334176, -0.088, 0.926, 0.42, 192.0, 0.0, 0.0, 0.0, 0.0, 0.0, 0.0, 0.0, 0.0, 0.0, 1.654173177967489E9, 0.0, 2022-06-02 14:32:57.967
116.0, 18848.846119504706, -309.5493089615475, -54442.255728513686, -44611.44442694717, -20181.65828963021, -21032.365683599197, -191.8003191709899, -6229.0064965494275, -0.082, 0.93, 0.426, 192.0, 253.0, 112.0, 29.0, 16.0, 13.0, 80.0, 0.0, 0.0, 0.0, 1.6541731779674952E9, 0.0, 2022-06-02 14:32:57.967
117.0, 18835.993866442903, -317.21595730971785, -54436.10899878848, -44605.945897811165, -20191.984795568562, -21042.31220988181, -188.33579878041732, -6237.90249084264, -0.082, 0.93, 0.426, 192.0, 0.0, 0.0, 0.0, 0.0, 0.0, 0.0, 0.0, 0.0, 0.0, 1.6541731779675007E9, 0.0, 2022-06-02 14:32:57.967
118.0, 18830.696503006995, -311.94094561826535, -54432.66683014236, -44601.184976242184, -20167.733152834553, -21009.16457285459, -167.61573167034766, -6201.402092147123, -0.082, 0.93, 0.426, 192.0, 0.0, 0.0, 0.0, 0.0, 0.0, 0.0, 0.0, 0.0, 0.0, 1.6541731779675071E9, 0.0, 2022-06-02 14:32:57.967
119.0, 18828.57308728374, -314.8466723974553, -54471.22358932777, -44625.168398042726, -20170.75063833602, -21000.849723917214, -196.33772329541725, -6205.224240448981, -0.082, 0.93, 0.426, 192.0, 0.0, 0.0, 0.0, 0.0, 0.0, 0.0, 0.0, 0.0, 0.0, 1.6541731779675136E9, 0.0, 2022-06-02 14:32:57.967
120.0, 18836.77617749884, -318.89233814386586, -54462.88638864594, -44630.59987194537, -20176.293870960937, -21019.759299726404, -209.1899763572188, -6248.072534569805, -0.082, 0.93, 0.426, 192.0, 0.0, 0.0, 0.0, 0.0, 0.0, 0.0, 0.0, 0.0, 0.0, 1.6541731779675202E9, 0.0, 2022-06-02 14:32:57.967
121.0, 18844.68869503602, -320.4793120001927, -54442.814522125074, -44624.341383497886, -20175.690373860645, -21032.812718488305, -174.0977375623867, -6240.316479243813, -0.082, 0.93, 0.426, 192.0, 0.0, 0.0, 0.0, 0.0, 0.0, 0.0, 0.0, 0.0, 0.0, 1.6541731784474788E9, 0.0, 2022-06-02 14:32:58.447
122.0, 18836.172680398548, -319.0935038439636, -54435.125522032446, -44608.4269414457, -20176.5620918944, -21028.901163208626, -130.82476029691225, -6187.231086162458, -0.082, 0.93, 0.426, 192.0, 0.0, 0.0, 0.0, 0.0, 0.0, 0.0, 0.0, 0.0, 0.0, 1.654173178447724E9, 0.0, 2022-06-02 14:32:58.447
123.0, 18828.126052394637, -316.50070148714804, -54433.40443770939, -44609.18690075719, -20163.307507432404, -20998.212218071487, -126.55557710594859, -6160.7442689829195, -0.082, 0.93, 0.426, 192.0, 0.0, 0.0, 0.0, 0.0, 0.0, 0.0, 0.0, 0.0, 0.0, 1.65417317844773E9, 0.0, 2022-06-02 14:32:58.447
124.0, 18822.538116280808, -323.29563180156134, -54455.68912693133, -44651.677566966726, -20164.51450163299, -20993.25013080241, -156.3057489759623, -6166.153391141104, -0.082, 0.93, 0.426, 192.0, 0.0, 0.0, 0.0, 0.0, 0.0, 0.0, 0.0, 0.0, 0.0, 1.654173178447736E9, 0.0, 2022-06-02 14:32:58.447
125.0, 18844.532232824833, -311.0468758400531, -54458.77366766616, -44626.50950271005, -20167.777856323464, -21006.817639686782, -166.60990316985885, -6187.5663623292885, -0.082, 0.93, 0.426, 192.0, 0.0, 0.0, 0.0, 0.0, 0.0, 0.0, 0.0, 0.0, 0.0, 1.654173178447742E9, 0.0, 2022-06-02 14:32:58.447
126.0, 18859.59730858771, -298.7757681340895, -54440.55699593508, -44588.01979875801, -20172.248205214528, -21020.832183460258, -164.5311909355153, -6201.5362026138555, -0.076, 0.93, 0.426, 192.0, 253.0, 160.0, 29.0, 16.0, 13.0, 80.0, 0.0, 0.0, 0.0, 1.654173178447748E9, 0.0, 2022-06-02 14:32:58.447
127.0, 18861.139578955124, -295.9147448438102, -54420.57453639204, -44581.58249635488, -20175.511559905, -21022.97795092797, -168.0627665594538, -6213.8073103198185, -0.076, 0.93, 0.426, 192.0, 0.0, 0.0, 0.0, 0.0, 0.0, 0.0, 0.0, 0.0, 0.0, 1.654173178447754E9, 0.0, 2022-06-02 14:32:58.447
128.0, 18856.11043645268, -301.5697361910029, -54417.4452921683, -44580.844888787855, -20152.288097415938, -21005.834162930747, -148.54969364997075, -6202.98906600345, -0.076, 0.93, 0.426, 192.0, 0.0, 0.0, 0.0, 0.0, 0.0, 0.0, 0.0, 0.0, 0.0, 1.65417317844776E9, 0.0, 2022-06-02 14:32:58.447
129.0, 18855.663401563575, -306.9788583491872, -54437.0477720556, -44620.340421240384, -20146.11901594627, -20993.25013080241, -133.12698997580887, -6177.105745924205, -0.076, 0.93, 0.426, 192.0, 0.0, 0.0, 0.0, 0.0, 0.0, 0.0, 0.0, 0.0, 0.0, 1.654173178447766E9, 0.0, 2022-06-02 14:32:58.447
130.0, 18857.228023675445, -300.921535601799, -54443.73094364774, -44619.20048227316, -20155.953783506608, -20999.35215703871, -151.9248070627221, -6167.4944958084225, -0.076, 0.93, 0.426, 192.0, 0.0, 0.0, 0.0, 0.0, 0.0, 0.0, 0.0, 0.0, 0.0, 1.6541731784477718E9, 0.0, 2022-06-02 14:32:58.447
131.0, 18857.898576009105, -303.8272623809889, -54440.221719768255, -44608.181072256695, -20170.907100547207, -21028.990570186445, -175.55060095198166, -6210.275734695881, -0.076, 0.93, 0.426, 192.0, 0.0, 0.0, 0.0, 0.0, 0.0, 0.0, 0.0, 0.0, 0.0, 1.6541731784477777E9, 0.0, 2022-06-02 14:32:58.447
132.0, 18865.20759644599, -295.3335994879722, -54410.583306620516, -44612.40555195875, -20163.061638243395, -21025.05666316231, -150.82957158441207, -6207.32530442778, -0.076, 0.93, 0.426, 192.0, 0.0, 0.0, 0.0, 0.0, 0.0, 0.0, 0.0, 0.0, 0.0, 1.6541731784477925E9, 0.0, 2022-06-02 14:32:58.447
133.0, 18858.032686475835, -284.6718173827908, -54403.92248677284, -44592.02076101551, -20140.955762977097, -20994.278311047354, -123.091056715376, -6175.138792412137, -0.076, 0.93, 0.426, 192.0, 0.0, 0.0, 0.0, 0.0, 0.0, 0.0, 0.0, 0.0, 0.0, 1.6541731784477985E9, 0.0, 2022-06-02 14:32:58.447
134.0, 18856.222195174956, -294.0148465651091, -54424.597850394, -44585.71756907911, -20144.28617290094, -20988.28804353333, -145.19693198167468, -6172.702452266509, -0.076, 0.93, 0.426, 192.0, 0.0, 0.0, 0.0, 0.0, 0.0, 0.0, 0.0, 0.0, 0.0, 1.6541731784478035E9, 0.0, 2022-06-02 14:32:58.447
135.0, 18860.804302788296, -301.72619840219005, -54453.27513853015, -44635.80782840346, -20165.27446094447, -21010.68449147755, -182.77021441104586, -6206.386531160657, -0.076, 0.93, 0.426, 192.0, 0.0, 0.0, 0.0, 0.0, 0.0, 0.0, 0.0, 0.0, 0.0, 1.6541731784478092E9, 0.0, 2022-06-02 14:32:58.447
136.0, 18872.561320371788, -295.4006547213381, -54444.692068659315, -44684.445224338204, -20171.689411603144, -21029.39290158664, -179.61861844284755, -6222.748008101941, -0.084, 0.93, 0.418, 192.0, 253.0, 96.0, 29.0, 16.0, 13.0, 16.0, 0.0, 0.0, 0.0, 1.6541731784478147E9, 0.0, 2022-06-02 14:32:58.447
137.0, 18869.342669170223, -294.52893668758117, -54423.502614915684, -44615.512444438034, -20164.201577210617, -21030.57754404277, -135.31746093242896, -6208.08526373926, -0.084, 0.93, 0.418, 192.0, 0.0, 0.0, 0.0, 0.0, 0.0, 0.0, 0.0, 0.0, 0.0, 1.6541731784478204E9, 0.0, 2022-06-02 14:32:58.447
138.0, 18860.69254406602, -295.75828263262304, -54386.15284993087, -44546.82553372688, -20141.447501355113, -21000.603854728208, -115.29029790047383, -6174.98233020095, -0.084, 0.93, 0.418, 192.0, 0.0, 0.0, 0.0, 0.0, 0.0, 0.0, 0.0, 0.0, 0.0, 1.6541731784478257E9, 0.0, 2022-06-02 14:32:58.447
139.0, 18878.26101520789, -284.64946563833547, -54388.768004032136, -44574.9216765072, -20126.896515714707, -20978.2521102729, -136.50210338856024, -6159.581978271244, -0.084, 0.93, 0.418, 192.0, 0.0, 0.0, 0.0, 0.0, 0.0, 0.0, 0.0, 0.0, 0.0, 1.6541731784478312E9, 0.0, 2022-06-02 14:32:58.447
140.0, 18876.294061695822, -296.8535181109331, -54422.83206258203, -44611.891461836276, -20153.830367783354, -21006.750584453417, -179.84213588740062, -6190.069757708283, -0.084, 0.93, 0.418, 192.0, 0.0, 0.0, 0.0, 0.0, 0.0, 0.0, 0.0, 0.0, 0.0, 1.6541731784478364E9, 0.0, 2022-06-02 14:32:58.447
141.0, 18878.3057186968, -303.73785540316766, -54432.97975456474, -44615.91477583823, -20179.400763440226, -21036.54545981234, -201.09864486439764, -6215.282525453869, -0.084, 0.93, 0.418, 192.0, 0.0, 0.0, 0.0, 0.0, 0.0, 0.0, 0.0, 0.0, 0.0, 1.654173178447842E9, 0.0, 2022-06-02 14:32:58.447
142.0, 18871.197863960013, -300.1615762903185, -54409.4433676533, -44586.56693536841, -20167.777856323464, -21027.671817263585, -166.14051653629738, -6209.783996317863, -0.084, 0.93, 0.418, 192.0, 0.0, 0.0, 0.0, 0.0, 0.0, 0.0, 0.0, 0.0, 0.0, 1.6541731784478471E9, 0.0, 2022-06-02 14:32:58.447
143.0, 18876.986965773936, -279.64267488034665, -54392.05371046707, -44572.15006019474, -20127.432957581637, -20985.650537687605, -98.50413781453823, -6174.289426122836, -0.084, 0.93, 0.418, 192.0, 0.0, 0.0, 0.0, 0.0, 0.0, 0.0, 0.0, 0.0, 0.0, 1.654173178447853E9, 0.0, 2022-06-02 14:32:58.447
144.0, 18872.15898897159, -289.00805580712034, -54394.512402357155, -44596.13348199528, -20137.826518753354, -20985.24820628741, -113.23393741058558, -6171.562513299288, -0.084, 0.93, 0.418, 192.0, 0.0, 0.0, 0.0, 0.0, 0.0, 0.0, 0.0, 0.0, 0.0, 1.6541731784478586E9, 0.0, 2022-06-02 14:32:58.447
145.0, 18881.21144547599, -291.53380293057, -54414.40545492237, -44610.572708913416, -20147.84010026933, -21004.69422396353, -138.46905690062727, -6184.7500425279195, -0.084, 0.93, 0.418, 192.0, 0.0, 0.0, 0.0, 0.0, 0.0, 0.0, 0.0, 0.0, 0.0, 1.6541731784478643E9, 0.0, 2022-06-02 14:32:58.447
146.0, 18893.817829348784, -284.09067202695275, -54408.683408341814, -44604.001296043556, -20157.85368178531, -21019.82635495977, -145.84513257087858, -6198.94340025704, -0.088, 0.936, 0.41200000000000003, 192.0, 253.0, 64.0, 29.0, 64.0, 12.0, 224.0, 0.0, 0.0, 0.0, 1.6541731784478695E9, 0.0, 2022-06-02 14:32:58.447
147.0, 18890.152143258114, -277.4522039237266, -54395.45117562428, -44617.70291539466, -20164.22392895507, -21024.00613117291, -139.2066644676524, -6210.231031206969, -0.088, 0.936, 0.41200000000000003, 192.0, 0.0, 0.0, 0.0, 0.0, 0.0, 0.0, 0.0, 0.0, 0.0, 1.6541731784478776E9, 0.0, 2022-06-02 14:32:58.447
148.0, 18889.39218394663, -280.58144814746953, -54386.55518133107, -44567.47854560358, -20140.3522658768, -20990.858494145694, -118.82187352441234, -6161.0348416608385, -0.088, 0.936, 0.41200000000000003, 192.0, 0.0, 0.0, 0.0, 0.0, 0.0, 0.0, 0.0, 0.0, 0.0, 1.6541731784478836E9, 0.0, 2022-06-02 14:32:58.447
149.0, 18877.4563524075, -281.0061312921204, -54399.049806481584, -44551.87702797378, -20133.98201870704, -20975.52519744935, -133.12698997580887, -6164.991100429428, -0.088, 0.936, 0.41200000000000003, 192.0, 0.0, 0.0, 0.0, 0.0, 0.0, 0.0, 0.0, 0.0, 0.0, 1.654173178447889E9, 0.0, 2022-06-02 14:32:58.447
150.0, 18886.17353274507, -283.48717492665946, -54416.886498556916, -44589.53971738097, -20145.98490547954, -20998.815715171782, -147.94619654967744, -6194.920086255084, -0.088, 0.936, 0.41200000000000003, 192.0, 0.0, 0.0, 0.0, 0.0, 0.0, 0.0, 0.0, 0.0, 0.0, 1.6541731784478948E9, 0.0, 2022-06-02 14:32:58.447
151.0, 18887.134657756647, -289.5444976740477, -54422.116806759455, -44596.28994420647, -20164.715667333086, -21016.54064852484, -153.33296696340645, -6191.097937953226, -0.088, 0.936, 0.41200000000000003, 192.0, 0.0, 0.0, 0.0, 0.0, 0.0, 0.0, 0.0, 0.0, 0.0, 1.6541731784479003E9, 0.0, 2022-06-02 14:32:58.447
152.0, 18880.697355353517, -283.39776794883824, -54403.25193443918, -44598.323952951905, -20170.75063833602, -21023.20146837252, -157.15511526526396, -6194.808327532808, -0.088, 0.936, 0.41200000000000003, 192.0, 0.0, 0.0, 0.0, 0.0, 0.0, 0.0, 0.0, 0.0, 0.0, 1.654173178447906E9, 0.0, 2022-06-02 14:32:58.447
153.0, 18882.46314316549, -275.3064364560171, -54391.27139941113, -44594.412397672226, -20137.31242863088, -20988.936244122535, -127.33788816188434, -6164.633472518143, -0.088, 0.936, 0.41200000000000003, 192.0, 0.0, 0.0, 0.0, 0.0, 0.0, 0.0, 0.0, 0.0, 0.0, 1.6541731784479115E9, 0.0, 2022-06-02 14:32:58.447
154.0, 18876.338765184733, -282.8613260819109, -54408.281076941625, -44572.10535670583, -20127.902344215196, -20974.072334059758, -132.81406555343457, -6158.3973358151125, -0.088, 0.936, 0.41200000000000003, 192.0, 0.0, 0.0, 0.0, 0.0, 0.0, 0.0, 0.0, 0.0, 0.0, 1.6541731784479194E9, 0.0, 2022-06-02 14:32:58.447
155.0, 18884.720669355473, -274.6135323779026, -54428.44235044031, -44605.655325133244, -20151.483434615548, -21000.425040772563, -170.96849333864373, -6190.494440852934, -0.088, 0.936, 0.41200000000000003, 192.0, 0.0, 0.0, 0.0, 0.0, 0.0, 0.0, 0.0, 0.0, 0.0, 1.6541731784479249E9, 0.0, 2022-06-02 14:32:58.447
156.0, 18894.711899126996, -278.59214289094723, -54439.953498834795, -44614.55131942646, -20172.136446492248, -21030.912820209604, -193.78962442751222, -6223.75383660243, -0.08600000000000001, 0.934, 0.41400000000000003, 192.0, 253.0, 80.0, 29.0, 48.0, 12.0, 240.0, 0.0, 0.0, 0.0, 1.65417317844793E9, 0.0, 2022-06-02 14:32:58.447
157.0, 18897.528218928364, -271.8419160654445, -54387.29278889809, -44591.70783659314, -20168.873091801775, -21025.771918984883, -163.81593511294545, -6204.75485381542, -0.08600000000000001, 0.934, 0.41400000000000003, 192.0, 0.0, 0.0, 0.0, 0.0, 0.0, 0.0, 0.0, 0.0, 0.0, 1.6541731784479356E9, 0.0, 2022-06-02 14:32:58.447
158.0, 18890.59917814722, -272.6018753769249, -54382.844791751486, -44564.32694963538, -20147.16954793567, -20996.647595959617, -138.75962957854625, -6180.257341892403, -0.08600000000000001, 0.934, 0.41400000000000003, 192.0, 0.0, 0.0, 0.0, 0.0, 0.0, 0.0, 0.0, 0.0, 0.0, 1.6541731784479413E9, 0.0, 2022-06-02 14:32:58.447
159.0, 18874.483570394943, -294.2383640096622, -54417.62410612394, -44605.521214666514, -20149.449425870112, -20998.949825638512, -158.69738563268015, -6194.003664732417, -0.08600000000000001, 0.934, 0.41400000000000003, 192.0, 0.0, 0.0, 0.0, 0.0, 0.0, 0.0, 0.0, 0.0, 0.0, 1.6541731784479468E9, 0.0, 2022-06-02 14:32:58.447
160.0, 18876.964614029483, -290.5726779189918, -54439.77468487915, -44624.6319561758, -20162.279327187458, -21016.78651771385, -177.96458935315482, -6217.383589432668, -0.08600000000000001, 0.934, 0.41400000000000003, 192.0, 0.0, 0.0, 0.0, 0.0, 0.0, 0.0, 0.0, 0.0, 0.0, 1.6541731784479523E9, 0.0, 2022-06-02 14:32:58.447
161.0, 18877.791628574327, -295.46770995470405, -54436.48897844422, -44622.508540452545, -20175.980946538562, -21039.49589008044, -183.84309814490058, -6231.353429717235, -0.08600000000000001, 0.934, 0.41400000000000003, 192.0, 0.0, 0.0, 0.0, 0.0, 0.0, 0.0, 0.0, 0.0, 0.0, 1.6541731784479575E9, 0.0, 2022-06-02 14:32:58.447
162.0, 18867.576881358254, -301.8603088689219, -54418.9428590468, -44616.80884561645, -20178.28317621746, -21046.20141341703, -179.7527289095794, -6247.80431363634, -0.08600000000000001, 0.934, 0.41400000000000003, 192.0, 0.0, 0.0, 0.0, 0.0, 0.0, 0.0, 0.0, 0.0, 0.0, 1.6541731784479642E9, 0.0, 2022-06-02 14:32:58.447
163.0, 18856.803340530794, -296.048855310542, -54407.3423036745, -44636.008994103555, -20153.94212650563, -21011.131526366655, -150.36018495085062, -6224.714961614009, -0.08600000000000001, 0.934, 0.41400000000000003, 192.0, 0.0, 0.0, 0.0, 0.0, 0.0, 0.0, 0.0, 0.0, 0.0, 1.65417317844797E9, 0.0, 2022-06-02 14:32:58.447
164.0, 18851.3495148837, -299.89335535685484, -54436.89130984442, -44610.50565368005, -20158.010143996496, -20998.748659938414, -149.86844657283385, -6190.8520687642185, -0.08600000000000001, 0.934, 0.41400000000000003, 192.0, 0.0, 0.0, 0.0, 0.0, 0.0, 0.0, 0.0, 0.0, 0.0, 1.6541731784479756E9, 0.0, 2022-06-02 14:32:58.447
165.0, 18858.34561089821, -296.98762857766496, -54464.02632761316, -44615.937127582685, -20166.995545267528, -21010.460974032998, -173.4271852287275, -6193.243705420936, -0.08600000000000001, 0.934, 0.41400000000000003, 192.0, 0.0, 0.0, 0.0, 0.0, 0.0, 0.0, 0.0, 0.0, 0.0, 1.6541731784479816E9, 0.0, 2022-06-02 14:32:58.447
166.0, 18871.287270937835, -298.57460243399174, -54445.07204831506, -44671.95059918769, -20177.36675469479, -21025.101366651223, -175.41649048524982, -6216.489519654456, -0.078, 0.936, 0.41600000000000004, 192.0, 253.0, 144.0, 29.0, 64.0, 13.0, 0.0, 0.0, 0.0, 0.0, 1.6541731784479887E9, 0.0, 2022-06-02 14:32:58.447
167.0, 18858.993811487417, -303.1343583028744, -54418.02643752414, -44573.20059218414, -20188.117943777794, -21034.93613421156, -177.96458935315482, -6232.493368684455, -0.078, 0.936, 0.41600000000000004, 192.0, 0.0, 0.0, 0.0, 0.0, 0.0, 0.0, 0.0, 0.0, 0.0, 1.6541731784479945E9, 0.0, 2022-06-02 14:32:58.447
168.0, 18840.710084522972, -309.99634385065366, -54423.457911426776, -44562.24823740104, -20174.617490126788, -21008.20344784301, -177.45049923068277, -6207.928801528073, -0.078, 0.936, 0.41600000000000004, 192.0, 0.0, 0.0, 0.0, 0.0, 0.0, 0.0, 0.0, 0.0, 0.0, 1.6541731784480004E9, 0.0, 2022-06-02 14:32:58.448
169.0, 18848.48849159342, -313.79614040805586, -54437.561862178074, -44599.39683668576, -20158.300716674414, -20997.027575615357, -153.10944951885338, -6180.726728525964, -0.078, 0.936, 0.41600000000000004, 192.0, 0.0, 0.0, 0.0, 0.0, 0.0, 0.0, 0.0, 0.0, 0.0, 1.6541731784480062E9, 0.0, 2022-06-02 14:32:58.448
170.0, 18852.556509084287, -318.15473057684073, -54467.848475915016, -44641.105191839364, -20177.277347716972, -21023.35793058371, -182.52434522203748, -6218.7917493333525, -0.078, 0.936, 0.41600000000000004, 192.0, 0.0, 0.0, 0.0, 0.0, 0.0, 0.0, 0.0, 0.0, 0.0, 1.654173178448012E9, 0.0, 2022-06-02 14:32:58.448
171.0, 18845.940392725515, -324.45792251323735, -54486.78040346866, -44666.65323575178, -20202.981853840574, -21054.113930954212, -215.02378166005394, -6253.325194516801, -0.078, 0.936, 0.41600000000000004, 192.0, 0.0, 0.0, 0.0, 0.0, 0.0, 0.0, 0.0, 0.0, 0.0, 1.6541731784480183E9, 0.0, 2022-06-02 14:32:58.448
172.0, 18853.361171884677, -315.5842799644804, -54445.2508622707, -44595.21706047262, -20195.00228107003, -21046.0673029503, -173.71775790664648, -6238.684801898576, -0.078, 0.936, 0.41600000000000004, 192.0, 0.0, 0.0, 0.0, 0.0, 0.0, 0.0, 0.0, 0.0, 0.0, 1.654173178448024E9, 0.0, 2022-06-02 14:32:58.448
173.0, 18855.97632598595, -311.0692275845084, -54408.32578043053, -44597.206365729144, -20163.285155687947, -21007.44348853153, -134.4904463875826, -6207.682932339065, -0.078, 0.936, 0.41600000000000004, 192.0, 0.0, 0.0, 0.0, 0.0, 0.0, 0.0, 0.0, 0.0, 0.0, 1.6541731784480307E9, 0.0, 2022-06-02 14:32:58.448
174.0, 18852.601212573198, -313.9078991303324, -54428.79997835159, -44609.20925250164, -20153.919774761176, -20993.33953778023, -157.6245018988254, -6205.7606823159085, -0.078, 0.936, 0.41600000000000004, 192.0, 0.0, 0.0, 0.0, 0.0, 0.0, 0.0, 0.0, 0.0, 0.0, 1.6541731784480364E9, 0.0, 2022-06-02 14:32:58.448
175.0, 18840.575974056243, -328.8388644264775, -54464.54041773563, -44679.7960614915, -20184.496961176035, -21017.2112008585, -201.36686579786132, -6224.334981958268, -0.08, 0.93, 0.424, 192.0, 253.0, 128.0, 29.0, 16.0, 13.0, 64.0, 0.0, 0.0, 0.0, 1.6541731784480448E9, 0.0, 2022-06-02 14:32:58.448
176.0, 18847.884994493128, -332.28103307259477, -54466.90970264789, -44665.60270376238, -20196.164571781705, -21043.519204082397, -206.6865809782244, -6241.702287400042, -0.08, 0.93, 0.424, 192.0, 0.0, 0.0, 0.0, 0.0, 0.0, 0.0, 0.0, 0.0, 0.0, 1.6541731784480503E9, 0.0, 2022-06-02 14:32:58.448
177.0, 18857.473892864455, -317.7300474321899, -54434.276155743144, -44598.23454597408, -20184.22874024257, -21032.92447721058, -172.22019102814093, -6219.03761852236, -0.08, 0.93, 0.424, 192.0, 0.0, 0.0, 0.0, 0.0, 0.0, 0.0, 0.0, 0.0, 0.0, 1.6541731784480555E9, 0.0, 2022-06-02 14:32:58.448
178.0, 18846.342724125712, -311.29274502906145, -54423.3461527045, -44596.848737817854, -20164.64861209972, -21000.045061116823, -154.83053384191203, -6194.428347877068, -0.08, 0.93, 0.424, 192.0, 0.0, 0.0, 0.0, 0.0, 0.0, 0.0, 0.0, 0.0, 0.0, 1.6541731784480615E9, 0.0, 2022-06-02 14:32:58.448
179.0, 18846.990924714915, -306.77769264908943, -54426.27423122815, -44608.806921101444, -20143.593268822824, -20982.275424274856, -160.7537461225684, -6186.940513484539, -0.08, 0.93, 0.424, 192.0, 0.0, 0.0, 0.0, 0.0, 0.0, 0.0, 0.0, 0.0, 0.0, 1.6541731784480667E9, 0.0, 2022-06-02 14:32:58.448
180.0, 18848.06380844877, -314.80196890854467, -54456.49378973172, -44643.18390407371, -20159.75358006401, -21009.83512518825, -182.09966207738663, -6200.575077602277, -0.08, 0.93, 0.424, 192.0, 0.0, 0.0, 0.0, 0.0, 0.0, 0.0, 0.0, 0.0, 0.0, 1.6541731784480724E9, 0.0, 2022-06-02 14:32:58.448
181.0, 18856.021029474858, -312.4103322518268, -54460.27123454466, -44638.57944471591, -20179.42311518468, -21044.234459904965, -199.93635415272166, -6234.505025685433, -0.08, 0.93, 0.424, 192.0, 0.0, 0.0, 0.0, 0.0, 0.0, 0.0, 0.0, 0.0, 0.0, 1.654173178448078E9, 0.0, 2022-06-02 14:32:58.448
182.0, 18853.718799795963, -314.2878787860726, -54433.784417365125, -44646.0896308529, -20178.70785936211, -21038.333599368765, -191.30858079297315, -6230.682877383576, -0.08, 0.93, 0.424, 192.0, 0.0, 0.0, 0.0, 0.0, 0.0, 0.0, 0.0, 0.0, 0.0, 1.6541731784480832E9, 0.0, 2022-06-02 14:32:58.448
183.0, 18848.55554682679, -316.54540497605865, -54421.75917884817, -44635.33844176989, -20157.27253642947, -21006.571770497772, -165.93935083619962, -6205.6489235936315, -0.08, 0.93, 0.424, 192.0, 0.0, 0.0, 0.0, 0.0, 0.0, 0.0, 0.0, 0.0, 0.0, 1.654173178448089E9, 0.0, 2022-06-02 14:32:58.448
184.0, 18848.28732589332, -321.2169195672178, -54436.801902866595, -44580.33079866538, -20148.443597369624, -20995.73117443695, -150.89662681777799, -6195.65769382211, -0.08, 0.93, 0.424, 192.0, 0.0, 0.0, 0.0, 0.0, 0.0, 0.0, 0.0, 0.0, 0.0, 1.6541731784480944E9, 0.0, 2022-06-02 14:32:58.448
185.0, 18867.912157525083, -306.57652694899167, -54440.378181979446, -44648.14599134278, -20144.822614767865, -20990.590273212227, -158.00448155456561, -6199.010455490406, -0.08600000000000001, 0.926, 0.418, 192.0, 253.0, 80.0, 28.0, 240.0, 13.0, 16.0, 0.0, 0.0, 0.0, 1.6541731784481E9, 0.0, 2022-06-02 14:32:58.448
186.0, 18882.709012354495, -297.8369948669666, -54430.05167604109, -44606.61645014482, -20152.26574567148, -21019.468727048486, -179.97624635413246, -6221.7868830903635, -0.08600000000000001, 0.926, 0.418, 192.0, 0.0, 0.0, 0.0, 0.0, 0.0, 0.0, 0.0, 0.0, 0.0, 1.6541731784481056E9, 0.0, 2022-06-02 14:32:58.448
187.0, 18883.916006555082, -291.1538232748298, -54401.79907104958, -44545.015042426, -20141.492204844024, -21016.87592469167, -149.10848726135342, -6212.712074841509, -0.08600000000000001, 0.926, 0.418, 192.0, 0.0, 0.0, 0.0, 0.0, 0.0, 0.0, 0.0, 0.0, 0.0, 1.6541731784481108E9, 0.0, 2022-06-02 14:32:58.448
188.0, 18868.985041258937, -294.75245413213423, -54422.742655604205, -44568.23850491506, -20131.232754139037, -20992.557226724297, -135.36216442133957, -6187.476955351467, -0.08600000000000001, 0.926, 0.418, 192.0, 0.0, 0.0, 0.0, 0.0, 0.0, 0.0, 0.0, 0.0, 0.0, 1.6541731784481163E9, 0.0, 2022-06-02 14:32:58.448
189.0, 18871.376677915654, -296.048855310542, -54434.209100509775, -44588.64564760276, -20126.248315125504, -20973.357078237186, -149.46611517263833, -6177.8210017467745, -0.08600000000000001, 0.926, 0.418, 192.0, 0.0, 0.0, 0.0, 0.0, 0.0, 0.0, 0.0, 0.0, 0.0, 1.6541731784481215E9, 0.0, 2022-06-02 14:32:58.448
190.0, 18868.62741334765, -302.5532129470364, -54428.062370784566, -44626.24128177659, -20139.279382142948, -20991.953729624, -163.6818246462136, -6204.888964282151, -0.08600000000000001, 0.926, 0.418, 192.0, 0.0, 0.0, 0.0, 0.0, 0.0, 0.0, 0.0, 0.0, 0.0, 1.6541731784481273E9, 0.0, 2022-06-02 14:32:58.448
191.0, 18879.423305919565, -297.63582916686886, -54435.86312959947, -44611.667944391724, -20155.260879428493, -21019.69224449304, -182.65845568876932, -6234.885005341173, -0.08600000000000001, 0.926, 0.418, 192.0, 0.0, 0.0, 0.0, 0.0, 0.0, 0.0, 0.0, 0.0, 0.0, 1.6541731784481328E9, 0.0, 2022-06-02 14:32:58.448
192.0, 18880.16091348659, -287.53284067307004, -54398.826289037024, -44566.942103736656, -20151.394027637725, -21016.093613635734, -172.4660602171493, -6217.003609776928, -0.08600000000000001, 0.926, 0.418, 192.0, 0.0, 0.0, 0.0, 0.0, 0.0, 0.0, 0.0, 0.0, 0.0, 1.6541731784481473E9, 0.0, 2022-06-02 14:32:58.448
193.0, 18868.962689514483, -292.00318956413145, -54391.986655233704, -44579.660246331725, -20134.138480918227, -20986.276386532354, -145.37574593731713, -6181.531391326355, -0.08600000000000001, 0.926, 0.418, 192.0, 0.0, 0.0, 0.0, 0.0, 0.0, 0.0, 0.0, 0.0, 0.0, 1.6541731784481528E9, 0.0, 2022-06-02 14:32:58.448
194.0, 18861.944241755515, -304.00607633663134, -54418.36171369097, -44591.55137438195, -20131.45627158359, -20976.53102594984, -167.23575201460744, -6184.325359383269, -0.08600000000000001, 0.926, 0.418, 192.0, 0.0, 0.0, 0.0, 0.0, 0.0, 0.0, 0.0, 0.0, 0.0, 1.6541731784481587E9, 0.0, 2022-06-02 14:32:58.448
195.0, 18874.327108183756, -308.4093699943268, -54435.63961215492, -44611.891461836276, -20138.07238794236, -20987.662194688583, -174.88004861832246, -6193.601333332221, -0.082, 0.932, 0.42, 192.0, 253.0, 112.0, 29.0, 32.0, 13.0, 32.0, 0.0, 0.0, 0.0, 1.6541731784481645E9, 0.0, 2022-06-02 14:32:58.448
196.0, 18874.662384350584, -306.80004439354474, -54438.16535927837, -44616.94295608318, -20156.244356184525, -21022.486212549953, -147.7897343384903, -6228.693572127053, -0.082, 0.932, 0.42, 192.0, 0.0, 0.0, 0.0, 0.0, 0.0, 0.0, 0.0, 0.0, 0.0, 1.654173178448172E9, 0.0, 2022-06-02 14:32:58.448
197.0, 18881.569073387276, -301.05564606853085, -54415.746559589694, -44590.09851099235, -20162.636955098744, -21028.431776575064, -141.19596972417472, -6230.861691339218, -0.082, 0.932, 0.42, 192.0, 0.0, 0.0, 0.0, 0.0, 0.0, 0.0, 0.0, 0.0, 0.0, 1.6541731784481778E9, 0.0, 2022-06-02 14:32:58.448
198.0, 18864.31352666778, -304.2072420367291, -54408.705760086275, -44580.420205643204, -20145.828443268354, -20998.994529127423, -134.1998737096636, -6179.855010492207, -0.082, 0.932, 0.42, 192.0, 0.0, 0.0, 0.0, 0.0, 0.0, 0.0, 0.0, 0.0, 0.0, 1.6541731784481833E9, 0.0, 2022-06-02 14:32:58.448
199.0, 18865.386410401632, -313.5055677301369, -54422.22856548173, -44591.17139472621, -20125.644818025212, -20978.81090388428, -140.92774879071104, -6167.896827208618, -0.082, 0.932, 0.42, 192.0, 0.0, 0.0, 0.0, 0.0, 0.0, 0.0, 0.0, 0.0, 0.0, 1.6541731784481883E9, 0.0, 2022-06-02 14:32:58.448
200.0, 18874.26005295039, -316.07601834249715, -54441.33930699102, -44626.218930032126, -20138.854698998297, -20995.977043625957, -159.5244001775265, -6192.707263554009, -0.082, 0.932, 0.42, 192.0, 0.0, 0.0, 0.0, 0.0, 0.0, 0.0, 0.0, 0.0, 0.0, 1.654173178448194E9, 0.0, 2022-06-02 14:32:58.448
201.0, 18885.838256578238, -302.597916435947, -54439.26059475668, -44675.68334051172, -20156.087893973337, -21014.797212457324, -175.59530444089228, -6224.08911276926, -0.082, 0.932, 0.42, 192.0, 0.0, 0.0, 0.0, 0.0, 0.0, 0.0, 0.0, 0.0, 0.0, 1.6541731784481993E9, 0.0, 2022-06-02 14:32:58.448
202.0, 18884.69831761102, -300.0274658235867, -54409.48807114221, -44649.151819843275, -20153.94212650563, -21010.68449147755, -167.90630434826664, -6224.111464513715, -0.082, 0.932, 0.42, 192.0, 0.0, 0.0, 0.0, 0.0, 0.0, 0.0, 0.0, 0.0, 0.0, 1.6541731784482048E9, 0.0, 2022-06-02 14:32:58.448
203.0, 18871.93547152704, -313.5726229635028, -54406.13530947391, -44571.01012122752, -20138.966457720573, -20992.91485463558, -151.50012391807127, -6200.41861539109, -0.082, 0.932, 0.42, 192.0, 0.0, 0.0, 0.0, 0.0, 0.0, 0.0, 0.0, 0.0, 0.0, 1.65417317844821E9, 0.0, 2022-06-02 14:32:58.448
204.0, 18875.86937855117, -311.8515386404441, -54424.419036438354, -44611.176206013704, -20136.93244897514, -20979.704973662494, -154.1376297637975, -6195.367121144191, -0.082, 0.932, 0.42, 192.0, 0.0, 0.0, 0.0, 0.0, 0.0, 0.0, 0.0, 0.0, 0.0, 1.6541731784482155E9, 0.0, 2022-06-02 14:32:58.448
205.0, 18876.651689607108, -312.23151829618433, -54441.54047269112, -44628.07412482192, -20145.828443268354, -20999.06158436079, -174.16479279575265, -6211.259211451914, -0.084, 0.928, 0.42, 192.0, 253.0, 96.0, 29.0, 0.0, 13.0, 32.0, 0.0, 0.0, 0.0, 1.654173178448221E9, 0.0, 2022-06-02 14:32:58.448
206.0, 18882.999585032416, -314.3102305305279, -54454.48213273074, -44600.38031344179, -20167.979022023563, -21028.051796919324, -194.9519151391882, -6233.253327995936, -0.084, 0.928, 0.42, 192.0, 0.0, 0.0, 0.0, 0.0, 0.0, 0.0, 0.0, 0.0, 0.0, 1.6541731784482265E9, 0.0, 2022-06-02 14:32:58.448
207.0, 18881.54672164282, -305.6824571707794, -54443.7532953922, -44616.294755493975, -20180.22777798507, -21028.275314363877, -197.41060702927197, -6236.04729605285, -0.084, 0.928, 0.42, 192.0, 0.0, 0.0, 0.0, 0.0, 0.0, 0.0, 0.0, 0.0, 0.0, 1.6541731784482317E9, 0.0, 2022-06-02 14:32:58.448
208.0, 18864.78291330134, -310.4880822286704, -54408.01285600816, -44620.65334566276, -20164.358039421804, -21006.705880964506, -185.58653421241453, -6232.448665195545, -0.084, 0.928, 0.42, 192.0, 0.0, 0.0, 0.0, 0.0, 0.0, 0.0, 0.0, 0.0, 0.0, 1.6541731784482372E9, 0.0, 2022-06-02 14:32:58.448
209.0, 18857.630355075642, -310.59984095094694, -54430.76693186366, -44589.76323482552, -20149.516481103477, -20990.791438912325, -176.62348468583642, -6213.159109730615, -0.084, 0.928, 0.42, 192.0, 0.0, 0.0, 0.0, 0.0, 0.0, 0.0, 0.0, 0.0, 0.0, 1.6541731784482424E9, 0.0, 2022-06-02 14:32:58.448
210.0, 18867.21925344697, -303.33552400297214, -54453.11867631897, -44613.769008370524, -20153.22687068306, -20993.25013080241, -193.83432791642284, -6206.65475209412, -0.084, 0.928, 0.42, 192.0, 0.0, 0.0, 0.0, 0.0, 0.0, 0.0, 0.0, 0.0, 0.0, 1.654173178448248E9, 0.0, 2022-06-02 14:32:58.448
211.0, 18873.522445383365, -305.9506781042431, -54444.04386807011, -44618.68639215069, -20163.575728365868, -21020.11692763769, -187.10645283537542, -6229.341772716257, -0.084, 0.928, 0.42, 192.0, 0.0, 0.0, 0.0, 0.0, 0.0, 0.0, 0.0, 0.0, 0.0, 1.6541731784482532E9, 0.0, 2022-06-02 14:32:58.448
212.0, 18855.283421907836, -325.6202132249133, -54444.87088261496, -44612.226738003104, -20189.190827511648, -21044.100349438235, -187.91111563576646, -6249.078363070294, -0.084, 0.928, 0.42, 192.0, 0.0, 0.0, 0.0, 0.0, 0.0, 0.0, 0.0, 0.0, 0.0, 1.6541731784482589E9, 0.0, 2022-06-02 14:32:58.448
213.0, 18852.64591606211, -321.082809100486, -54429.38112370743, -44602.50372916505, -20172.60583312581, -21018.284084592353, -177.62931318632522, -6235.734371630475, -0.084, 0.928, 0.42, 192.0, 0.0, 0.0, 0.0, 0.0, 0.0, 0.0, 0.0, 0.0, 0.0, 1.654173178448264E9, 0.0, 2022-06-02 14:32:58.448
214.0, 18859.798474287807, -317.4171230098156, -54436.98071682224, -44613.009049059045, -20150.499957859513, -20989.450334245008, -168.01806307054318, -6202.072644480782, -0.084, 0.928, 0.42, 192.0, 0.0, 0.0, 0.0, 0.0, 0.0, 0.0, 0.0, 0.0, 0.0, 1.654173178448284E9, 0.0, 2022-06-02 14:32:58.448
215.0, 18858.814997531772, -316.94773637625417, -54451.97873735175, -44631.89627312378, -20155.260879428493, -20996.267616303878, -178.5010312200822, -6206.364179416201, -0.08, 0.93, 0.424, 192.0, 253.0, 128.0, 29.0, 16.0, 13.0, 64.0, 0.0, 0.0, 0.0, 1.6541731784482896E9, 0.0, 2022-06-02 14:32:58.448
216.0, 18857.92092775356, -315.2937072865614, -54456.650251942905, -44640.56874997244, -20166.88378654525, -21019.178154370566, -184.75951966756818, -6224.558499402821, -0.08, 0.93, 0.424, 192.0, 0.0, 0.0, 0.0, 0.0, 0.0, 0.0, 0.0, 0.0, 0.0, 1.654173178448295E9, 0.0, 2022-06-02 14:32:58.448
217.0, 18853.562337584775, -311.67272468480166, -54434.76789412116, -44608.58340365689, -20178.685507617654, -21033.036235932857, -182.81491789995647, -6238.327173987291, -0.08, 0.93, 0.424, 192.0, 0.0, 0.0, 0.0, 0.0, 0.0, 0.0, 0.0, 0.0, 0.0, 1.6541731784483004E9, 0.0, 2022-06-02 14:32:58.448
218.0, 18865.229948190445, -290.2374017521622, -54410.98563802071, -44570.83130727188, -20149.739998548033, -20994.59123546973, -161.7148711341466, -6224.223223235992, -0.08, 0.93, 0.424, 192.0, 0.0, 0.0, 0.0, 0.0, 0.0, 0.0, 0.0, 0.0, 0.0, 1.6541731784483078E9, 0.0, 2022-06-02 14:32:58.448
219.0, 18870.706125581997, -283.8671545823997, -54440.42288546835, -44585.15877546773, -20145.381408379246, -20964.19286301051, -177.2716852750403, -6201.983237502961, -0.08, 0.93, 0.424, 192.0, 0.0, 0.0, 0.0, 0.0, 0.0, 0.0, 0.0, 0.0, 0.0, 1.6541731784483132E9, 0.0, 2022-06-02 14:32:58.448
220.0, 18877.232834962946, -293.9254395872879, -54444.08857155903, -44609.96921181312, -20167.979022023563, -20978.050944572802, -218.15302588379694, -6206.967676516495, -0.08, 0.93, 0.424, 192.0, 0.0, 0.0, 0.0, 0.0, 0.0, 0.0, 0.0, 0.0, 0.0, 1.6541731784483185E9, 0.0, 2022-06-02 14:32:58.448
221.0, 18873.83536980574, -305.4142362373157, -54442.85922561398, -44617.21117701664, -20184.251091987026, -21004.940093152534, -217.57188052795894, -6234.9967640634495, -0.08, 0.93, 0.424, 192.0, 0.0, 0.0, 0.0, 0.0, 0.0, 0.0, 0.0, 0.0, 0.0, 1.654173178448324E9, 0.0, 2022-06-02 14:32:58.448
222.0, 18873.008355260892, -302.6202681804023, -54424.26257422717, -44594.50180465005, -20178.886673317753, -21016.719462480483, -185.96651386815475, -6247.066706069316, -0.08, 0.93, 0.424, 192.0, 0.0, 0.0, 0.0, 0.0, 0.0, 0.0, 0.0, 0.0, 0.0, 1.6541731784483292E9, 0.0, 2022-06-02 14:32:58.448
223.0, 18858.457369620486, -307.80587289403354, -54420.52983290313, -44585.78462431248, -20162.525196376468, -20993.071316846766, -165.2017432691745, -6211.236859707458, -0.08, 0.93, 0.424, 192.0, 0.0, 0.0, 0.0, 0.0, 0.0, 0.0, 0.0, 0.0, 0.0, 1.654173178448335E9, 0.0, 2022-06-02 14:32:58.448
224.0, 18842.811148501773, -323.4520940127485, -54447.48603671623, -44609.41041820174, -20164.00041151052, -20988.757430166894, -178.97041785364365, -6213.561441130811, -0.08, 0.93, 0.424, 192.0, 0.0, 0.0, 0.0, 0.0, 0.0, 0.0, 0.0, 0.0, 0.0, 1.6541731784483404E9, 0.0, 2022-06-02 14:32:58.448
225.0, 18851.997715472906, -314.8913758863659, -54455.82323739806, -44623.06733406393, -20165.117998733283, -21006.52706700886, -175.46119397416044, -6254.174560806104, -0.082, 0.932, 0.43, 192.0, 253.0, 112.0, 29.0, 32.0, 13.0, 112.0, 0.0, 0.0, 0.0, 1.654173178448346E9, 0.0, 2022-06-02 14:32:58.448
226.0, 18865.78874180183, -309.146977561352, -54448.335403005534, -44617.054714805454, -20169.543644135436, -21019.1110991372, -185.05009234548717, -6272.346529048268, -0.082, 0.932, 0.43, 192.0, 0.0, 0.0, 0.0, 0.0, 0.0, 0.0, 0.0, 0.0, 0.0, 1.6541731784483511E9, 0.0, 2022-06-02 14:32:58.448
227.0, 18860.24550917691, -309.61636419491344, -54431.77276036415, -44596.87108956231, -20175.779780838464, -21013.992549656934, -188.33579878041732, -6229.1853105050695, -0.082, 0.932, 0.43, 192.0, 0.0, 0.0, 0.0, 0.0, 0.0, 0.0, 0.0, 0.0, 0.0, 1.6541731784483569E9, 0.0, 2022-06-02 14:32:58.448
228.0, 18852.377695128645, -304.6766286702906, -54420.172204991846, -44582.58832485537, -20159.999449253017, -20982.387182997132, -181.85379288837825, -6187.901638496118, -0.082, 0.932, 0.43, 192.0, 0.0, 0.0, 0.0, 0.0, 0.0, 0.0, 0.0, 0.0, 0.0, 1.6541731784483626E9, 0.0, 2022-06-02 14:32:58.448
229.0, 18852.15417768409, -303.179061791785, -54438.00889706718, -44601.92258380921, -20152.355152649303, -20975.659307916085, -177.31638876395093, -6194.026016476872, -0.082, 0.932, 0.43, 192.0, 0.0, 0.0, 0.0, 0.0, 0.0, 0.0, 0.0, 0.0, 0.0, 1.654173178448368E9, 0.0, 2022-06-02 14:32:58.448
230.0, 18854.344648640712, -306.0847885709749, -54445.474379715255, -44610.88563333579, -20150.298792159414, -20988.86918888917, -180.80326089897883, -6220.959868545517, -0.082, 0.932, 0.43, 192.0, 0.0, 0.0, 0.0, 0.0, 0.0, 0.0, 0.0, 0.0, 0.0, 1.6541731784483736E9, 0.0, 2022-06-02 14:32:58.448
231.0, 18864.894672023616, -306.3753612488939, -54442.456894213785, -44610.416246702225, -20162.055809742906, -21017.412366558598, -202.8644326763669, -6268.300863301857, -0.082, 0.932, 0.43, 192.0, 0.0, 0.0, 0.0, 0.0, 0.0, 0.0, 0.0, 0.0, 0.0, 1.6541731784483788E9, 0.0, 2022-06-02 14:32:58.448
232.0, 18875.377640173156, -292.5619831755141, -54413.511385144164, -44578.96734225361, -20160.357077164303, -21005.610645486195, -183.8878016338112, -6241.322307744302, -0.082, 0.932, 0.43, 192.0, 0.0, 0.0, 0.0, 0.0, 0.0, 0.0, 0.0, 0.0, 0.0, 1.6541731784483843E9, 0.0, 2022-06-02 14:32:58.448
233.0, 18859.418494632067, -297.65818091132417, -54400.56972510454, -44565.93627523616, -20142.40862636669, -20975.3016800048, -143.54290289198195, -6196.887039767152, -0.082, 0.932, 0.43, 192.0, 0.0, 0.0, 0.0, 0.0, 0.0, 0.0, 0.0, 0.0, 0.0, 1.6541731784483898E9, 0.0, 2022-06-02 14:32:58.448
234.0, 18861.363096399677, -301.32386700199453, -54414.67367585584, -44582.387159155274, -20133.266762884472, -20963.991697310412, -147.67797561621376, -6193.646036821132, -0.082, 0.932, 0.43, 192.0, 0.0, 0.0, 0.0, 0.0, 0.0, 0.0, 0.0, 0.0, 0.0, 1.6541731784483953E9, 0.0, 2022-06-02 14:32:58.448
235.0, 18867.86745403617, -301.03329432407554, -54433.00210630919, -44605.07417977741, -20144.196765923116, -20981.04607832981, -176.84700213038948, -6220.065798767305, -0.08600000000000001, 0.924, 0.432, 192.0, 253.0, 80.0, 28.0, 224.0, 13.0, 128.0, 0.0, 0.0, 0.0, 1.6541731784484005E9, 0.0, 2022-06-02 14:32:58.448
236.0, 18875.109419239692, -296.11591054390794, -54427.704742873284, -44607.130540267295, -20152.243393927027, -21005.67770071956, -170.9237898497331, -6240.428237966089, -0.08600000000000001, 0.924, 0.432, 192.0, 0.0, 0.0, 0.0, 0.0, 0.0, 0.0, 0.0, 0.0, 0.0, 1.654173178448406E9, 0.0, 2022-06-02 14:32:58.448
237.0, 18868.180378458546, -293.0760732979862, -54409.71158858676, -44586.67869409069, -20153.651553827713, -21009.16457285459, -156.48456293160476, -6239.511816443422, -0.08600000000000001, 0.924, 0.432, 192.0, 0.0, 0.0, 0.0, 0.0, 0.0, 0.0, 0.0, 0.0, 0.0, 1.6541731784484115E9, 0.0, 2022-06-02 14:32:58.448
238.0, 18847.370904370655, -310.1081025729302, -54407.7446350747, -44586.075196990394, -20145.13553919024, -20994.68064244755, -160.79844961147901, -6221.250441223436, -0.08600000000000001, 0.924, 0.432, 192.0, 0.0, 0.0, 0.0, 0.0, 0.0, 0.0, 0.0, 0.0, 0.0, 1.6541731784484167E9, 0.0, 2022-06-02 14:32:58.448
239.0, 18856.82569227525, -299.759244890123, -54415.56774563405, -44595.73115059509, -20138.36296062028, -20982.29777601931, -173.0919090618979, -6244.339793245768, -0.08600000000000001, 0.924, 0.432, 192.0, 0.0, 0.0, 0.0, 0.0, 0.0, 0.0, 0.0, 0.0, 0.0, 1.654173178448424E9, 0.0, 2022-06-02 14:32:58.448
240.0, 18863.97825050095, -294.52893668758117, -54430.38695220792, -44606.97407805611, -20147.61658282478, -20984.979985353948, -174.72358640713531, -6241.456418211033, -0.08600000000000001, 0.924, 0.432, 192.0, 0.0, 0.0, 0.0, 0.0, 0.0, 0.0, 0.0, 0.0, 0.0, 1.6541731784484296E9, 0.0, 2022-06-02 14:32:58.448
241.0, 18872.628375605153, -297.6805326557795, -54433.650306898395, -44606.45998793364, -20159.88769053074, -21003.73309895195, -181.47381323263804, -6216.08718825426, -0.08600000000000001, 0.924, 0.432, 192.0, 0.0, 0.0, 0.0, 0.0, 0.0, 0.0, 0.0, 0.0, 0.0, 1.6541731789281125E9, 0.0, 2022-06-02 14:32:58.928
242.0, 18873.008355260892, -294.6406954098577, -54406.895268785396, -44580.8225370434, -20158.010143996496, -21010.550381010817, -169.85090611587836, -6213.583792875265, -0.08600000000000001, 0.924, 0.432, 192.0, 0.0, 0.0, 0.0, 0.0, 0.0, 0.0, 0.0, 0.0, 0.0, 1.6541731789282365E9, 0.0, 2022-06-02 14:32:58.928
243.0, 18867.532177869343, -290.5950296634471, -54390.444384866285, -44564.215190913106, -20138.407664109192, -20988.86918888917, -139.9219202902222, -6215.349580687235, -0.08600000000000001, 0.924, 0.432, 192.0, 0.0, 0.0, 0.0, 0.0, 0.0, 0.0, 0.0, 0.0, 0.0, 1.6541731789282436E9, 0.0, 2022-06-02 14:32:58.928
244.0, 18866.906329024594, -293.18783202026276, -54403.028416994624, -44576.88863001927, -20130.919829716662, -20967.322107234253, -159.23382749960751, -6199.792766546341, -0.08600000000000001, 0.924, 0.432, 192.0, 0.0, 0.0, 0.0, 0.0, 0.0, 0.0, 0.0, 0.0, 0.0, 1.6541731789282527E9, 0.0, 2022-06-02 14:32:58.928
245.0, 18874.572977372765, -290.99736106364264, -54419.166376491354, -44592.043112759966, -20145.582574079344, -20973.62529917065, -211.49220603611542, -6197.423481634079, -0.088, 0.92, 0.428, 192.0, 253.0, 64.0, 28.0, 192.0, 13.0, 96.0, 0.0, 0.0, 0.0, 1.6541731789282627E9, 0.0, 2022-06-02 14:32:58.928
246.0, 18871.60019536021, -302.5755646914917, -54431.281021986135, -44602.727246609604, -20167.08495224535, -21005.74475595293, -224.344459097917, -6237.209586764525, -0.088, 0.92, 0.428, 192.0, 0.0, 0.0, 0.0, 0.0, 0.0, 0.0, 0.0, 0.0, 0.0, 1.6541731789282691E9, 0.0, 2022-06-02 14:32:58.928
247.0, 18852.44475036201, -302.2849920135727, -54404.503632128675, -44577.134499208274, -20157.786626551944, -21007.19761934252, -168.77802238202364, -6238.61774666521, -0.088, 0.92, 0.428, 192.0, 0.0, 0.0, 0.0, 0.0, 0.0, 0.0, 0.0, 0.0, 0.0, 1.6541731789282818E9, 0.0, 2022-06-02 14:32:58.928
248.0, 18843.928735724538, -300.0945210569526, -54386.97986447572, -44558.64960654374, -20127.500012815002, -20970.987793324923, -114.01624846652133, -6180.190286659037, -0.088, 0.92, 0.428, 192.0, 0.0, 0.0, 0.0, 0.0, 0.0, 0.0, 0.0, 0.0, 0.0, 1.6541731789282904E9, 0.0, 2022-06-02 14:32:58.928
249.0, 18845.091026436214, -300.4297972237822, -54401.73201581622, -44575.23460092957, -20121.397986578704, -20966.070409544758, -127.13672246178658, -6183.878324494162, -0.088, 0.92, 0.428, 192.0, 0.0, 0.0, 0.0, 0.0, 0.0, 0.0, 0.0, 0.0, 0.0, 1.6541731789282985E9, 0.0, 2022-06-02 14:32:58.928
250.0, 18842.878203735138, -313.12558807439666, -54431.45983594177, -44605.78943559998, -20142.498033344513, -20989.71855517847, -176.64583643029172, -6220.80340633433, -0.088, 0.92, 0.428, 192.0, 0.0, 0.0, 0.0, 0.0, 0.0, 0.0, 0.0, 0.0, 0.0, 1.6541731789283068E9, 0.0, 2022-06-02 14:32:58.928
251.0, 18850.34368638321, -312.4550357407374, -54434.90200458789, -44611.51148218054, -20155.394989895223, -21012.360872311696, -178.54573470899282, -6236.114351286215, -0.088, 0.92, 0.428, 192.0, 0.0, 0.0, 0.0, 0.0, 0.0, 0.0, 0.0, 0.0, 0.0, 1.6541731789283159E9, 0.0, 2022-06-02 14:32:58.928
252.0, 18860.044343476813, -299.7815966345783, -54405.30829492907, -44579.14615620925, -20152.578670093855, -21009.45514553251, -153.60118789687013, -6231.286374483869, -0.088, 0.92, 0.428, 192.0, 0.0, 0.0, 0.0, 0.0, 0.0, 0.0, 0.0, 0.0, 0.0, 1.654173178928324E9, 0.0, 2022-06-02 14:32:58.928
253.0, 18844.085197935725, -303.8719658698995, -54389.95264648827, -44571.21128692762, -20137.93827747563, -20988.01982259987, -147.25329247156293, -6223.306801713325, -0.088, 0.92, 0.428, 192.0, 0.0, 0.0, 0.0, 0.0, 0.0, 0.0, 0.0, 0.0, 0.0, 1.654173178928335E9, 0.0, 2022-06-02 14:32:58.928
254.0, 18831.098834407192, -314.9584311197318, -54410.56095487606, -44595.75350233955, -20133.155004162196, -20974.09468580421, -154.3834989528059, -6209.783996317863, -0.088, 0.92, 0.428, 192.0, 0.0, 0.0, 0.0, 0.0, 0.0, 0.0, 0.0, 0.0, 0.0, 1.654173178928342E9, 0.0, 2022-06-02 14:32:58.928
255.0, 18837.759654254874, -314.9584311197318, -54425.58132715003, -44612.04792404747, -20141.961591477586, -20989.450334245008, -186.14532782379723, -6222.859766824218, -0.082, 0.928, 0.422, 192.0, 253.0, 112.0, 29.0, 0.0, 13.0, 48.0, 0.0, 0.0, 0.0, 1.6541731789283488E9, 0.0, 2022-06-02 14:32:58.928
0.0, 18836.418549587554, -318.7358759326787, -54448.31305126108, -44624.967232342635, -20161.76523706499, -21025.39193932914, -218.28713635052878, -6259.315462030824, -0.082, 0.928, 0.422, 192.0, 0.0, 0.0, 0.0, 0.0, 0.0, 0.0, 0.0, 0.0, 0.0, 1.6541731789283679E9, 0.0, 2022-06-02 14:32:58.928
1.0, 18833.222250130446, -313.9749543636983, -54422.25091722619, -44600.80499658644, -20160.021800997474, -21027.403596330118, -177.71872016414645, -6243.423371723101, -0.082, 0.928, 0.422, 192.0, 0.0, 0.0, 0.0, 0.0, 0.0, 0.0, 0.0, 0.0, 0.0, 1.6541731789283764E9, 0.0, 2022-06-02 14:32:58.928
2.0, 18815.609075499666, -329.93409990478756, -54388.075099954025, -44590.88082204829, -20148.309486902894, -21005.72240420847, -157.84801934337847, -6210.6333626071655, -0.082, 0.928, 0.422, 192.0, 0.0, 0.0, 0.0, 0.0, 0.0, 0.0, 0.0, 0.0, 0.0, 1.6541731789283876E9, 0.0, 2022-06-02 14:32:58.928
3.0, 18812.211610342456, -342.853408199955, -54412.48320489922, -44608.8292728459, -20141.64866705521, -20993.0042616134, -178.8139556424565, -6207.101786983227, -0.082, 0.928, 0.422, 192.0, 0.0, 0.0, 0.0, 0.0, 0.0, 0.0, 0.0, 0.0, 0.0, 1.6541731789283962E9, 0.0, 2022-06-02 14:32:58.928
4.0, 18815.43026154402, -336.46080928573724, -54427.19065275081, -44629.54933995597, -20145.56022233489, -21008.516372265385, -191.21917381515192, -6230.906394828128, -0.082, 0.928, 0.422, 192.0, 0.0, 0.0, 0.0, 0.0, 0.0, 0.0, 0.0, 0.0, 0.0, 1.6541731789285376E9, 0.0, 2022-06-02 14:32:58.928
5.0, 18827.120223894148, -328.39182953737134, -54418.02643752414, -44655.14208735729, -20150.969344493074, -21023.82731721727, -193.0296651160318, -6251.38059274919, -0.082, 0.928, 0.422, 192.0, 0.0, 0.0, 0.0, 0.0, 0.0, 0.0, 0.0, 0.0, 0.0, 1.6541731789285443E9, 0.0, 2022-06-02 14:32:58.928
6.0, 18834.317485608757, -321.4404370117709, -54391.87489651143, -44610.148025768765, -20145.828443268354, -21028.901163208626, -165.64877815828063, -6237.656621653631, -0.082, 0.928, 0.422, 192.0, 0.0, 0.0, 0.0, 0.0, 0.0, 0.0, 0.0, 0.0, 0.0, 1.65417317892855E9, 0.0, 2022-06-02 14:32:58.928
7.0, 18827.38844482761, -315.4948729866592, -54375.58047480351, -44564.95279848013, -20126.002445936498, -20998.033404115846, -145.53220814850428, -6202.899659025629, -0.082, 0.928, 0.422, 192.0, 0.0, 0.0, 0.0, 0.0, 0.0, 0.0, 0.0, 0.0, 0.0, 1.6541731789285555E9, 0.0, 2022-06-02 14:32:58.928
8.0, 18821.4428808025, -325.44139926927085, -54393.327759901025, -44605.185938499686, -20117.88876269922, -20984.19767429801, -160.4408217001941, -6204.08430148176, -0.082, 0.9400000000000001, 0.43, 192.0, 253.0, 112.0, 29.0, 96.0, 13.0, 112.0, 0.0, 0.0, 0.0, 1.654173178928562E9, 0.0, 2022-06-02 14:32:58.928
9.0, 18827.00846517187, -332.3480883059607, -54416.57357413454, -44619.91573809573, -20130.539850060923, -21001.721441950973, -181.09383357689782, -6212.80148181933, -0.082, 0.9400000000000001, 0.43, 192.0, 0.0, 0.0, 0.0, 0.0, 0.0, 0.0, 0.0, 0.0, 0.0, 1.654173178928568E9, 0.0, 2022-06-02 14:32:58.928
10.0, 18841.648857790096, -326.9389661477764, -54417.981734035224, -44618.798150872964, -20141.46985309957, -21020.899238693626, -179.73037716512408, -6224.893775569651, -0.082, 0.9400000000000001, 0.43, 192.0, 0.0, 0.0, 0.0, 0.0, 0.0, 0.0, 0.0, 0.0, 0.0, 1.6541731789285765E9, 0.0, 2022-06-02 14:32:58.928
11.0, 18834.652761775586, -314.73491367517875, -54388.969169732234, -44590.88082204829, -20138.11709143127, -21019.93811368205, -153.1988564966746, -6216.266002209903, -0.082, 0.9400000000000001, 0.43, 192.0, 0.0, 0.0, 0.0, 0.0, 0.0, 0.0, 0.0, 0.0, 0.0, 1.6541731789285831E9, 0.0, 2022-06-02 14:32:58.928
12.0, 18830.160061140068, -304.58722169246937, -54373.50176256916, -44571.36774913881, -20112.054957396384, -20984.555302209297, -123.31457415992907, -6190.449737364022, -0.082, 0.9400000000000001, 0.43, 192.0, 0.0, 0.0, 0.0, 0.0, 0.0, 0.0, 0.0, 0.0, 0.0, 1.6541731789285889E9, 0.0, 2022-06-02 14:32:58.928
13.0, 18828.64014251711, -312.47738748519276, -54387.40454762037, -44595.1276534948, -20099.783849690422, -20972.39595322561, -129.37189690731728, -6185.487650094945, -0.082, 0.9400000000000001, 0.43, 192.0, 0.0, 0.0, 0.0, 0.0, 0.0, 0.0, 0.0, 0.0, 0.0, 1.6541731789285972E9, 0.0, 2022-06-02 14:32:58.928
14.0, 18813.552715009777, -333.1974545952624, -54419.345190447, -44633.72911616911, -20121.08506215633, -20999.374508783163, -159.05501354396506, -6199.457490379512, -0.082, 0.9400000000000001, 0.43, 192.0, 0.0, 0.0, 0.0, 0.0, 0.0, 0.0, 0.0, 0.0, 0.0, 1.6541731789286041E9, 0.0, 2022-06-02 14:32:58.928
15.0, 18813.597418498688, -336.08082962999697, -54455.68912693133, -44643.51918024054, -20143.615620567278, -21030.912820209604, -172.7566328950683, -6227.218356993003, -0.082, 0.9400000000000001, 0.43, 192.0, 0.0, 0.0, 0.0, 0.0, 0.0, 0.0, 0.0, 0.0, 0.0, 1.6541731789286156E9, 0.0, 2022-06-02 14:32:58.928
16.0, 18819.96766566845, -327.72127720371213, -54414.2936962001, -44622.866168363835, -20148.108321202795, -21036.612515045705, -158.27270248802932, -6227.955964560028, -0.082, 0.9400000000000001, 0.43, 192.0, 0.0, 0.0, 0.0, 0.0, 0.0, 0.0, 0.0, 0.0, 0.0, 1.6541731789286232E9, 0.0, 2022-06-02 14:32:58.928
17.0, 18822.985151169916, -319.51818698861445, -54367.06446016604, -44603.978944299095, -20132.41739659517, -21002.63786347364, -143.6993651031691, -6197.110557211704, -0.082, 0.9400000000000001, 0.43, 192.0, 0.0, 0.0, 0.0, 0.0, 0.0, 0.0, 0.0, 0.0, 0.0, 1.654173178928631E9, 0.0, 2022-06-02 14:32:58.928
18.0, 18816.659607489062, -328.7047539597457, -54395.31706515754, -44625.101342809365, -20129.154041904694, -20989.606796456195, -161.29018798949576, -6196.261190922402, -0.078, 0.924, 0.424, 192.0, 253.0, 144.0, 28.0, 224.0, 13.0, 64.0, 0.0, 0.0, 0.0, 1.6541731789286408E9, 0.0, 2022-06-02 14:32:58.928
