%OpenBCI Raw EEG Data
%Number of channels = 8
%Sample Rate = 250 Hz
%Board = OpenBCI_GUI$BoardCytonSerial
Sample Index, EXG Channel 0, EXG Channel 1, EXG Channel 2, EXG Channel 3, EXG Channel 4, EXG Channel 5, EXG Channel 6, EXG Channel 7, Accel Channel 0, Accel Channel 1, Accel Channel 2, Other, Other, Other, Other, Other, Other, Other, Analog Channel 0, Analog Channel 1, Analog Channel 2, Timestamp, Other, Timestamp (Formatted)
0.0, 0.0, 0.0, 0.0, 0.0, 0.0, 0.0, 0.0, 0.0, 0.0, 0.0, 0.0, 192.0, 0.0, 0.0, 0.0, 0.0, 0.0, 0.0, 0.0, 0.0, 0.0, 1.6546750957894552E9, 0.0, 2022-06-08 09:58:15.789
1.0, 22042.21749808997, 37070.0999581933, -8749.523311796584, -11488.75194653892, 4389.904962766763, 5487.80029866699, 17549.89684222899, 2443.9620904877297, -0.028, 0.886, 0.506, 192.0, 255.0, 32.0, 27.0, 176.0, 15.0, 208.0, 0.0, 0.0, 0.0, 1.654675096267523E9, 0.0, 2022-06-08 09:58:16.267
2.0, 22047.000771403407, 37076.87253676326, -8746.014087917101, -11487.589655827243, 4390.799032544975, 5488.649664956291, 17539.391522334998, 2435.3566688724363, -0.028, 0.886, 0.506, 192.0, 0.0, 0.0, 0.0, 0.0, 0.0, 0.0, 0.0, 0.0, 0.0, 1.654675096267706E9, 0.0, 2022-06-08 09:58:16.267
3.0, 22041.88222192314, 37069.20588841509, -8752.496093809139, -11502.967656012495, 4383.355901641357, 5478.099641573387, 17523.879411683014, 2456.926102271808, -0.028, 0.886, 0.506, 192.0, 0.0, 0.0, 0.0, 0.0, 0.0, 0.0, 0.0, 0.0, 0.0, 1.6546750962677116E9, 0.0, 2022-06-08 09:58:16.267
4.0, 22047.112530125683, 37071.731635538534, -8753.054887420521, -11503.70526357952, 4392.028378490017, 5499.937295906222, 17541.738455502804, 2501.786053393609, -0.028, 0.886, 0.506, 192.0, 0.0, 0.0, 0.0, 0.0, 0.0, 0.0, 0.0, 0.0, 0.0, 1.654675096267716E9, 0.0, 2022-06-08 09:58:16.267
5.0, 22039.959971899985, 37060.220487144055, -8765.013070704112, -11504.08524323526, 4382.148907440771, 5491.600095224392, 17533.021275165233, 2488.486765442701, -0.028, 0.886, 0.506, 192.0, 0.0, 0.0, 0.0, 0.0, 0.0, 0.0, 0.0, 0.0, 0.0, 1.6546750962677205E9, 0.0, 2022-06-08 09:58:16.267
6.0, 22040.89874516711, 37057.11359466476, -8778.73704179967, -11501.648903089632, 4379.556105083955, 5484.8945718878, 17546.90170847198, 2477.0650240260393, -0.028, 0.886, 0.506, 192.0, 0.0, 0.0, 0.0, 0.0, 0.0, 0.0, 0.0, 0.0, 0.0, 1.6546750962677248E9, 0.0, 2022-06-08 09:58:16.267
7.0, 22049.057131893296, 37065.36138836877, -8773.149105685843, -11498.787879799353, 4385.546372597977, 5487.8226504114455, 17555.976516720835, 2453.752154559154, -0.028, 0.886, 0.506, 192.0, 0.0, 0.0, 0.0, 0.0, 0.0, 0.0, 0.0, 0.0, 0.0, 1.6546750962677293E9, 0.0, 2022-06-08 09:58:16.267
8.0, 22059.249527364915, 37077.58779258583, -8756.184131644266, -11482.314644135791, 4396.521079125533, 5487.286208544518, 17559.32927838913, 2485.49163168569, -0.022, 0.898, 0.47600000000000003, 192.0, 255.0, 80.0, 28.0, 16.0, 14.0, 224.0, 0.0, 0.0, 0.0, 1.6546750962677336E9, 0.0, 2022-06-08 09:58:16.267
9.0, 22067.631431535654, 37086.43908339013, -8750.752657741627, -11484.236894158948, 4398.331570426413, 5493.544696992004, 17557.876414999537, 2474.181648991305, -0.022, 0.898, 0.47600000000000003, 192.0, 0.0, 0.0, 0.0, 0.0, 0.0, 0.0, 0.0, 0.0, 0.0, 1.654675096267738E9, 0.0, 2022-06-08 09:58:16.267
10.0, 22058.51191979789, 37074.19032742862, -8772.92558824129, -11497.983216998962, 4386.1051662093605, 5477.1385165618085, 17552.37788586353, 2443.7385730431765, -0.022, 0.898, 0.47600000000000003, 192.0, 0.0, 0.0, 0.0, 0.0, 0.0, 0.0, 0.0, 0.0, 0.0, 1.6546750962677422E9, 0.0, 2022-06-08 09:58:16.267
11.0, 22052.968687172972, 37070.9493244826, -8773.149105685843, -11493.17759194107, 4378.952607983662, 5479.8430776409, 17543.884222970515, 2470.717128600732, -0.022, 0.898, 0.47600000000000003, 192.0, 0.0, 0.0, 0.0, 0.0, 0.0, 0.0, 0.0, 0.0, 0.0, 1.6546750962677464E9, 0.0, 2022-06-08 09:58:16.267
12.0, 22054.533309284845, 37073.16214718368, -8772.411498118818, -11497.200905943026, 4380.673692306721, 5481.407699752772, 17541.00084793578, 2484.642265396388, -0.022, 0.898, 0.47600000000000003, 192.0, 0.0, 0.0, 0.0, 0.0, 0.0, 0.0, 0.0, 0.0, 0.0, 1.654675096267751E9, 0.0, 2022-06-08 09:58:16.267
13.0, 22055.159158129594, 37079.06300771988, -8766.153009671332, -11495.65863557561, 4392.654227334765, 5485.475717243638, 17542.431359580918, 2493.068873056039, -0.022, 0.898, 0.47600000000000003, 192.0, 0.0, 0.0, 0.0, 0.0, 0.0, 0.0, 0.0, 0.0, 0.0, 1.6546750962677555E9, 0.0, 2022-06-08 09:58:16.267
14.0, 22056.50026279691, 37083.689818822124, -8766.912968982813, -11485.153315681615, 4393.078910479416, 5486.123917832842, 17530.026141408223, 2481.2224484947265, -0.022, 0.898, 0.47600000000000003, 192.0, 0.0, 0.0, 0.0, 0.0, 0.0, 0.0, 0.0, 0.0, 0.0, 1.65467509626776E9, 0.0, 2022-06-08 09:58:16.267
15.0, 22037.657742221087, 37069.027074459445, -8778.669986566305, -11496.79857454283, 4382.573590585422, 5474.523362460538, 17528.50622278526, 2450.2652824241263, -0.022, 0.898, 0.47600000000000003, 192.0, 0.0, 0.0, 0.0, 0.0, 0.0, 0.0, 0.0, 0.0, 0.0, 1.6546750962677643E9, 0.0, 2022-06-08 09:58:16.267
16.0, 22036.897782909607, 37064.824946501845, -8780.525181356095, -11506.745100825441, 4385.032282475506, 5458.452458197172, 17553.00373470828, 2452.455753380746, -0.022, 0.898, 0.47600000000000003, 192.0, 0.0, 0.0, 0.0, 0.0, 0.0, 0.0, 0.0, 0.0, 0.0, 1.6546750962677689E9, 0.0, 2022-06-08 09:58:16.267
17.0, 22053.21455636198, 37076.58196408534, -8777.664158065816, -11509.270847948892, 4391.000198245072, 5469.673033913736, 17546.722894516337, 2472.7511373461653, -0.022, 0.898, 0.47600000000000003, 192.0, 0.0, 0.0, 0.0, 0.0, 0.0, 0.0, 0.0, 0.0, 0.0, 1.654675096267773E9, 0.0, 2022-06-08 09:58:16.267
18.0, 22058.646030264623, 37085.165033956175, -8767.851742249935, -11488.997815727927, 4398.06334949295, 5486.503897488582, 17534.02710366572, 2468.7054715997547, -0.022, 0.906, 0.464, 192.0, 255.0, 80.0, 28.0, 80.0, 14.0, 128.0, 0.0, 0.0, 0.0, 1.6546750962677774E9, 0.0, 2022-06-08 09:58:16.267
19.0, 22053.259259850893, 37081.63345833224, -8771.048041707045, -11499.078452477272, 4392.96715175714, 5489.946066134699, 17536.93283044491, 2456.7696400606205, -0.022, 0.906, 0.464, 192.0, 0.0, 0.0, 0.0, 0.0, 0.0, 0.0, 0.0, 0.0, 0.0, 1.6546750962677815E9, 0.0, 2022-06-08 09:58:16.267
20.0, 22048.051303392807, 37076.090225707325, -8782.246265679154, -11520.625534132187, 4384.182916186204, 5476.602074694882, 17530.94256293089, 2462.6034453634556, -0.022, 0.906, 0.464, 192.0, 0.0, 0.0, 0.0, 0.0, 0.0, 0.0, 0.0, 0.0, 0.0, 1.6546750962677867E9, 0.0, 2022-06-08 09:58:16.267
21.0, 22034.84142241972, 37063.86382149027, -8798.518335642617, -11503.593504857243, 4373.610541058843, 5469.60597868037, 17508.836687664592, 2481.9600560617514, -0.022, 0.906, 0.464, 192.0, 0.0, 0.0, 0.0, 0.0, 0.0, 0.0, 0.0, 0.0, 0.0, 1.6546750962677913E9, 0.0, 2022-06-08 09:58:16.267
22.0, 22034.394387530614, 37064.53437382393, -8798.227762964698, -11496.709167565008, 4378.349110883369, 5464.5768361779255, 17509.46253650934, 2475.813326336542, -0.022, 0.906, 0.464, 192.0, 0.0, 0.0, 0.0, 0.0, 0.0, 0.0, 0.0, 0.0, 0.0, 1.6546750962678013E9, 0.0, 2022-06-08 09:58:16.267
23.0, 22050.398236560613, 37076.358446640785, -8781.575713345494, -11495.4127663866, 4399.382102415812, 5468.823667624434, 17570.840426783612, 2482.4741461842236, -0.022, 0.906, 0.464, 192.0, 0.0, 0.0, 0.0, 0.0, 0.0, 0.0, 0.0, 0.0, 0.0, 1.6546750962678056E9, 0.0, 2022-06-08 09:58:16.267
24.0, 22049.75003597141, 37078.52656585295, -8776.21129467622, -11502.788842056852, 4400.63380010531, 5484.805164909979, 17581.502208888796, 2473.622855379922, -0.022, 0.906, 0.464, 192.0, 0.0, 0.0, 0.0, 0.0, 0.0, 0.0, 0.0, 0.0, 0.0, 1.65467509626781E9, 0.0, 2022-06-08 09:58:16.267
25.0, 22041.41283528958, 37076.60431582979, -8784.034405235578, -11510.097862493738, 4385.792241786986, 5464.018042566543, 17549.47215908434, 2426.684192023777, -0.022, 0.906, 0.464, 192.0, 0.0, 0.0, 0.0, 0.0, 0.0, 0.0, 0.0, 0.0, 0.0, 1.6546750962678142E9, 0.0, 2022-06-08 09:58:16.267
26.0, 22027.465346749468, 37063.148565667696, -8804.419196178818, -11518.725635853487, 4377.678558549709, 5451.098734271376, 17548.823958495137, 2417.631735519378, -0.022, 0.906, 0.464, 192.0, 0.0, 0.0, 0.0, 0.0, 0.0, 0.0, 0.0, 0.0, 0.0, 1.6546750962678185E9, 0.0, 2022-06-08 09:58:16.267
27.0, 22028.78409967233, 37059.1476034102, -8791.097556483455, -11506.968618269995, 4396.610486103355, 5461.469943698638, 17577.0989152311, 2460.167105217827, -0.026000000000000002, 0.912, 0.46, 192.0, 255.0, 48.0, 28.0, 128.0, 14.0, 96.0, 0.0, 0.0, 0.0, 1.6546750962678227E9, 0.0, 2022-06-08 09:58:16.267
28.0, 22043.715064968477, 37066.76954826946, -8770.243378906653, -11482.135830180148, 4410.401512432279, 5484.581647465426, 17577.85887454258, 2518.7733791796422, -0.026000000000000002, 0.912, 0.46, 192.0, 0.0, 0.0, 0.0, 0.0, 0.0, 0.0, 0.0, 0.0, 0.0, 1.6546750962678273E9, 0.0, 2022-06-08 09:58:16.267
29.0, 22044.54207951332, 37065.808423257884, -8777.172419687799, -11495.926856509073, 4399.985599516106, 5480.714795674658, 17569.946357005403, 2520.2709460581477, -0.026000000000000002, 0.912, 0.46, 192.0, 0.0, 0.0, 0.0, 0.0, 0.0, 0.0, 0.0, 0.0, 0.0, 1.6546750962678313E9, 0.0, 2022-06-08 09:58:16.267
30.0, 22032.516840996366, 37059.48287957703, -8791.45518439474, -11509.695531093543, 4387.803898787964, 5468.533094946515, 17556.49060684331, 2481.11068977245, -0.026000000000000002, 0.912, 0.46, 192.0, 0.0, 0.0, 0.0, 0.0, 0.0, 0.0, 0.0, 0.0, 0.0, 1.6546750962678356E9, 0.0, 2022-06-08 09:58:16.267
31.0, 22020.916285624062, 37055.5489725529, -8803.9274578008, -11519.195022487047, 4388.027416232517, 5462.185199521208, 17535.47996705532, 2433.3897153603693, -0.026000000000000002, 0.912, 0.46, 192.0, 0.0, 0.0, 0.0, 0.0, 0.0, 0.0, 0.0, 0.0, 0.0, 1.654675096267841E9, 0.0, 2022-06-08 09:58:16.267
32.0, 22031.8015851738, 37059.237010388024, -8804.55330664555, -11510.544897382844, 4393.2130209461475, 5470.790621136502, 17525.84636519508, 2423.8678722224086, -0.026000000000000002, 0.912, 0.46, 192.0, 0.0, 0.0, 0.0, 0.0, 0.0, 0.0, 0.0, 0.0, 0.0, 1.6546750962678452E9, 0.0, 2022-06-08 09:58:16.267
33.0, 22052.946335428518, 37073.8997547507, -8784.280274424586, -11503.03471124586, 4406.780529830519, 5485.073385843442, 17547.1922811499, 2494.4770329567236, -0.026000000000000002, 0.912, 0.46, 192.0, 0.0, 0.0, 0.0, 0.0, 0.0, 0.0, 0.0, 0.0, 0.0, 1.6546750962678497E9, 0.0, 2022-06-08 09:58:16.267
34.0, 22037.613038732175, 37070.79286227142, -8783.542666857562, -11501.559496111811, 4406.713474597153, 5490.661321957269, 17566.52654010374, 2536.8335886995305, -0.026000000000000002, 0.912, 0.46, 192.0, 0.0, 0.0, 0.0, 0.0, 0.0, 0.0, 0.0, 0.0, 0.0, 1.6546750962678542E9, 0.0, 2022-06-08 09:58:16.267
35.0, 22025.27487579285, 37067.73067328104, -8784.101460468944, -11505.269885691392, 4411.1167682548485, 5487.442670755705, 17572.136827962022, 2519.6450972133994, -0.026000000000000002, 0.912, 0.46, 192.0, 0.0, 0.0, 0.0, 0.0, 0.0, 0.0, 0.0, 0.0, 0.0, 1.6546750962678585E9, 0.0, 2022-06-08 09:58:16.267
36.0, 22019.12814606764, 37063.997931957, -8790.583466360982, -11513.405920673124, 4409.1721664872375, 5472.7352229041135, 17562.458522612873, 2471.320625701025, -0.026000000000000002, 0.912, 0.46, 192.0, 0.0, 0.0, 0.0, 0.0, 0.0, 0.0, 0.0, 0.0, 0.0, 1.6546750962678633E9, 0.0, 2022-06-08 09:58:16.267
37.0, 22022.860887391675, 37066.59073431382, -8789.801155305047, -11502.297103678835, 4411.541451399499, 5469.98595833611, 17547.43815033891, 2463.139887230383, -0.036000000000000004, 0.914, 0.466, 192.0, 254.0, 224.0, 28.0, 144.0, 14.0, 144.0, 0.0, 0.0, 0.0, 1.6546750962678676E9, 0.0, 2022-06-08 09:58:16.267
38.0, 22028.828803161243, 37072.581001827835, -8786.560152359027, -11499.860763533206, 4417.107035768871, 5475.618597938847, 17555.261260898264, 2471.968826290229, -0.036000000000000004, 0.914, 0.466, 192.0, 0.0, 0.0, 0.0, 0.0, 0.0, 0.0, 0.0, 0.0, 0.0, 1.6546750962678719E9, 0.0, 2022-06-08 09:58:16.267
39.0, 22018.770518156354, 37071.10578669379, -8785.330806413986, -11508.555592126322, 4410.714436854653, 5478.770193907046, 17566.079505214635, 2493.2923905005923, -0.036000000000000004, 0.914, 0.466, 192.0, 0.0, 0.0, 0.0, 0.0, 0.0, 0.0, 0.0, 0.0, 0.0, 1.6546750962678761E9, 0.0, 2022-06-08 09:58:16.267
40.0, 22009.941579096507, 37064.02028370146, -8790.650521594349, -11511.081339249771, 4402.3101809394575, 5467.326100745929, 17549.181586406423, 2483.2564572401593, -0.036000000000000004, 0.914, 0.466, 192.0, 0.0, 0.0, 0.0, 0.0, 0.0, 0.0, 0.0, 0.0, 0.0, 1.6546750962678807E9, 0.0, 2022-06-08 09:58:16.267
41.0, 22009.338081996215, 37063.506193578985, -8795.098518740955, -11505.158126969114, 4406.132329241315, 5467.124935045831, 17551.170891662943, 2475.29923621407, -0.036000000000000004, 0.914, 0.466, 192.0, 0.0, 0.0, 0.0, 0.0, 0.0, 0.0, 0.0, 0.0, 0.0, 1.6546750962678857E9, 0.0, 2022-06-08 09:58:16.267
42.0, 22007.706404650977, 37060.488708077515, -8796.283161197087, -11508.71205433751, 4407.87576530883, 5464.219208266641, 17559.552795833682, 2476.0368437810953, -0.036000000000000004, 0.914, 0.466, 192.0, 0.0, 0.0, 0.0, 0.0, 0.0, 0.0, 0.0, 0.0, 0.0, 1.6546750962678897E9, 0.0, 2022-06-08 09:58:16.267
43.0, 22012.757898897875, 37064.48967033502, -8797.043120508566, -11501.023054244883, 4408.099282753383, 5462.296958243484, 17580.406973410485, 2501.49548071569, -0.036000000000000004, 0.914, 0.466, 192.0, 0.0, 0.0, 0.0, 0.0, 0.0, 0.0, 0.0, 0.0, 0.0, 1.654675096267896E9, 0.0, 2022-06-08 09:58:16.267
44.0, 22019.821050145754, 37073.18449892813, -8782.469783123706, -11503.258228690414, 4412.077893266427, 5473.673996171236, 17583.983252523336, 2500.7355214042095, -0.036000000000000004, 0.914, 0.466, 192.0, 0.0, 0.0, 0.0, 0.0, 0.0, 0.0, 0.0, 0.0, 0.0, 1.6546750962679005E9, 0.0, 2022-06-08 09:58:16.267
45.0, 22012.623788431145, 37069.451757604096, -8786.828373292492, -11504.42051940209, 4406.780529830519, 5466.230865267618, 17564.067848213657, 2489.783166621109, -0.036000000000000004, 0.914, 0.466, 192.0, 0.0, 0.0, 0.0, 0.0, 0.0, 0.0, 0.0, 0.0, 0.0, 1.6546750962679048E9, 0.0, 2022-06-08 09:58:16.267
46.0, 22022.100928080195, 37069.652923304195, -8792.639826850871, -11504.152298468625, 4408.63572462031, 5461.022908809532, 17562.23500516832, 2465.1962477202715, -0.036000000000000004, 0.914, 0.466, 192.0, 0.0, 0.0, 0.0, 0.0, 0.0, 0.0, 0.0, 0.0, 0.0, 1.654675096267909E9, 0.0, 2022-06-08 09:58:16.267
47.0, 22030.79575667331, 37080.694685065115, -8790.158783216331, -11506.387472914157, 4417.643477635798, 5466.767307134546, 17564.805455780683, 2453.752154559154, -0.038, 0.912, 0.468, 192.0, 254.0, 208.0, 28.0, 128.0, 14.0, 160.0, 0.0, 0.0, 0.0, 1.6546750962679136E9, 0.0, 2022-06-08 09:58:16.267
48.0, 22029.186431072525, 37087.199042701606, -8784.302626169041, -11509.717882837998, 4422.82908234943, 5468.0413565684985, 17556.647069054492, 2469.8007070780645, -0.038, 0.912, 0.468, 192.0, 0.0, 0.0, 0.0, 0.0, 0.0, 0.0, 0.0, 0.0, 0.0, 1.6546750962679179E9, 0.0, 2022-06-08 09:58:16.267
49.0, 22026.660683949078, 37083.46630137757, -8783.117983712911, -11500.173687955581, 4422.538509671511, 5465.694423400691, 17553.964859719857, 2483.9270095738184, -0.038, 0.912, 0.468, 192.0, 0.0, 0.0, 0.0, 0.0, 0.0, 0.0, 0.0, 0.0, 0.0, 1.6546750962679222E9, 0.0, 2022-06-08 09:58:16.267
50.0, 22004.040718560307, 37068.892963992716, -8794.875001296401, -11507.32624618128, 4409.216869976148, 5457.111353529854, 17547.169929405445, 2482.2282769952153, -0.038, 0.912, 0.468, 192.0, 0.0, 0.0, 0.0, 0.0, 0.0, 0.0, 0.0, 0.0, 0.0, 1.6546750962679267E9, 0.0, 2022-06-08 09:58:16.267
51.0, 22005.046547060796, 37075.1514524402, -8796.394919919363, -11515.730502096476, 4415.788282846008, 5457.9383680747, 17559.70925804487, 2498.321533003036, -0.038, 0.912, 0.468, 192.0, 0.0, 0.0, 0.0, 0.0, 0.0, 0.0, 0.0, 0.0, 0.0, 1.654675096267931E9, 0.0, 2022-06-08 09:58:16.267
52.0, 22016.870619877653, 37079.442987375616, -8794.316207685019, -11516.311647452314, 4421.644439893298, 5465.850885611879, 17575.95897626388, 2496.6004486799775, -0.038, 0.912, 0.468, 192.0, 0.0, 0.0, 0.0, 0.0, 0.0, 0.0, 0.0, 0.0, 0.0, 1.654675096267936E9, 0.0, 2022-06-08 09:58:16.267
53.0, 22033.343855541214, 37085.7014758231, -8786.426041892295, -11498.810231543808, 4425.064256794961, 5468.935426346711, 17580.96576702187, 2486.6986258862767, -0.038, 0.912, 0.468, 192.0, 0.0, 0.0, 0.0, 0.0, 0.0, 0.0, 0.0, 0.0, 0.0, 1.6546750962679403E9, 0.0, 2022-06-08 09:58:16.267
54.0, 22031.242791562414, 37078.951248997604, -8787.677739581794, -11509.069682248793, 4421.711495126664, 5455.79260060699, 17568.20292093789, 2466.135020987394, -0.038, 0.912, 0.468, 192.0, 0.0, 0.0, 0.0, 0.0, 0.0, 0.0, 0.0, 0.0, 0.0, 1.6546750962679446E9, 0.0, 2022-06-08 09:58:16.267
55.0, 22027.487698493922, 37070.45758610458, -8790.851687294447, -11527.465167935512, 4417.665829380254, 5451.456362182661, 17555.685944042914, 2465.8668000539305, -0.038, 0.912, 0.468, 192.0, 0.0, 0.0, 0.0, 0.0, 0.0, 0.0, 0.0, 0.0, 0.0, 1.6546750962679489E9, 0.0, 2022-06-08 09:58:16.267
56.0, 22027.532401982833, 37070.88226924923, -8795.612608863426, -11528.560403413821, 4411.675561866232, 5441.778056833513, 17548.108702672565, 2447.7395353006764, -0.038, 0.912, 0.468, 192.0, 0.0, 0.0, 0.0, 0.0, 0.0, 0.0, 0.0, 0.0, 0.0, 1.6546750962679532E9, 0.0, 2022-06-08 09:58:16.267
57.0, 22038.21653583247, 37079.48769086453, -8792.617475106415, -11508.935571782062, 4421.800902104485, 5445.108466757353, 17556.42355160994, 2461.4411546517795, -0.042, 0.904, 0.466, 192.0, 254.0, 176.0, 28.0, 64.0, 14.0, 144.0, 0.0, 0.0, 0.0, 1.6546750962679577E9, 0.0, 2022-06-08 09:58:16.267
58.0, 22035.534326497833, 37075.53143209594, -8804.061568267532, -11529.85680459223, 4417.576422402432, 5446.0248882800215, 17545.42649333793, 2465.6432826093774, -0.042, 0.904, 0.466, 192.0, 0.0, 0.0, 0.0, 0.0, 0.0, 0.0, 0.0, 0.0, 0.0, 1.654675096267962E9, 0.0, 2022-06-08 09:58:16.267
59.0, 22031.8015851738, 37078.86184201978, -8797.579562375495, -11519.642057376153, 4413.418997933745, 5456.083173284909, 17527.545097773684, 2461.4188029073243, -0.042, 0.904, 0.466, 192.0, 0.0, 0.0, 0.0, 0.0, 0.0, 0.0, 0.0, 0.0, 0.0, 1.6546750962679665E9, 0.0, 2022-06-08 09:58:16.267
60.0, 22020.290436779313, 37075.86670826277, -8796.238457708176, -11503.258228690414, 4414.089550267405, 5451.992804049588, 17534.89882169948, 2457.2166749497264, -0.042, 0.904, 0.466, 192.0, 0.0, 0.0, 0.0, 0.0, 0.0, 0.0, 0.0, 0.0, 0.0, 1.6546750962679708E9, 0.0, 2022-06-08 09:58:16.267
61.0, 22023.017349602862, 37076.58196408534, -8801.804042077547, -11502.498269378933, 4415.944745057195, 5450.919920315733, 17547.99694395029, 2469.4430791667796, -0.042, 0.904, 0.466, 192.0, 0.0, 0.0, 0.0, 0.0, 0.0, 0.0, 0.0, 0.0, 0.0, 1.654675096267975E9, 0.0, 2022-06-08 09:58:16.267
62.0, 22032.82976541874, 37082.43812113263, -8803.972161289712, -11501.671254834087, 4418.001105547083, 5462.788696621501, 17547.885185228013, 2485.983370063707, -0.042, 0.904, 0.466, 192.0, 0.0, 0.0, 0.0, 0.0, 0.0, 0.0, 0.0, 0.0, 0.0, 1.6546750962679794E9, 0.0, 2022-06-08 09:58:16.267
63.0, 22037.36716954317, 37080.53822285393, -8801.871097310914, -11503.638208346154, 4416.995277046594, 5461.179371020719, 17533.46831005434, 2466.5597041320448, -0.042, 0.904, 0.466, 192.0, 0.0, 0.0, 0.0, 0.0, 0.0, 0.0, 0.0, 0.0, 0.0, 1.654675096267984E9, 0.0, 2022-06-08 09:58:16.267
64.0, 22027.621808960655, 37075.77730128495, -8809.805966592547, -11524.067702778304, 4411.273230466036, 5451.478713927116, 17528.66268499645, 2444.4091253768356, -0.042, 0.904, 0.466, 192.0, 0.0, 0.0, 0.0, 0.0, 0.0, 0.0, 0.0, 0.0, 0.0, 1.6546750962679899E9, 0.0, 2022-06-08 09:58:16.267
65.0, 22009.695709907497, 37067.19423141411, -8817.942001574278, -11531.242612748458, 4407.1828612307145, 5446.874254569323, 17527.388635562496, 2495.326399246025, -0.042, 0.904, 0.466, 192.0, 0.0, 0.0, 0.0, 0.0, 0.0, 0.0, 0.0, 0.0, 0.0, 1.654675096267994E9, 0.0, 2022-06-08 09:58:16.267
66.0, 22005.135954038615, 37059.594638299306, -8827.106216800954, -11539.222185519004, 4404.031265262516, 5439.498178899072, 17534.85411821057, 2505.8987743733855, -0.042, 0.904, 0.466, 192.0, 0.0, 0.0, 0.0, 0.0, 0.0, 0.0, 0.0, 0.0, 0.0, 1.6546750962679985E9, 0.0, 2022-06-08 09:58:16.267
67.0, 22022.905590880586, 37073.81034777288, -8815.572716662016, -11518.65858062012, 4416.1012072683825, 5442.560367889449, 17564.47017961385, 2470.7394803451875, -0.038, 0.904, 0.464, 192.0, 254.0, 208.0, 28.0, 64.0, 14.0, 128.0, 0.0, 0.0, 0.0, 1.6546750962680027E9, 0.0, 2022-06-08 09:58:16.268
68.0, 22030.59459097321, 37078.14658619721, -8805.045045023566, -11505.247533946937, 4429.35579173038, 5443.119161500831, 17588.34184269212, 2461.3070441850477, -0.038, 0.904, 0.464, 192.0, 0.0, 0.0, 0.0, 0.0, 0.0, 0.0, 0.0, 0.0, 0.0, 1.6546750962680073E9, 0.0, 2022-06-08 09:58:16.268
69.0, 22016.73650941092, 37071.731635538534, -8812.26465848263, -11516.177536985582, 4416.190614246204, 5448.349469703373, 17564.626641825038, 2526.909414161374, -0.038, 0.904, 0.464, 192.0, 0.0, 0.0, 0.0, 0.0, 0.0, 0.0, 0.0, 0.0, 0.0, 1.6546750962680116E9, 0.0, 2022-06-08 09:58:16.268
70.0, 22007.572294184243, 37068.602391314795, -8815.907992828847, -11524.13475801167, 4415.855338079374, 5445.756667346557, 17570.214577938867, 2560.3699756109686, -0.038, 0.904, 0.464, 192.0, 0.0, 0.0, 0.0, 0.0, 0.0, 0.0, 0.0, 0.0, 0.0, 1.654675096268016E9, 0.0, 2022-06-08 09:58:16.268
71.0, 22005.158305783072, 37065.249629646496, -8820.89243184238, -11533.969525572005, 4415.229489234625, 5445.823722579923, 17566.370077892552, 2533.16790260886, -0.038, 0.904, 0.464, 192.0, 0.0, 0.0, 0.0, 0.0, 0.0, 0.0, 0.0, 0.0, 0.0, 1.6546750962680204E9, 0.0, 2022-06-08 09:58:16.268
72.0, 22022.704425180487, 37075.39732162921, -8815.729178873204, -11532.114330782215, 4420.482149181623, 5446.6730888692255, 17564.447827869397, 2513.006629110173, -0.038, 0.904, 0.464, 192.0, 0.0, 0.0, 0.0, 0.0, 0.0, 0.0, 0.0, 0.0, 0.0, 1.6546750962680247E9, 0.0, 2022-06-08 09:58:16.268
73.0, 22038.685922466033, 37083.93568801114, -8808.46486192523, -11529.14154876966, 4423.544338172, 5443.700306856669, 17564.42547612494, 2496.980428335718, -0.038, 0.904, 0.464, 192.0, 0.0, 0.0, 0.0, 0.0, 0.0, 0.0, 0.0, 0.0, 0.0, 1.6546750962680292E9, 0.0, 2022-06-08 09:58:16.268
74.0, 22030.41577701757, 37082.929859510645, -8817.092635284976, -11541.658525664632, 4418.068160780449, 5431.250385195063, 17555.37301962054, 2484.686968885299, -0.038, 0.904, 0.464, 192.0, 0.0, 0.0, 0.0, 0.0, 0.0, 0.0, 0.0, 0.0, 0.0, 1.6546750962680335E9, 0.0, 2022-06-08 09:58:16.268
75.0, 22028.337064783223, 37086.61789734577, -8818.679609141303, -11523.173633000093, 4413.642515378298, 5427.74116131558, 17535.09998739958, 2468.101974499461, -0.038, 0.904, 0.464, 192.0, 0.0, 0.0, 0.0, 0.0, 0.0, 0.0, 0.0, 0.0, 0.0, 1.6546750962680378E9, 0.0, 2022-06-08 09:58:16.268
76.0, 22019.731643167932, 37080.89585076521, -8823.619344665927, -11529.588583658766, 4406.892288552795, 5415.961791987633, 17525.17581286142, 2449.0582882235394, -0.038, 0.904, 0.464, 192.0, 0.0, 0.0, 0.0, 0.0, 0.0, 0.0, 0.0, 0.0, 0.0, 1.6546750962680423E9, 0.0, 2022-06-08 09:58:16.268
77.0, 22015.5965704437, 37076.53726059643, -8828.60378367946, -11540.317420997313, 4408.501614153578, 5413.2125274196305, 17537.42456882293, 2443.8950352543634, -0.03, 0.9, 0.454, 192.0, 255.0, 16.0, 28.0, 32.0, 14.0, 48.0, 0.0, 0.0, 0.0, 1.6546750962680469E9, 0.0, 2022-06-08 09:58:16.268
78.0, 22027.666512449567, 37088.71896132457, -8812.532879416094, -11541.390304731167, 4421.555032915478, 5424.276640925007, 17546.00763869377, 2468.750175088665, -0.03, 0.9, 0.454, 192.0, 0.0, 0.0, 0.0, 0.0, 0.0, 0.0, 0.0, 0.0, 0.0, 1.6546750962680511E9, 0.0, 2022-06-08 09:58:16.268
79.0, 22030.50518399539, 37089.34481016932, -8803.592181633972, -11518.166842242104, 4419.58807940341, 5437.531225387004, 17537.0892926561, 2488.0844340425056, -0.03, 0.9, 0.454, 192.0, 0.0, 0.0, 0.0, 0.0, 0.0, 0.0, 0.0, 0.0, 0.0, 1.6546750962680557E9, 0.0, 2022-06-08 09:58:16.268
80.0, 22017.563523955767, 37079.89002226472, -8816.064455040032, -11526.61580164621, 4407.227564719626, 5432.971469518122, 17516.36922554603, 2447.784238789587, -0.03, 0.9, 0.454, 192.0, 0.0, 0.0, 0.0, 0.0, 0.0, 0.0, 0.0, 0.0, 0.0, 1.65467509626806E9, 0.0, 2022-06-08 09:58:16.268
81.0, 22020.55865771278, 37083.13102521074, -8821.764149876137, -11526.213470246013, 4408.68042810922, 5423.628440335803, 17514.290513311687, 2453.5286371146008, -0.03, 0.9, 0.454, 192.0, 0.0, 0.0, 0.0, 0.0, 0.0, 0.0, 0.0, 0.0, 0.0, 1.6546750962680645E9, 0.0, 2022-06-08 09:58:16.268
82.0, 22035.13199509764, 37088.249574691006, -8813.449300938762, -11507.773281070386, 4414.625992134332, 5425.573042103415, 17514.424623778417, 2491.079567799517, -0.03, 0.9, 0.454, 192.0, 0.0, 0.0, 0.0, 0.0, 0.0, 0.0, 0.0, 0.0, 0.0, 1.6546750962680688E9, 0.0, 2022-06-08 09:58:16.268
83.0, 22036.607210231687, 37089.61303110278, -8808.777786347602, -11511.617781116698, 4422.3820474603235, 5423.114350213332, 17544.28655437071, 2477.9367420597964, -0.03, 0.9, 0.454, 192.0, 0.0, 0.0, 0.0, 0.0, 0.0, 0.0, 0.0, 0.0, 0.0, 1.654675096268073E9, 0.0, 2022-06-08 09:58:16.268
84.0, 22034.21557357497, 37088.11546422428, -8806.766129346624, -11517.205717230525, 4426.11478878436, 5424.12017871382, 17569.655784327482, 2493.6723701563324, -0.03, 0.9, 0.454, 192.0, 0.0, 0.0, 0.0, 0.0, 0.0, 0.0, 0.0, 0.0, 0.0, 1.6546750962680776E9, 0.0, 2022-06-08 09:58:16.268
85.0, 22032.22626831845, 37089.38951365823, -8815.21508875073, -11524.961772556517, 4420.929184070728, 5430.937460772689, 17560.75979003427, 2501.9872190937067, -0.03, 0.9, 0.454, 192.0, 0.0, 0.0, 0.0, 0.0, 0.0, 0.0, 0.0, 0.0, 0.0, 1.654675096268082E9, 0.0, 2022-06-08 09:58:16.268
86.0, 22020.11162282367, 37081.20877518759, -8827.55325169006, -11532.986048815972, 4412.770797344541, 5425.573042103415, 17544.018333437245, 2498.1203673029386, -0.03, 0.9, 0.454, 192.0, 0.0, 0.0, 0.0, 0.0, 0.0, 0.0, 0.0, 0.0, 0.0, 1.654675096268088E9, 0.0, 2022-06-08 09:58:16.268
87.0, 22021.832707146732, 37082.505176365994, -8821.853556853957, -11529.90150808114, 4414.670695623243, 5422.242632179575, 17528.28270534071, 2482.071814784028, -0.028, 0.908, 0.446, 192.0, 255.0, 32.0, 28.0, 96.0, 13.0, 240.0, 0.0, 0.0, 0.0, 1.6546750962680924E9, 0.0, 2022-06-08 09:58:16.268
88.0, 22026.057186848782, 37090.44004564763, -8813.337542216486, -11524.313571967314, 4427.277079496036, 5429.4175421497275, 17535.055283910668, 2462.558741874545, -0.028, 0.908, 0.446, 192.0, 0.0, 0.0, 0.0, 0.0, 0.0, 0.0, 0.0, 0.0, 0.0, 1.6546750962680967E9, 0.0, 2022-06-08 09:58:16.268
89.0, 22022.235038546925, 37087.08728397933, -8814.991571306178, -11535.109464539226, 4429.78047487503, 5435.653678852758, 17546.097045671588, 2476.7744513481202, -0.028, 0.908, 0.446, 192.0, 0.0, 0.0, 0.0, 0.0, 0.0, 0.0, 0.0, 0.0, 0.0, 1.6546750962681012E9, 0.0, 2022-06-08 09:58:16.268
90.0, 22016.17771579954, 37076.69372280761, -8827.754417390159, -11539.624516919199, 4419.118692769849, 5423.114350213332, 17536.239926366798, 2505.719960417743, -0.028, 0.908, 0.446, 192.0, 0.0, 0.0, 0.0, 0.0, 0.0, 0.0, 0.0, 0.0, 0.0, 1.6546750962681055E9, 0.0, 2022-06-08 09:58:16.268
91.0, 22010.567427941256, 37071.44106286062, -8830.615440680438, -11518.770339342396, 4412.971963044639, 5412.609030319337, 17539.32446710163, 2510.6373441979104, -0.028, 0.908, 0.446, 192.0, 0.0, 0.0, 0.0, 0.0, 0.0, 0.0, 0.0, 0.0, 0.0, 1.6546750962681098E9, 0.0, 2022-06-08 09:58:16.268
92.0, 22020.6480646906, 37088.38368515774, -8817.36085621844, -11512.824775317285, 4426.271250995547, 5422.913184513233, 17559.441037111406, 2510.0561988420727, -0.028, 0.908, 0.446, 192.0, 0.0, 0.0, 0.0, 0.0, 0.0, 0.0, 0.0, 0.0, 0.0, 1.654675096268114E9, 0.0, 2022-06-08 09:58:16.268
93.0, 22031.01927411786, 37099.00076377401, -8808.867193325425, -11514.009417773417, 4430.428675464234, 5430.713943328135, 17549.002772450778, 2496.421634724335, -0.028, 0.908, 0.446, 192.0, 0.0, 0.0, 0.0, 0.0, 0.0, 0.0, 0.0, 0.0, 0.0, 1.6546750962681184E9, 0.0, 2022-06-08 09:58:16.268
94.0, 22026.146593826605, 37095.1562637277, -8811.012960793134, -11522.27956322188, 4428.528777185533, 5424.50015836956, 17536.70931300036, 2441.592805575467, -0.028, 0.908, 0.446, 192.0, 0.0, 0.0, 0.0, 0.0, 0.0, 0.0, 0.0, 0.0, 0.0, 1.6546750962681248E9, 0.0, 2022-06-08 09:58:16.268
95.0, 22016.110660566173, 37087.8025398019, -8828.044990068078, -11535.869423850707, 4415.58711714591, 5412.765492530524, 17527.52274602923, 2425.2536803786375, -0.028, 0.908, 0.446, 192.0, 0.0, 0.0, 0.0, 0.0, 0.0, 0.0, 0.0, 0.0, 0.0, 1.6546750962681293E9, 0.0, 2022-06-08 09:58:16.268
96.0, 22012.579084942234, 37085.43325488964, -8830.883661613901, -11529.074493536293, 4404.612410618354, 5412.609030319337, 17490.061222322132, 2457.887227283386, -0.028, 0.908, 0.446, 192.0, 0.0, 0.0, 0.0, 0.0, 0.0, 0.0, 0.0, 0.0, 0.0, 1.6546750962681339E9, 0.0, 2022-06-08 09:58:16.268
97.0, 22019.195201301005, 37096.11738873928, -8825.27337375562, -11516.289295707858, 4414.313067711958, 5416.945268743667, 17477.901873338447, 2473.466393168735, -0.036000000000000004, 0.92, 0.446, 192.0, 254.0, 224.0, 28.0, 192.0, 13.0, 240.0, 0.0, 0.0, 0.0, 1.6546750962681382E9, 0.0, 2022-06-08 09:58:16.268
98.0, 22030.862811906674, 37101.81708357538, -8814.902164328358, -11513.204754973025, 4431.345096986902, 5434.178463718708, 17524.013522149744, 2511.017323853651, -0.036000000000000004, 0.92, 0.446, 192.0, 0.0, 0.0, 0.0, 0.0, 0.0, 0.0, 0.0, 0.0, 0.0, 1.6546750962681425E9, 0.0, 2022-06-08 09:58:16.268
99.0, 22033.477966007944, 37106.37683944426, -8800.351178687952, -11510.679007849576, 4440.9339953582285, 5434.223167207619, 17571.443923883908, 2519.756855935676, -0.036000000000000004, 0.92, 0.446, 192.0, 0.0, 0.0, 0.0, 0.0, 0.0, 0.0, 0.0, 0.0, 0.0, 1.6546750962681468E9, 0.0, 2022-06-08 09:58:16.268
100.0, 22019.01638734536, 37095.87151955027, -8809.850670081458, -11518.256249219925, 4426.248899251092, 5425.796559547968, 17586.553703135694, 2521.075608858539, -0.036000000000000004, 0.92, 0.446, 192.0, 0.0, 0.0, 0.0, 0.0, 0.0, 0.0, 0.0, 0.0, 0.0, 1.6546750962681513E9, 0.0, 2022-06-08 09:58:16.268
101.0, 22012.86965762015, 37087.199042701606, -8825.60864992245, -11527.6216301467, 4418.82812009193, 5420.320382156418, 17584.00560426779, 2514.6383064554107, -0.036000000000000004, 0.92, 0.446, 192.0, 0.0, 0.0, 0.0, 0.0, 0.0, 0.0, 0.0, 0.0, 0.0, 1.6546750962681558E9, 0.0, 2022-06-08 09:58:16.268
102.0, 22018.83757338972, 37095.40213291671, -8821.27241149812, -11520.80434808783, 4429.914585341762, 5420.49919611206, 17568.76171454927, 2503.887117372408, -0.036000000000000004, 0.92, 0.446, 192.0, 0.0, 0.0, 0.0, 0.0, 0.0, 0.0, 0.0, 0.0, 0.0, 1.65467509626816E9, 0.0, 2022-06-08 09:58:16.268
103.0, 22022.36914901366, 37103.87344406527, -8814.969219561723, -11517.049255019338, 4437.961213345672, 5427.003553748555, 17573.008545995777, 2505.6752569288324, -0.036000000000000004, 0.92, 0.446, 192.0, 0.0, 0.0, 0.0, 0.0, 0.0, 0.0, 0.0, 0.0, 0.0, 1.6546750962681644E9, 0.0, 2022-06-08 09:58:16.268
104.0, 22030.728701439944, 37108.07557202287, -8811.772920104613, -11517.652752119631, 4443.3926872483125, 5430.535129372493, 17567.57707209314, 2510.324419775536, -0.036000000000000004, 0.92, 0.446, 192.0, 0.0, 0.0, 0.0, 0.0, 0.0, 0.0, 0.0, 0.0, 0.0, 1.6546750962681687E9, 0.0, 2022-06-08 09:58:16.268
105.0, 22021.475079235446, 37101.77238008647, -8821.540632431583, -11520.826699832285, 4430.763951631064, 5420.812120534435, 17551.66263004096, 2485.49163168569, -0.036000000000000004, 0.92, 0.446, 192.0, 0.0, 0.0, 0.0, 0.0, 0.0, 0.0, 0.0, 0.0, 0.0, 1.654675096268173E9, 0.0, 2022-06-08 09:58:16.268
106.0, 22009.15926804057, 37095.60329861681, -8832.068304070033, -11532.315496482313, 4422.82908234943, 5411.446739607661, 17547.43815033891, 2472.684082112799, -0.036000000000000004, 0.92, 0.446, 192.0, 254.0, 224.0, 28.0, 192.0, 13.0, 240.0, 0.0, 0.0, 0.0, 1.6546750962681775E9, 0.0, 2022-06-08 09:58:16.268
107.0, 22013.584913442723, 37094.53041488295, -8829.810777880046, -11537.679915151586, 4424.4384079502115, 5406.1717279162085, 17543.772464248235, 2481.1553932613606, -0.036000000000000004, 0.92, 0.446, 192.0, 0.0, 0.0, 0.0, 0.0, 0.0, 0.0, 0.0, 0.0, 0.0, 1.6546750962681835E9, 0.0, 2022-06-08 09:58:16.268
108.0, 22019.30696002328, 37101.01242077499, -8815.058626539543, -11519.172670742593, 4436.68716391172, 5418.353428644351, 17545.605307293572, 2485.3128177300478, -0.036000000000000004, 0.92, 0.446, 192.0, 0.0, 0.0, 0.0, 0.0, 0.0, 0.0, 0.0, 0.0, 0.0, 1.6546750962681875E9, 0.0, 2022-06-08 09:58:16.268
109.0, 22010.522724452345, 37093.077551493356, -8823.217013265732, -11524.112406267215, 4429.467550452656, 5412.564326830427, 17542.967801447845, 2450.332337657492, -0.036000000000000004, 0.92, 0.446, 192.0, 0.0, 0.0, 0.0, 0.0, 0.0, 0.0, 0.0, 0.0, 0.0, 1.654675096268192E9, 0.0, 2022-06-08 09:58:16.268
110.0, 22007.37112848415, 37088.36133341328, -8830.615440680438, -11538.99866807445, 4421.197405004193, 5399.756777257536, 17524.79583320568, 2422.8396919774646, -0.036000000000000004, 0.92, 0.446, 192.0, 0.0, 0.0, 0.0, 0.0, 0.0, 0.0, 0.0, 0.0, 0.0, 1.6546750962681963E9, 0.0, 2022-06-08 09:58:16.268
111.0, 21997.089326034704, 37084.44977813361, -8836.583356450004, -11550.28629902438, 4418.001105547083, 5395.152317899742, 17497.12437357001, 2452.2769394251036, -0.036000000000000004, 0.92, 0.446, 192.0, 0.0, 0.0, 0.0, 0.0, 0.0, 0.0, 0.0, 0.0, 0.0, 1.6546750962682009E9, 0.0, 2022-06-08 09:58:16.268
112.0, 22004.755974382875, 37100.45362716361, -8824.55811793305, -11519.262077720414, 4426.584175417921, 5410.575021573904, 17517.79973719117, 2496.980428335718, -0.036000000000000004, 0.92, 0.446, 192.0, 0.0, 0.0, 0.0, 0.0, 0.0, 0.0, 0.0, 0.0, 0.0, 1.654675096268205E9, 0.0, 2022-06-08 09:58:16.268
113.0, 22014.143707054103, 37109.72960111256, -8811.705864871248, -11514.903487551628, 4438.922338357251, 5421.594431590371, 17561.13976969001, 2514.3700855219467, -0.036000000000000004, 0.92, 0.446, 192.0, 0.0, 0.0, 0.0, 0.0, 0.0, 0.0, 0.0, 0.0, 0.0, 1.6546750962682092E9, 0.0, 2022-06-08 09:58:16.268
114.0, 22007.013500572863, 37102.800560331416, -8817.98670506319, -11529.47682493649, 4433.267347010058, 5414.911259998234, 17566.303022659187, 2469.5771896335114, -0.036000000000000004, 0.92, 0.446, 192.0, 0.0, 0.0, 0.0, 0.0, 0.0, 0.0, 0.0, 0.0, 0.0, 1.6546750962682135E9, 0.0, 2022-06-08 09:58:16.268
115.0, 22004.130125538126, 37101.12417949727, -8823.440530710284, -11531.37672321519, 4426.919451584751, 5414.508928598038, 17547.66166778346, 2423.0632094220173, -0.036000000000000004, 0.92, 0.446, 192.0, 0.0, 0.0, 0.0, 0.0, 0.0, 0.0, 0.0, 0.0, 0.0, 1.654675096268218E9, 0.0, 2022-06-08 09:58:16.268
116.0, 21998.11750627965, 37095.022153260965, -8833.968202348733, -11543.021982076405, 4420.30333522598, 5402.394283103262, 17537.71514150085, 2418.548157042045, -0.034, 0.922, 0.448, 192.0, 254.0, 240.0, 28.0, 208.0, 14.0, 0.0, 0.0, 0.0, 0.0, 1.6546750962682223E9, 0.0, 2022-06-08 09:58:16.268
117.0, 22002.07376504824, 37097.92788004016, -8835.197548293776, -11535.08711279477, 4428.260556252069, 5400.0697016799095, 17548.42162709494, 2501.1825562933154, -0.034, 0.922, 0.448, 192.0, 0.0, 0.0, 0.0, 0.0, 0.0, 0.0, 0.0, 0.0, 0.0, 1.6546750962682266E9, 0.0, 2022-06-08 09:58:16.268
118.0, 22013.2943407648, 37112.523569169476, -8822.881737098902, -11510.857821805219, 4438.363544745868, 5413.123120441809, 17552.51199633026, 2522.8637484149635, -0.034, 0.922, 0.448, 192.0, 0.0, 0.0, 0.0, 0.0, 0.0, 0.0, 0.0, 0.0, 0.0, 1.654675096268231E9, 0.0, 2022-06-08 09:58:16.268
119.0, 22013.584913442723, 37115.54105467094, -8813.538707916583, -11510.723711338487, 4441.157512802782, 5416.2076611766415, 17578.819999554158, 2493.717073645243, -0.034, 0.922, 0.448, 192.0, 0.0, 0.0, 0.0, 0.0, 0.0, 0.0, 0.0, 0.0, 0.0, 1.6546750962682352E9, 0.0, 2022-06-08 09:58:16.268
120.0, 21996.86580859015, 37104.253423721006, -8822.389998720884, -11526.951077813039, 4430.965117331161, 5407.73635002808, 17566.370077892552, 2469.1972099777713, -0.034, 0.922, 0.448, 192.0, 0.0, 0.0, 0.0, 0.0, 0.0, 0.0, 0.0, 0.0, 0.0, 1.6546750962682397E9, 0.0, 2022-06-08 09:58:16.268
121.0, 21999.10098303568, 37101.81708357538, -8831.643620925382, -11538.104598296237, 4426.651230651287, 5397.096919667354, 17549.159234661965, 2485.1563555188604, -0.034, 0.922, 0.448, 192.0, 0.0, 0.0, 0.0, 0.0, 0.0, 0.0, 0.0, 0.0, 0.0, 1.6546750967486525E9, 0.0, 2022-06-08 09:58:16.748
122.0, 22005.582988927723, 37109.4613801791, -8826.614478422938, -11540.4738832085, 4434.563748188466, 5414.844204764868, 17556.0435719542, 2543.9861469252287, -0.034, 0.922, 0.448, 192.0, 0.0, 0.0, 0.0, 0.0, 0.0, 0.0, 0.0, 0.0, 0.0, 1.654675096748754E9, 0.0, 2022-06-08 09:58:16.748
123.0, 22010.433317474522, 37116.25631049351, -8820.467748697729, -11523.061874277815, 4439.503483713089, 5427.584699104393, 17548.37692360603, 2553.8209144855637, -0.034, 0.922, 0.448, 192.0, 0.0, 0.0, 0.0, 0.0, 0.0, 0.0, 0.0, 0.0, 0.0, 1.6546750967487648E9, 0.0, 2022-06-08 09:58:16.748
124.0, 22003.906608093574, 37110.57896740186, -8832.291821514586, -11528.470996436, 4431.59096617591, 5418.375780388807, 17544.28655437071, 2527.289393817114, -0.034, 0.922, 0.448, 192.0, 0.0, 0.0, 0.0, 0.0, 0.0, 0.0, 0.0, 0.0, 0.0, 1.654675096748773E9, 0.0, 2022-06-08 09:58:16.748
125.0, 21998.7433551244, 37110.06487727939, -8824.289896999586, -11521.743121354953, 4435.681335411231, 5419.806292033946, 17557.65289755498, 2504.043579583595, -0.034, 0.922, 0.448, 192.0, 0.0, 0.0, 0.0, 0.0, 0.0, 0.0, 0.0, 0.0, 0.0, 1.6546750967487879E9, 0.0, 2022-06-08 09:58:16.748
126.0, 21990.69672712049, 37102.48763590904, -8831.46480696974, -11528.04631329135, 4436.776570889541, 5410.530318084993, 17551.841443996604, 2489.82787011002, -0.038, 0.918, 0.452, 192.0, 254.0, 208.0, 28.0, 176.0, 14.0, 32.0, 0.0, 0.0, 0.0, 1.6546750967487977E9, 0.0, 2022-06-08 09:58:16.748
127.0, 21996.105849278672, 37109.19315924563, -8829.140225546387, -11527.465167935512, 4441.313975013969, 5410.776187274002, 17554.9930399648, 2480.5742479055225, -0.038, 0.918, 0.452, 192.0, 0.0, 0.0, 0.0, 0.0, 0.0, 0.0, 0.0, 0.0, 0.0, 1.6546750967488096E9, 0.0, 2022-06-08 09:58:16.748
128.0, 21999.905645836076, 37114.37876395926, -8827.396789478873, -11526.168766757104, 4447.483056483634, 5413.346637886362, 17570.952185505892, 2491.392492221891, -0.038, 0.918, 0.452, 192.0, 0.0, 0.0, 0.0, 0.0, 0.0, 0.0, 0.0, 0.0, 0.0, 1.6546750967488658E9, 0.0, 2022-06-08 09:58:16.748
129.0, 22005.582988927723, 37116.50217968252, -8830.928365102813, -11528.180423758082, 4441.246919780603, 5405.9929139605665, 17566.9959267373, 2504.200041794782, -0.038, 0.918, 0.452, 192.0, 0.0, 0.0, 0.0, 0.0, 0.0, 0.0, 0.0, 0.0, 0.0, 1.654675096748871E9, 0.0, 2022-06-08 09:58:16.748
130.0, 22002.78902087081, 37110.623670890775, -8839.869062884934, -11542.820816376307, 4434.45198946619, 5400.852012735845, 17551.439112596407, 2497.427463224824, -0.038, 0.918, 0.452, 192.0, 0.0, 0.0, 0.0, 0.0, 0.0, 0.0, 0.0, 0.0, 0.0, 1.6546750967488756E9, 0.0, 2022-06-08 09:58:16.748
131.0, 21996.843456845698, 37099.89483355222, -8850.486141501206, -11562.780924174896, 4427.098265540393, 5393.297123109952, 17537.0892926561, 2480.2389717386927, -0.038, 0.918, 0.452, 192.0, 0.0, 0.0, 0.0, 0.0, 0.0, 0.0, 0.0, 0.0, 0.0, 1.65467509674888E9, 0.0, 2022-06-08 09:58:16.748
132.0, 22001.15734352557, 37105.57217664387, -8845.054667598566, -11537.277583751391, 4432.820312120952, 5408.8762889953005, 17547.102874172077, 2493.0912248004943, -0.038, 0.918, 0.452, 192.0, 0.0, 0.0, 0.0, 0.0, 0.0, 0.0, 0.0, 0.0, 0.0, 1.6546750967488847E9, 0.0, 2022-06-08 09:58:16.748
133.0, 22006.16413428356, 37116.837455849345, -8835.689286671792, -11520.871403321196, 4444.577329704443, 5416.565289087926, 17556.22238590984, 2506.479919729223, -0.038, 0.918, 0.452, 192.0, 0.0, 0.0, 0.0, 0.0, 0.0, 0.0, 0.0, 0.0, 0.0, 1.654675096748889E9, 0.0, 2022-06-08 09:58:16.748
134.0, 22004.800677871786, 37118.71500238359, -8834.616402937938, -11516.08813000776, 4445.918434371762, 5412.8772512528, 17558.837540011114, 2491.9736375777293, -0.038, 0.918, 0.452, 192.0, 0.0, 0.0, 0.0, 0.0, 0.0, 0.0, 0.0, 0.0, 0.0, 1.6546750967488935E9, 0.0, 2022-06-08 09:58:16.748
135.0, 21995.25648298937, 37105.19219698813, -8837.03039133911, -11531.846109848751, 4434.273175510547, 5400.1814604021865, 17547.706371272372, 2464.7045093422544, -0.038, 0.918, 0.452, 192.0, 0.0, 0.0, 0.0, 0.0, 0.0, 0.0, 0.0, 0.0, 0.0, 1.6546750967488985E9, 0.0, 2022-06-08 09:58:16.748
136.0, 21979.83377931521, 37092.56346137088, -8847.60276646647, -11549.034601334883, 4423.767855616553, 5401.254344136041, 17529.33323733011, 2476.595637392478, -0.038, 0.916, 0.45, 192.0, 254.0, 208.0, 28.0, 160.0, 14.0, 16.0, 0.0, 0.0, 0.0, 1.6546750967489033E9, 0.0, 2022-06-08 09:58:16.748
137.0, 21989.042698030797, 37092.47405439306, -8846.172254821331, -11542.351429742746, 4419.901003825785, 5398.907410968234, 17495.78326890269, 2499.237954525704, -0.038, 0.916, 0.45, 192.0, 0.0, 0.0, 0.0, 0.0, 0.0, 0.0, 0.0, 0.0, 0.0, 1.6546750967489076E9, 0.0, 2022-06-08 09:58:16.748
138.0, 22016.22241928845, 37109.86371157929, -8832.314173259041, -11530.527356925888, 4433.40145747679, 5404.607105804337, 17505.0815945961, 2479.456660682757, -0.038, 0.916, 0.45, 192.0, 0.0, 0.0, 0.0, 0.0, 0.0, 0.0, 0.0, 0.0, 0.0, 1.654675096748912E9, 0.0, 2022-06-08 09:58:16.748
139.0, 22018.12231756715, 37118.62559540577, -8828.201452279265, -11522.458377177523, 4440.911643613773, 5403.802443003946, 17543.973629948334, 2468.39254717738, -0.038, 0.916, 0.45, 192.0, 0.0, 0.0, 0.0, 0.0, 0.0, 0.0, 0.0, 0.0, 0.0, 1.6546750967489164E9, 0.0, 2022-06-08 09:58:16.748
140.0, 21990.964948053952, 37103.560519642895, -8834.549347704571, -11530.817929603807, 4431.881538853829, 5394.682931266181, 17544.57712704863, 2485.1340037744053, -0.038, 0.916, 0.45, 192.0, 0.0, 0.0, 0.0, 0.0, 0.0, 0.0, 0.0, 0.0, 0.0, 1.6546750967489212E9, 0.0, 2022-06-08 09:58:16.748
141.0, 21976.749238580374, 37091.20000495911, -8845.166426320842, -11543.647830921154, 4424.594870161399, 5386.3904340732615, 17552.400237607984, 2485.648093896877, -0.038, 0.916, 0.45, 192.0, 0.0, 0.0, 0.0, 0.0, 0.0, 0.0, 0.0, 0.0, 0.0, 1.6546750967489257E9, 0.0, 2022-06-08 09:58:16.748
142.0, 21992.417811443545, 37102.644098120225, -8836.739818661192, -11530.125025525693, 4432.932070843229, 5391.039596919965, 17561.296231901197, 2480.417785694335, -0.038, 0.916, 0.45, 192.0, 0.0, 0.0, 0.0, 0.0, 0.0, 0.0, 0.0, 0.0, 0.0, 1.65467509674893E9, 0.0, 2022-06-08 09:58:16.748
143.0, 21996.4411254455, 37105.371010943774, -8833.476463970717, -11530.348542970247, 4437.134198800826, 5385.2728468504965, 17551.90849922997, 2439.0894101964727, -0.038, 0.916, 0.45, 192.0, 0.0, 0.0, 0.0, 0.0, 0.0, 0.0, 0.0, 0.0, 0.0, 1.654675096748935E9, 0.0, 2022-06-08 09:58:16.748
144.0, 21998.855113846676, 37105.10279001031, -8826.905051100857, -11543.737237898975, 4439.794056391008, 5377.963826413611, 17551.483816085318, 2421.5879942879674, -0.038, 0.916, 0.45, 192.0, 0.0, 0.0, 0.0, 0.0, 0.0, 0.0, 0.0, 0.0, 0.0, 1.6546750967489393E9, 0.0, 2022-06-08 09:58:16.748
145.0, 22000.866770847653, 37100.38657193024, -8833.94585060428, -11560.143418329171, 4427.947631829695, 5382.948265427144, 17544.15244390398, 2448.365384145425, -0.038, 0.916, 0.45, 192.0, 0.0, 0.0, 0.0, 0.0, 0.0, 0.0, 0.0, 0.0, 0.0, 1.654675096748947E9, 0.0, 2022-06-08 09:58:16.748
146.0, 21992.328404465727, 37099.62661261876, -8839.55613846256, -11553.035563592382, 4427.299431240491, 5389.54203004146, 17553.115493430556, 2506.3234575180363, -0.036000000000000004, 0.916, 0.454, 192.0, 254.0, 224.0, 28.0, 160.0, 14.0, 48.0, 0.0, 0.0, 0.0, 1.6546750967489524E9, 0.0, 2022-06-08 09:58:16.748
147.0, 21991.903721321076, 37103.64992662072, -8841.523091974628, -11529.074493536293, 4432.060352809472, 5391.777204486991, 17546.9911154498, 2553.1950656408153, -0.036000000000000004, 0.916, 0.454, 192.0, 0.0, 0.0, 0.0, 0.0, 0.0, 0.0, 0.0, 0.0, 0.0, 1.6546750967489588E9, 0.0, 2022-06-08 09:58:16.748
148.0, 22009.181619785028, 37117.17273201617, -8823.328771988008, -11510.924877038584, 4441.649251180798, 5405.2329546490855, 17548.935717217413, 2564.6615105463875, -0.036000000000000004, 0.916, 0.454, 192.0, 0.0, 0.0, 0.0, 0.0, 0.0, 0.0, 0.0, 0.0, 0.0, 1.6546750967489653E9, 0.0, 2022-06-08 09:58:16.748
149.0, 22010.41096573007, 37124.30293849742, -8821.093597542476, -11516.155185241127, 4443.683259926232, 5408.138681428276, 17548.108702672565, 2539.4040393118908, -0.036000000000000004, 0.916, 0.454, 192.0, 0.0, 0.0, 0.0, 0.0, 0.0, 0.0, 0.0, 0.0, 0.0, 1.6546750967489707E9, 0.0, 2022-06-08 09:58:16.748
150.0, 21992.998956799383, 37118.73735412805, -8838.639716939893, -11529.90150808114, 4433.110884798871, 5394.012378932522, 17533.691827498893, 2501.4731289712345, -0.036000000000000004, 0.916, 0.454, 192.0, 0.0, 0.0, 0.0, 0.0, 0.0, 0.0, 0.0, 0.0, 0.0, 1.654675096748979E9, 0.0, 2022-06-08 09:58:16.748
151.0, 21990.808485842765, 37117.39624946073, -8853.861254913958, -11538.775150629897, 4422.0914747824045, 5379.260227592019, 17519.587876747595, 2474.874553069419, -0.036000000000000004, 0.916, 0.454, 192.0, 0.0, 0.0, 0.0, 0.0, 0.0, 0.0, 0.0, 0.0, 0.0, 1.6546750967489848E9, 0.0, 2022-06-08 09:58:16.748
152.0, 22011.662663419567, 37132.371918245786, -8845.054667598566, -11536.159996528626, 4428.72994288563, 5383.931742183178, 17526.405158806465, 2483.0552915400617, -0.036000000000000004, 0.916, 0.454, 192.0, 0.0, 0.0, 0.0, 0.0, 0.0, 0.0, 0.0, 0.0, 0.0, 1.6546750967489924E9, 0.0, 2022-06-08 09:58:16.748
153.0, 22028.87350665015, 37147.61580796431, -8824.513414444138, -11527.398112702145, 4443.459742481678, 5395.1970213886525, 17543.839519481604, 2489.2467247541817, -0.036000000000000004, 0.916, 0.454, 192.0, 0.0, 0.0, 0.0, 0.0, 0.0, 0.0, 0.0, 0.0, 0.0, 1.6546750967489977E9, 0.0, 2022-06-08 09:58:16.748
154.0, 22028.78409967233, 37139.79269740495, -8823.395827221373, -11532.024923804394, 4453.40626876429, 5393.990027188066, 17551.416760851953, 2485.2234107522263, -0.036000000000000004, 0.916, 0.454, 192.0, 0.0, 0.0, 0.0, 0.0, 0.0, 0.0, 0.0, 0.0, 0.0, 1.6546750967490046E9, 0.0, 2022-06-08 09:58:16.749
155.0, 22006.410003472567, 37116.81510410489, -8829.251984268663, -11545.10069431075, 4440.911643613773, 5388.357387585329, 17538.206879878864, 2490.788995121598, -0.036000000000000004, 0.916, 0.454, 192.0, 0.0, 0.0, 0.0, 0.0, 0.0, 0.0, 0.0, 0.0, 0.0, 1.6546750967490106E9, 0.0, 2022-06-08 09:58:16.749
156.0, 21985.242901473393, 37098.330211440356, -8838.013868095144, -11550.755685657941, 4429.109922541371, 5378.075585135888, 17520.50429827026, 2475.858029825453, -0.044, 0.91, 0.446, 192.0, 254.0, 160.0, 28.0, 112.0, 13.0, 240.0, 0.0, 0.0, 0.0, 1.6546750967490187E9, 0.0, 2022-06-08 09:58:16.749
157.0, 21980.794904326787, 37072.8492227613, -8839.779655907114, -11553.259081036937, 4430.339268486413, 5371.0124338880105, 17519.02908313621, 2458.267206939126, -0.044, 0.91, 0.446, 192.0, 0.0, 0.0, 0.0, 0.0, 0.0, 0.0, 0.0, 0.0, 0.0, 1.6546750967490263E9, 0.0, 2022-06-08 09:58:16.749
158.0, 22005.31476799426, 37076.55961234088, -8826.83799586749, -11550.800389146852, 4443.683259926232, 5377.9414746691555, 17535.725836244328, 2488.687931142799, -0.044, 0.91, 0.446, 192.0, 0.0, 0.0, 0.0, 0.0, 0.0, 0.0, 0.0, 0.0, 0.0, 1.6546750967490325E9, 0.0, 2022-06-08 09:58:16.749
159.0, 22020.804526901786, 37100.0065922745, -8827.285030756597, -11572.839209179785, 4442.1633413032705, 5377.181515357675, 17542.766635747746, 2504.9600011062626, -0.044, 0.91, 0.446, 192.0, 0.0, 0.0, 0.0, 0.0, 0.0, 0.0, 0.0, 0.0, 0.0, 1.654675096749037E9, 0.0, 2022-06-08 09:58:16.749
160.0, 21991.009651542863, 37093.345772426816, -8835.242251782687, -11575.789639447885, 4436.798922633997, 5371.280654821474, 17541.917269458445, 2498.8132713810533, -0.044, 0.91, 0.446, 192.0, 0.0, 0.0, 0.0, 0.0, 0.0, 0.0, 0.0, 0.0, 0.0, 1.6546750967490432E9, 0.0, 2022-06-08 09:58:16.749
161.0, 21962.689991317988, 37062.790937756414, -8846.619289710437, -11577.018985392928, 4431.903890598284, 5350.873512133779, 17528.886202441, 2477.3779484484135, -0.044, 0.91, 0.446, 192.0, 0.0, 0.0, 0.0, 0.0, 0.0, 0.0, 0.0, 0.0, 0.0, 1.6546750967490475E9, 0.0, 2022-06-08 09:58:16.749
162.0, 21956.14093019258, 37054.4984405635, -8847.692173444293, -11582.361052317745, 4432.3062219984795, 5348.928910366168, 17524.728777972316, 2456.72493657171, -0.044, 0.91, 0.446, 192.0, 0.0, 0.0, 0.0, 0.0, 0.0, 0.0, 0.0, 0.0, 0.0, 1.654675096749054E9, 0.0, 2022-06-08 09:58:16.749
163.0, 21955.91741274803, 37066.70249303609, -8848.407429266863, -11583.165715118137, 4432.328573742935, 5341.0163928289885, 17531.501356542274, 2451.9640150027294, -0.044, 0.91, 0.446, 192.0, 0.0, 0.0, 0.0, 0.0, 0.0, 0.0, 0.0, 0.0, 0.0, 1.6546750967490609E9, 0.0, 2022-06-08 09:58:16.749
164.0, 21965.21573844144, 37037.62287349974, -8841.433684996806, -11577.845999937774, 4437.670640667754, 5352.304023778918, 17535.301153099677, 2468.884285555397, -0.044, 0.91, 0.446, 192.0, 0.0, 0.0, 0.0, 0.0, 0.0, 0.0, 0.0, 0.0, 0.0, 1.654675096749094E9, 0.0, 2022-06-08 09:58:16.749
165.0, 21961.952383750962, 37011.985422609505, -8843.51239723115, -11590.318273343835, 4431.434503964723, 5350.068849333388, 17528.550926274173, 2496.756910891165, -0.044, 0.91, 0.446, 192.0, 0.0, 0.0, 0.0, 0.0, 0.0, 0.0, 0.0, 0.0, 0.0, 1.6546750967491004E9, 0.0, 2022-06-08 09:58:16.749
166.0, 21961.885328517597, 37001.010716081946, -8859.918577661345, -11613.385273621712, 4419.744541614597, 5334.53438693695, 17508.41200451994, 2491.9959893221844, -0.048, 0.916, 0.454, 192.0, 254.0, 128.0, 28.0, 160.0, 14.0, 48.0, 0.0, 0.0, 0.0, 1.6546750967491064E9, 0.0, 2022-06-08 09:58:16.749
167.0, 21983.141837494593, 37037.0417281439, -8850.262624056653, -11609.5407735754, 4427.9029283407845, 5349.063020832899, 17524.16998436093, 2515.890004144908, -0.048, 0.916, 0.454, 192.0, 0.0, 0.0, 0.0, 0.0, 0.0, 0.0, 0.0, 0.0, 0.0, 1.6546750967491107E9, 0.0, 2022-06-08 09:58:16.749
168.0, 22004.82302961624, 37072.782167527934, -8836.002211094166, -11605.562163062354, 4440.129332557837, 5345.956128353611, 17539.86090896856, 2515.1523965778824, -0.048, 0.916, 0.454, 192.0, 0.0, 0.0, 0.0, 0.0, 0.0, 0.0, 0.0, 0.0, 0.0, 1.6546750967491157E9, 0.0, 2022-06-08 09:58:16.749
169.0, 22011.30503550828, 37051.01156842847, -8842.953603619768, -11604.10929967276, 4438.4082482347785, 5337.797741627424, 17529.17677511892, 2493.49355620069, -0.048, 0.916, 0.454, 192.0, 0.0, 0.0, 0.0, 0.0, 0.0, 0.0, 0.0, 0.0, 0.0, 1.6546750967491205E9, 0.0, 2022-06-08 09:58:16.749
170.0, 22008.332253495726, 37044.73072823653, -8848.921519389334, -11610.25602939797, 4433.513216199067, 5329.505244434506, 17517.956199402357, 2455.8532185379527, -0.048, 0.916, 0.454, 192.0, 0.0, 0.0, 0.0, 0.0, 0.0, 0.0, 0.0, 0.0, 0.0, 1.6546750967491248E9, 0.0, 2022-06-08 09:58:16.749
171.0, 22015.417756488056, 37017.12632383422, -8860.030336383621, -11625.656381327675, 4423.074951538438, 5321.592726897326, 17507.853210908557, 2404.9582964132187, -0.048, 0.916, 0.454, 192.0, 0.0, 0.0, 0.0, 0.0, 0.0, 0.0, 0.0, 0.0, 0.0, 1.654675096749132E9, 0.0, 2022-06-08 09:58:16.749
172.0, 22026.59362871571, 37006.06221032885, -8860.812647439558, -11618.928506246628, 4431.1886347757145, 5321.81624434188, 17511.51889699923, 2422.1244361548947, -0.048, 0.916, 0.454, 192.0, 0.0, 0.0, 0.0, 0.0, 0.0, 0.0, 0.0, 0.0, 0.0, 1.6546750967491367E9, 0.0, 2022-06-08 09:58:16.749
173.0, 22038.954143399496, 37018.333318034805, -8852.9895368802, -11610.993636964993, 4440.799884891497, 5327.62769790026, 17516.61509473504, 2508.40216975238, -0.048, 0.916, 0.454, 192.0, 0.0, 0.0, 0.0, 0.0, 0.0, 0.0, 0.0, 0.0, 0.0, 1.654675096749141E9, 0.0, 2022-06-08 09:58:16.749
174.0, 22045.234983591436, 37031.49849551899, -8846.641641454893, -11624.292924915902, 4439.682297668731, 5336.478988704561, 17521.241905837287, 2531.826797941542, -0.048, 0.916, 0.454, 192.0, 0.0, 0.0, 0.0, 0.0, 0.0, 0.0, 0.0, 0.0, 0.0, 1.6546750967491455E9, 0.0, 2022-06-08 09:58:16.749
175.0, 22035.93665789803, 37011.203111553565, -8863.070173629543, -11640.497939645998, 4425.734809128619, 5327.314773477885, 17510.08838535409, 2510.033847097617, -0.048, 0.916, 0.454, 192.0, 0.0, 0.0, 0.0, 0.0, 0.0, 0.0, 0.0, 0.0, 0.0, 1.654675096749151E9, 0.0, 2022-06-08 09:58:16.749
176.0, 22041.435187034036, 37026.24583557199, -8870.714470233259, -11622.974171993039, 4427.031210307027, 5316.0718460168655, 17514.290513311687, 2485.357521218958, -0.05, 0.912, 0.446, 192.0, 254.0, 112.0, 28.0, 128.0, 13.0, 240.0, 0.0, 0.0, 0.0, 1.6546750967491555E9, 0.0, 2022-06-08 09:58:16.749
177.0, 22051.091140638728, 37044.10487939178, -8866.624100997937, -11618.01208472396, 4429.668716152753, 5311.690904103626, 17515.1845830899, 2475.9250850588187, -0.05, 0.912, 0.446, 192.0, 0.0, 0.0, 0.0, 0.0, 0.0, 0.0, 0.0, 0.0, 0.0, 1.6546750967491603E9, 0.0, 2022-06-08 09:58:16.749
178.0, 22067.8102454913, 37018.37802152372, -8857.549292749083, -11617.497994601488, 4440.9339953582285, 5318.552889651405, 17513.552905744662, 2446.1302096998943, -0.05, 0.912, 0.446, 192.0, 0.0, 0.0, 0.0, 0.0, 0.0, 0.0, 0.0, 0.0, 0.0, 1.6546750967491663E9, 0.0, 2022-06-08 09:58:16.749
179.0, 22078.5614345743, 37031.45379203007, -8864.880664930424, -11624.11411096026, 4436.933033100729, 5317.368247195273, 17507.920266141926, 2427.2206338907044, -0.05, 0.912, 0.446, 192.0, 0.0, 0.0, 0.0, 0.0, 0.0, 0.0, 0.0, 0.0, 0.0, 1.6546750967491732E9, 0.0, 2022-06-08 09:58:16.749
180.0, 22074.26989963888, 37033.84542868679, -8878.537580792616, -11644.297736203402, 4424.349000972391, 5312.182642481643, 17492.475210723307, 2452.1204772139167, -0.05, 0.912, 0.446, 192.0, 0.0, 0.0, 0.0, 0.0, 0.0, 0.0, 0.0, 0.0, 0.0, 1.6546750967491808E9, 0.0, 2022-06-08 09:58:16.749
181.0, 22063.921041956073, 36997.83676836929, -8893.535601322128, -11650.623279884254, 4410.647381621287, 5301.856136543291, 17462.635631875473, 2480.7977653500757, -0.05, 0.912, 0.446, 192.0, 0.0, 0.0, 0.0, 0.0, 0.0, 0.0, 0.0, 0.0, 0.0, 1.654675096749188E9, 0.0, 2022-06-08 09:58:16.749
182.0, 22078.784952018854, 37007.89505337418, -8887.031243685633, -11627.73509356202, 4417.3305532134245, 5309.008694768989, 17474.571463414606, 2509.3185912750473, -0.05, 0.912, 0.446, 192.0, 0.0, 0.0, 0.0, 0.0, 0.0, 0.0, 0.0, 0.0, 0.0, 1.654675096749194E9, 0.0, 2022-06-08 09:58:16.749
183.0, 22100.28733018486, 37032.03493738591, -8874.33545283502, -11615.15106143368, 4445.40434424929, 5317.524709406461, 17519.85609768106, 2512.850166898986, -0.05, 0.912, 0.446, 192.0, 0.0, 0.0, 0.0, 0.0, 0.0, 0.0, 0.0, 0.0, 0.0, 1.654675096749202E9, 0.0, 2022-06-08 09:58:16.749
184.0, 22116.961731548516, 37031.81141994136, -8866.691156231303, -11620.247259169491, 4448.243015795114, 5314.283706460441, 17538.877432212525, 2492.0630445555503, -0.05, 0.912, 0.446, 192.0, 0.0, 0.0, 0.0, 0.0, 0.0, 0.0, 0.0, 0.0, 0.0, 1.6546750967492092E9, 0.0, 2022-06-08 09:58:16.749
185.0, 22108.937455289062, 37040.32743457883, -8873.217865612252, -11630.104378474281, 4436.173073789248, 5304.0913109888215, 17516.950370901868, 2459.8318290509974, -0.05, 0.912, 0.446, 192.0, 0.0, 0.0, 0.0, 0.0, 0.0, 0.0, 0.0, 0.0, 0.0, 1.6546750967492156E9, 0.0, 2022-06-08 09:58:16.749
186.0, 22092.643033581142, 37037.01937639945, -8886.204229140787, -11643.850701314295, 4424.885442839318, 5296.178793451642, 17494.911550868936, 2457.5743028610113, -0.038, 0.914, 0.45, 192.0, 254.0, 208.0, 28.0, 144.0, 14.0, 16.0, 0.0, 0.0, 0.0, 1.6546750967492204E9, 0.0, 2022-06-08 09:58:16.749
187.0, 22095.928740016072, 37038.65105374468, -8886.651264029893, -11641.213195468568, 4425.01955330605, 5292.244886427508, 17463.149721997943, 2443.559759087534, -0.038, 0.914, 0.45, 192.0, 0.0, 0.0, 0.0, 0.0, 0.0, 0.0, 0.0, 0.0, 0.0, 1.654675096749225E9, 0.0, 2022-06-08 09:58:16.749
188.0, 22102.634263352666, 37030.626777485224, -8875.47539180224, -11635.133520976726, 4431.814483620463, 5295.083557973333, 17471.59868140205, 2440.5199218416124, -0.038, 0.914, 0.45, 192.0, 0.0, 0.0, 0.0, 0.0, 0.0, 0.0, 0.0, 0.0, 0.0, 1.6546750967492304E9, 0.0, 2022-06-08 09:58:16.749
189.0, 22115.061833269818, 37033.19722809759, -8866.713507975759, -11633.434788398123, 4444.0408878375165, 5307.354665679296, 17520.392539547986, 2480.5071926721566, -0.038, 0.914, 0.45, 192.0, 0.0, 0.0, 0.0, 0.0, 0.0, 0.0, 0.0, 0.0, 0.0, 1.6546750967492354E9, 0.0, 2022-06-08 09:58:16.749
190.0, 22110.14444948965, 37049.98338818352, -8876.525923791638, -11653.663117130174, 4438.609413934876, 5308.9639912800785, 17511.742414443783, 2466.716166343232, -0.038, 0.914, 0.45, 192.0, 0.0, 0.0, 0.0, 0.0, 0.0, 0.0, 0.0, 0.0, 0.0, 1.65467509674924E9, 0.0, 2022-06-08 09:58:16.749
191.0, 22094.341766159745, 37028.48101001752, -8892.23920014372, -11637.033419255427, 4433.982602832628, 5288.735662548025, 17509.79781267617, 2388.865040405398, -0.038, 0.914, 0.45, 192.0, 0.0, 0.0, 0.0, 0.0, 0.0, 0.0, 0.0, 0.0, 0.0, 1.654675096749246E9, 0.0, 2022-06-08 09:58:16.749
192.0, 22106.344652932246, 37035.52180952094, -8875.587150524516, -11613.228811410525, 4442.431562236734, 5289.495621859506, 17535.256449610766, 2404.3100958240148, -0.038, 0.914, 0.45, 192.0, 0.0, 0.0, 0.0, 0.0, 0.0, 0.0, 0.0, 0.0, 0.0, 1.6546750967492576E9, 0.0, 2022-06-08 09:58:16.749
193.0, 22126.416519453112, 37073.855051261795, -8863.763077707657, -11604.176354906125, 4451.528722230044, 5312.763787837481, 17548.42162709494, 2513.5430709771003, -0.038, 0.914, 0.45, 192.0, 0.0, 0.0, 0.0, 0.0, 0.0, 0.0, 0.0, 0.0, 0.0, 1.6546750967492635E9, 0.0, 2022-06-08 09:58:16.749
194.0, 22124.71778687451, 37045.49068754801, -8872.770830723148, -11615.799262022885, 4441.045754080505, 5311.1991657256085, 17537.42456882293, 2504.758835406165, -0.038, 0.914, 0.45, 192.0, 0.0, 0.0, 0.0, 0.0, 0.0, 0.0, 0.0, 0.0, 0.0, 1.65467509674927E9, 0.0, 2022-06-08 09:58:16.749
195.0, 22122.683778129074, 37046.00477767048, -8869.79804871059, -11624.896422016194, 4443.325632014947, 5308.561659879882, 17531.166080375442, 2495.9298963463184, -0.026000000000000002, 0.91, 0.458, 192.0, 255.0, 48.0, 28.0, 112.0, 14.0, 80.0, 0.0, 0.0, 0.0, 1.6546750967492752E9, 0.0, 2022-06-08 09:58:16.749
196.0, 22128.942266576563, 37067.03776920292, -8877.889380203413, -11627.846852284296, 4441.850416880896, 5302.660799343682, 17523.678245982916, 2500.6684661708437, -0.026000000000000002, 0.91, 0.458, 192.0, 0.0, 0.0, 0.0, 0.0, 0.0, 0.0, 0.0, 0.0, 0.0, 1.6546750967492795E9, 0.0, 2022-06-08 09:58:16.749
197.0, 22132.026807311395, 37071.86574600527, -8890.495764076206, -11643.582480380832, 4432.954422587683, 5297.899877774701, 17509.820164420624, 2457.395488905369, -0.026000000000000002, 0.91, 0.458, 192.0, 0.0, 0.0, 0.0, 0.0, 0.0, 0.0, 0.0, 0.0, 0.0, 1.654675096749284E9, 0.0, 2022-06-08 09:58:16.749
198.0, 22135.401920724147, 37046.027129414935, -8878.157601136876, -11634.038285498416, 4448.399478006301, 5304.583049366838, 17515.51985925673, 2438.821189263009, -0.026000000000000002, 0.91, 0.458, 192.0, 0.0, 0.0, 0.0, 0.0, 0.0, 0.0, 0.0, 0.0, 0.0, 1.6546750967492888E9, 0.0, 2022-06-08 09:58:16.749
199.0, 22129.769281121407, 37061.49453657801, -8873.016699912156, -11620.649590569687, 4452.445143752711, 5311.579145381349, 17520.213725592344, 2449.3041574125477, -0.026000000000000002, 0.91, 0.458, 192.0, 0.0, 0.0, 0.0, 0.0, 0.0, 0.0, 0.0, 0.0, 0.0, 1.6546750967492936E9, 0.0, 2022-06-08 09:58:16.749
200.0, 22117.833449582275, 37044.12723113623, -8881.264493616163, -11626.72926506153, 4439.1682075462595, 5304.024255755456, 17505.796850418672, 2478.6519978823662, -0.026000000000000002, 0.91, 0.458, 192.0, 0.0, 0.0, 0.0, 0.0, 0.0, 0.0, 0.0, 0.0, 0.0, 1.6546750967492983E9, 0.0, 2022-06-08 09:58:16.749
201.0, 22109.295083200348, 37038.33812932231, -8889.288769875619, -11628.45034938459, 4431.143931286804, 5301.967895265567, 17495.1797718024, 2491.6830648998102, -0.026000000000000002, 0.91, 0.458, 192.0, 0.0, 0.0, 0.0, 0.0, 0.0, 0.0, 0.0, 0.0, 0.0, 1.6546750967493029E9, 0.0, 2022-06-08 09:58:16.749
202.0, 22114.324225702792, 37041.4450218016, -8890.451060587295, -11626.930430761628, 4435.323707499946, 5299.710369075581, 17498.21960904832, 2475.7015676142655, -0.026000000000000002, 0.91, 0.458, 192.0, 0.0, 0.0, 0.0, 0.0, 0.0, 0.0, 0.0, 0.0, 0.0, 1.6546750967493072E9, 0.0, 2022-06-08 09:58:16.749
203.0, 22130.886868344172, 37053.11263240727, -8884.863124473468, -11630.05967498537, 4443.839722137418, 5305.320656933864, 17502.9805306173, 2463.519866886123, -0.026000000000000002, 0.91, 0.458, 192.0, 0.0, 0.0, 0.0, 0.0, 0.0, 0.0, 0.0, 0.0, 0.0, 1.654675096749312E9, 0.0, 2022-06-08 09:58:16.749
204.0, 22134.66431315712, 37071.1504901827, -8887.746499508203, -11646.756428093486, 4445.516102971566, 5301.967895265567, 17506.042719607678, 2413.6754767507887, -0.026000000000000002, 0.91, 0.458, 192.0, 0.0, 0.0, 0.0, 0.0, 0.0, 0.0, 0.0, 0.0, 0.0, 1.6546750967493167E9, 0.0, 2022-06-08 09:58:16.749
205.0, 22107.171667477094, 37032.459620530564, -8902.968037482267, -11649.59509963931, 4432.082704553927, 5277.2692176424525, 17493.36928050152, 2364.6133976713895, -0.01, 0.918, 0.456, 192.0, 255.0, 176.0, 28.0, 176.0, 14.0, 64.0, 0.0, 0.0, 0.0, 1.6546750967493212E9, 0.0, 2022-06-08 09:58:16.749
206.0, 22094.72174581549, 37015.539349977895, -8907.371331139962, -11653.126675263247, 4417.241146235603, 5276.129278675232, 17481.65696640694, 2420.5821657874785, -0.01, 0.918, 0.456, 192.0, 0.0, 0.0, 0.0, 0.0, 0.0, 0.0, 0.0, 0.0, 0.0, 1.6546750967493255E9, 0.0, 2022-06-08 09:58:16.749
207.0, 22107.506943643923, 37035.56651300985, -8902.051615959599, -11636.116997732759, 4422.2032335046815, 5290.747319549003, 17483.31099549663, 2529.569271751556, -0.01, 0.918, 0.456, 192.0, 0.0, 0.0, 0.0, 0.0, 0.0, 0.0, 0.0, 0.0, 0.0, 1.6546750967493308E9, 0.0, 2022-06-08 09:58:16.749
208.0, 22127.66821714261, 37054.833716730325, -8889.735804764725, -11627.91390751766, 4438.765876146063, 5298.883354530734, 17497.303187525653, 2505.6976086732875, -0.01, 0.918, 0.456, 192.0, 0.0, 0.0, 0.0, 0.0, 0.0, 0.0, 0.0, 0.0, 0.0, 1.6546750967493355E9, 0.0, 2022-06-08 09:58:16.749
209.0, 22134.39609222366, 37039.20984735606, -8885.71249076277, -11627.176299950635, 4447.348946016901, 5304.381883666741, 17510.758937687748, 2496.4663382132458, -0.01, 0.918, 0.456, 192.0, 0.0, 0.0, 0.0, 0.0, 0.0, 0.0, 0.0, 0.0, 0.0, 1.654675096749341E9, 0.0, 2022-06-08 09:58:16.749
210.0, 22122.884943829173, 37035.00771939847, -8901.403415370396, -11643.4483699141, 4433.826140621441, 5300.358569664785, 17493.391632245974, 2464.503343642157, -0.01, 0.918, 0.456, 192.0, 0.0, 0.0, 0.0, 0.0, 0.0, 0.0, 0.0, 0.0, 0.0, 1.654675096749346E9, 0.0, 2022-06-08 09:58:16.749
211.0, 22134.351388734747, 37050.11749865025, -8920.782377813146, -11660.323936977857, 4412.189651988703, 5285.539363090917, 17457.83000681758, 2439.8940729968635, -0.01, 0.918, 0.456, 192.0, 0.0, 0.0, 0.0, 0.0, 0.0, 0.0, 0.0, 0.0, 0.0, 1.6546750967493532E9, 0.0, 2022-06-08 09:58:16.749
212.0, 22150.511699975934, 37061.29337087791, -8922.794034814124, -11661.955614323095, 4423.611393405366, 5278.275046142941, 17480.78524837318, 2446.398430633358, -0.01, 0.918, 0.456, 192.0, 0.0, 0.0, 0.0, 0.0, 0.0, 0.0, 0.0, 0.0, 0.0, 1.6546750967493582E9, 0.0, 2022-06-08 09:58:16.749
213.0, 22127.221182253503, 37025.687041960606, -8911.841680031024, -11646.801131582395, 4446.410172749779, 5283.147726434198, 17516.54803950167, 2450.3099859130366, -0.01, 0.918, 0.456, 192.0, 0.0, 0.0, 0.0, 0.0, 0.0, 0.0, 0.0, 0.0, 0.0, 1.654675096749364E9, 0.0, 2022-06-08 09:58:16.749
214.0, 22114.346577447246, 37038.829867700326, -8907.393682884418, -11644.320087947857, 4444.2197017931585, 5300.8056045538915, 17513.597609233573, 2469.4877826556904, -0.01, 0.918, 0.456, 192.0, 0.0, 0.0, 0.0, 0.0, 0.0, 0.0, 0.0, 0.0, 0.0, 1.6546750967493737E9, 0.0, 2022-06-08 09:58:16.749
215.0, 22110.971464034494, 37044.88719044771, -8915.507366121694, -11648.321050205357, 4432.216815020659, 5295.530592862438, 17492.631672934494, 2469.957169289252, -0.006, 0.922, 0.456, 192.0, 255.0, 208.0, 28.0, 208.0, 14.0, 64.0, 0.0, 0.0, 0.0, 1.6546750967493784E9, 0.0, 2022-06-08 09:58:16.749
216.0, 22108.110440744214, 37020.65789945816, -8921.497633635716, -11661.508579433988, 4421.4432741932005, 5285.0476247129, 17467.307146466632, 2460.882361040397, -0.006, 0.922, 0.456, 192.0, 0.0, 0.0, 0.0, 0.0, 0.0, 0.0, 0.0, 0.0, 0.0, 1.6546750967493832E9, 0.0, 2022-06-08 09:58:16.749
217.0, 22109.04921401134, 37022.84837041478, -8926.772645327168, -11659.094591032816, 4419.141044514304, 5276.084575186322, 17470.481094179286, 2449.393564390369, -0.006, 0.922, 0.456, 192.0, 0.0, 0.0, 0.0, 0.0, 0.0, 0.0, 0.0, 0.0, 0.0, 1.6546750967493887E9, 0.0, 2022-06-08 09:58:16.749
218.0, 22137.48063295849, 37053.514963807465, -8907.594848584515, -11645.884710059729, 4438.520006957056, 5290.724967804547, 17504.45574575135, 2461.977596518707, -0.006, 0.922, 0.456, 192.0, 0.0, 0.0, 0.0, 0.0, 0.0, 0.0, 0.0, 0.0, 0.0, 1.654675096749394E9, 0.0, 2022-06-08 09:58:16.749
219.0, 22141.056912071337, 37073.40801637268, -8903.348017138007, -11648.321050205357, 4440.35285000239, 5295.66470332917, 17511.742414443783, 2501.294315015592, -0.006, 0.922, 0.456, 192.0, 0.0, 0.0, 0.0, 0.0, 0.0, 0.0, 0.0, 0.0, 0.0, 1.6546750967493992E9, 0.0, 2022-06-08 09:58:16.749
220.0, 22132.675007900598, 37059.1476034102, -8912.847508531513, -11658.714611377074, 4427.321782984946, 5286.880467758235, 17489.971815344314, 2485.044596796584, -0.006, 0.922, 0.456, 192.0, 0.0, 0.0, 0.0, 0.0, 0.0, 0.0, 0.0, 0.0, 0.0, 1.6546750967494051E9, 0.0, 2022-06-08 09:58:16.749
221.0, 22125.790670608363, 37025.08354486031, -8917.04963648911, -11659.899253833206, 4422.87378583834, 5294.547116106405, 17479.064164050124, 2481.11068977245, -0.006, 0.922, 0.456, 192.0, 0.0, 0.0, 0.0, 0.0, 0.0, 0.0, 0.0, 0.0, 0.0, 1.6546750967494135E9, 0.0, 2022-06-08 09:58:16.749
222.0, 22130.23866775497, 37028.59276873979, -8916.04380798862, -11660.323936977857, 4422.493806182601, 5298.726892319548, 17474.59381515906, 2470.046576267073, -0.006, 0.922, 0.456, 192.0, 0.0, 0.0, 0.0, 0.0, 0.0, 0.0, 0.0, 0.0, 0.0, 1.654675096749424E9, 0.0, 2022-06-08 09:58:16.749
223.0, 22139.91697310412, 37052.91146670717, -8903.90681074939, -11644.856529814784, 4436.441294722712, 5301.587915609827, 17512.122394099522, 2484.1952305072823, -0.006, 0.922, 0.456, 192.0, 0.0, 0.0, 0.0, 0.0, 0.0, 0.0, 0.0, 0.0, 0.0, 1.6546750967494292E9, 0.0, 2022-06-08 09:58:16.749
224.0, 22139.246420770458, 37050.60923702827, -8902.006912470688, -11647.426980427144, 4432.328573742935, 5306.102967989799, 17508.210838819843, 2510.5255854756338, -0.006, 0.922, 0.456, 192.0, 0.0, 0.0, 0.0, 0.0, 0.0, 0.0, 0.0, 0.0, 0.0, 1.654675096749434E9, 0.0, 2022-06-08 09:58:16.749
225.0, 22114.43598442507, 37029.732707707015, -8912.847508531513, -11666.202445769602, 4424.416056205757, 5301.610267354282, 17502.60055096156, 2467.096145998972, -0.008, 0.922, 0.456, 192.0, 255.0, 192.0, 28.0, 208.0, 14.0, 64.0, 0.0, 0.0, 0.0, 1.6546750967494388E9, 0.0, 2022-06-08 09:58:16.749
226.0, 22098.968577261996, 37005.972803351026, -8923.553994125605, -11668.102344048304, 4417.576422402432, 5285.1370316907205, 17495.626806691507, 2451.5840353469894, -0.008, 0.922, 0.456, 192.0, 0.0, 0.0, 0.0, 0.0, 0.0, 0.0, 0.0, 0.0, 0.0, 1.6546750967494435E9, 0.0, 2022-06-08 09:58:16.749
227.0, 22113.18428673557, 37014.198245310574, -8917.429616144851, -11667.968233581572, 4422.426750949234, 5287.327502647341, 17501.55001897216, 2465.6209308649222, -0.008, 0.922, 0.456, 192.0, 0.0, 0.0, 0.0, 0.0, 0.0, 0.0, 0.0, 0.0, 0.0, 1.654675096749448E9, 0.0, 2022-06-08 09:58:16.749
228.0, 22118.682815871576, 37024.74826869348, -8918.770720812168, -11676.350137752312, 4418.850471836385, 5284.466479357062, 17501.03592884969, 2434.5743578165007, -0.008, 0.922, 0.456, 192.0, 0.0, 0.0, 0.0, 0.0, 0.0, 0.0, 0.0, 0.0, 0.0, 1.6546750967494535E9, 0.0, 2022-06-08 09:58:16.749
229.0, 22122.90729557363, 37027.989271639504, -8919.888308034933, -11676.417192985678, 4413.955439800673, 5281.359586877774, 17500.074803838113, 2455.3838319043916, -0.008, 0.922, 0.456, 192.0, 0.0, 0.0, 0.0, 0.0, 0.0, 0.0, 0.0, 0.0, 0.0, 1.6546750967494586E9, 0.0, 2022-06-08 09:58:16.749
230.0, 22117.811097837817, 37024.971786138034, -8918.278982434153, -11682.228646544057, 4412.703742111175, 5277.112755431265, 17496.0291380917, 2470.292445456081, -0.008, 0.922, 0.456, 192.0, 0.0, 0.0, 0.0, 0.0, 0.0, 0.0, 0.0, 0.0, 0.0, 1.6546750967494633E9, 0.0, 2022-06-08 09:58:16.749
231.0, 22123.108461273725, 37027.67634721713, -8923.978677270256, -11675.07608831836, 4407.987524031106, 5277.559790320372, 17483.042774563168, 2449.080639967995, -0.008, 0.922, 0.456, 192.0, 0.0, 0.0, 0.0, 0.0, 0.0, 0.0, 0.0, 0.0, 0.0, 1.654675096749468E9, 0.0, 2022-06-08 09:58:16.749
232.0, 22111.887885557164, 37028.07867861732, -8920.58121211305, -11677.512428463988, 4413.217832233648, 5275.346967619296, 17479.690012894873, 2413.8989941953414, -0.008, 0.922, 0.456, 192.0, 0.0, 0.0, 0.0, 0.0, 0.0, 0.0, 0.0, 0.0, 0.0, 1.6546750967494729E9, 0.0, 2022-06-08 09:58:16.749
233.0, 22123.28727522937, 37067.484804092026, -8903.146851437908, -11673.936149351139, 4424.4384079502115, 5280.152592677187, 17487.244902520764, 2403.9301161682747, -0.008, 0.922, 0.456, 192.0, 0.0, 0.0, 0.0, 0.0, 0.0, 0.0, 0.0, 0.0, 0.0, 1.654675096749478E9, 0.0, 2022-06-08 09:58:16.749
234.0, 22137.212412025026, 37073.11744369477, -8903.437424115828, -11676.998338341517, 4423.633745149821, 5287.0145782249665, 17492.721079912317, 2454.2438929371706, -0.008, 0.922, 0.456, 192.0, 0.0, 0.0, 0.0, 0.0, 0.0, 0.0, 0.0, 0.0, 0.0, 1.654675096749484E9, 0.0, 2022-06-08 09:58:16.749
235.0, 22114.681853614074, 37005.74928590647, -8915.708531821792, -11686.162553568192, 4413.195480489192, 5276.241037397509, 17490.999995589256, 2501.562535949056, -0.012, 0.92, 0.454, 192.0, 255.0, 160.0, 28.0, 192.0, 14.0, 48.0, 0.0, 0.0, 0.0, 1.6546750967494931E9, 0.0, 2022-06-08 09:58:16.749
236.0, 22097.493362127945, 36998.37321023622, -8921.564688869083, -11691.437565259645, 4410.423864176734, 5278.163287420665, 17489.055393821644, 2489.3584834764583, -0.012, 0.92, 0.454, 192.0, 0.0, 0.0, 0.0, 0.0, 0.0, 0.0, 0.0, 0.0, 0.0, 1.6546750967494977E9, 0.0, 2022-06-08 09:58:16.749
237.0, 22107.931626788573, 37022.44603901458, -8917.47431963376, -11684.664986689686, 4414.514233412056, 5281.8513252557905, 17486.328480998098, 2485.8269078525195, -0.012, 0.92, 0.454, 192.0, 0.0, 0.0, 0.0, 0.0, 0.0, 0.0, 0.0, 0.0, 0.0, 1.654675096749502E9, 0.0, 2022-06-08 09:58:16.749
238.0, 22139.782862637385, 37026.2905390609, -8906.85724101749, -11662.045021300915, 4423.387875960812, 5280.33140663283, 17490.08357406659, 2472.952303046263, -0.012, 0.92, 0.454, 192.0, 0.0, 0.0, 0.0, 0.0, 0.0, 0.0, 0.0, 0.0, 0.0, 1.6546750967495067E9, 0.0, 2022-06-08 09:58:16.749
239.0, 22162.358124537244, 37036.97467291053, -8907.013703228677, -11660.703916633596, 4428.953460330184, 5286.366377635763, 17503.628731206507, 2478.048500782073, -0.012, 0.92, 0.454, 192.0, 0.0, 0.0, 0.0, 0.0, 0.0, 0.0, 0.0, 0.0, 0.0, 1.6546750967495124E9, 0.0, 2022-06-08 09:58:16.749
240.0, 22134.306685245836, 37056.5995045423, -8910.142947452421, -11673.869094117772, 4423.432579449723, 5296.983456252034, 17500.007748604745, 2494.812309123553, -0.012, 0.92, 0.454, 192.0, 0.0, 0.0, 0.0, 0.0, 0.0, 0.0, 0.0, 0.0, 0.0, 1.6546750967495167E9, 0.0, 2022-06-08 09:58:16.749
241.0, 22090.18434169106, 37021.820190169834, -8918.502499878705, -11687.190733813135, 4410.401512432279, 5284.8464590128015, 17484.27212050821, 2471.3876809343915, -0.012, 0.92, 0.454, 192.0, 0.0, 0.0, 0.0, 0.0, 0.0, 0.0, 0.0, 0.0, 0.0, 1.654675097229739E9, 0.0, 2022-06-08 09:58:17.229
242.0, 22092.754792303418, 37013.572396465825, -8910.52292710816, -11684.21795180058, 4420.124521270338, 5274.89993273019, 17497.593760203574, 2461.6646720963327, -0.012, 0.92, 0.454, 192.0, 0.0, 0.0, 0.0, 0.0, 0.0, 0.0, 0.0, 0.0, 0.0, 1.654675097229791E9, 0.0, 2022-06-08 09:58:17.229
243.0, 22108.75864133342, 37025.61998672724, -8908.421863129362, -11678.69707092012, 4424.371352716846, 5273.648235040693, 17490.999995589256, 2440.586977074978, -0.012, 0.92, 0.454, 192.0, 0.0, 0.0, 0.0, 0.0, 0.0, 0.0, 0.0, 0.0, 0.0, 1.6546750972297993E9, 0.0, 2022-06-08 09:58:17.229
244.0, 22127.534106675877, 37049.37989108323, -8896.66484554587, -11667.588253925831, 4429.936937086218, 5273.759993762969, 17495.40328924695, 2415.664782007311, -0.012, 0.92, 0.454, 192.0, 0.0, 0.0, 0.0, 0.0, 0.0, 0.0, 0.0, 0.0, 0.0, 1.654675097229807E9, 0.0, 2022-06-08 09:58:17.229
245.0, 22120.158031005627, 37036.23706534351, -8904.756177038691, -11685.022614600972, 4421.465625937656, 5273.312958873864, 17499.89598988247, 2426.684192023777, -0.018000000000000002, 0.922, 0.45, 192.0, 255.0, 112.0, 28.0, 208.0, 14.0, 16.0, 0.0, 0.0, 0.0, 1.6546750972298183E9, 0.0, 2022-06-08 09:58:17.229
246.0, 22110.882057056675, 37020.61319596925, -8916.937877766833, -11689.939998381138, 4411.720265355142, 5276.688072286614, 17475.331422726085, 2487.257419497659, -0.018000000000000002, 0.922, 0.45, 192.0, 0.0, 0.0, 0.0, 0.0, 0.0, 0.0, 0.0, 0.0, 0.0, 1.6546750972298503E9, 0.0, 2022-06-08 09:58:17.229
247.0, 22128.785804365376, 37033.912483920154, -8917.116691722476, -11675.657233674197, 4413.553108400477, 5279.884371743724, 17451.482111392274, 2482.1165182729387, -0.018000000000000002, 0.922, 0.45, 192.0, 0.0, 0.0, 0.0, 0.0, 0.0, 0.0, 0.0, 0.0, 0.0, 1.6546750972298567E9, 0.0, 2022-06-08 09:58:17.229
248.0, 22132.831470111785, 37042.83082995783, -8910.969961997267, -11673.73498365104, 4422.694971882698, 5281.381938622229, 17468.916472067413, 2468.2807884551034, -0.018000000000000002, 0.922, 0.45, 192.0, 0.0, 0.0, 0.0, 0.0, 0.0, 0.0, 0.0, 0.0, 0.0, 1.6546750972298636E9, 0.0, 2022-06-08 09:58:17.229
249.0, 22137.123005047204, 37049.75987073897, -8903.57153458256, -11671.49980920551, 4426.897099840296, 5283.103022945288, 17499.60541720455, 2445.81728527752, -0.018000000000000002, 0.922, 0.45, 192.0, 0.0, 0.0, 0.0, 0.0, 0.0, 0.0, 0.0, 0.0, 0.0, 1.654675097229869E9, 0.0, 2022-06-08 09:58:17.229
250.0, 22124.85189734124, 37023.80949542636, -8912.57928759805, -11680.351100009811, 4419.923355570239, 5272.7541652624805, 17487.379012987498, 2422.9738024441963, -0.018000000000000002, 0.922, 0.45, 192.0, 0.0, 0.0, 0.0, 0.0, 0.0, 0.0, 0.0, 0.0, 0.0, 1.654675097229874E9, 0.0, 2022-06-08 09:58:17.229
251.0, 22113.698376858043, 37016.74634417848, -8925.09626449302, -11693.762146682995, 4408.523965898034, 5256.66090925466, 17469.45291393434, 2436.809532262031, -0.018000000000000002, 0.922, 0.45, 192.0, 0.0, 0.0, 0.0, 0.0, 0.0, 0.0, 0.0, 0.0, 0.0, 1.6546750972298791E9, 0.0, 2022-06-08 09:58:17.229
252.0, 22112.51373440191, 37022.37898378122, -8922.078778991554, -11689.895294892227, 4410.625029876832, 5262.315900601852, 17475.621995404006, 2469.957169289252, -0.018000000000000002, 0.922, 0.45, 192.0, 0.0, 0.0, 0.0, 0.0, 0.0, 0.0, 0.0, 0.0, 0.0, 1.654675097229885E9, 0.0, 2022-06-08 09:58:17.229
253.0, 22124.33780721877, 37012.20894005406, -8908.734787551735, -11695.572637983876, 4418.626954391832, 5263.902874458179, 17486.015556575723, 2448.9241777568077, -0.018000000000000002, 0.922, 0.45, 192.0, 0.0, 0.0, 0.0, 0.0, 0.0, 0.0, 0.0, 0.0, 0.0, 1.65467509722989E9, 0.0, 2022-06-08 09:58:17.229
254.0, 22140.498118459956, 37024.1894750821, -8893.267380388663, -11670.181056282647, 4431.1886347757145, 5286.366377635763, 17516.346873801576, 2470.940646045285, -0.018000000000000002, 0.922, 0.45, 192.0, 0.0, 0.0, 0.0, 0.0, 0.0, 0.0, 0.0, 0.0, 0.0, 1.6546750972298954E9, 0.0, 2022-06-08 09:58:17.229
255.0, 22132.697359645055, 37038.04755664439, -8903.660941560382, -11681.133411065748, 4419.901003825785, 5280.689034544115, 17510.42366152092, 2486.609218908455, -0.024, 0.93, 0.448, 192.0, 255.0, 64.0, 29.0, 16.0, 14.0, 0.0, 0.0, 0.0, 0.0, 1.6546750972299016E9, 0.0, 2022-06-08 09:58:17.229
0.0, 22115.84414432575, 37029.75505945147, -8914.81446204358, -11690.364681525789, 4413.396646189291, 5263.724060502536, 17503.315806784132, 2465.755041331654, -0.024, 0.93, 0.448, 192.0, 0.0, 0.0, 0.0, 0.0, 0.0, 0.0, 0.0, 0.0, 0.0, 1.6546750972299483E9, 0.0, 2022-06-08 09:58:17.229
1.0, 22117.47582167099, 37015.964033122546, -8919.061293490087, -11685.447297745623, 4415.654172379276, 5262.047679668389, 17497.70551892585, 2439.2011689187493, -0.024, 0.93, 0.448, 192.0, 0.0, 0.0, 0.0, 0.0, 0.0, 0.0, 0.0, 0.0, 0.0, 1.6546750972299535E9, 0.0, 2022-06-08 09:58:17.229
2.0, 22144.744949906464, 37029.889169918206, -8916.133214966443, -11682.854495388807, 4420.616259648355, 5268.619092538249, 17492.69872816786, 2448.72301205671, -0.024, 0.93, 0.448, 192.0, 0.0, 0.0, 0.0, 0.0, 0.0, 0.0, 0.0, 0.0, 0.0, 1.6546750972299592E9, 0.0, 2022-06-08 09:58:17.229
3.0, 22137.368874236214, 37027.69869896158, -8907.416034628874, -11683.323882022367, 4418.761064858564, 5273.916455974157, 17487.826047876602, 2464.235122708693, -0.024, 0.93, 0.448, 192.0, 0.0, 0.0, 0.0, 0.0, 0.0, 0.0, 0.0, 0.0, 0.0, 1.6546750972299638E9, 0.0, 2022-06-08 09:58:17.229
4.0, 22123.063757784817, 37024.502399504476, -8911.729921308746, -11690.275274547968, 4413.262535722558, 5261.0418511679, 17478.661832649927, 2450.3770411464025, -0.024, 0.93, 0.448, 192.0, 0.0, 0.0, 0.0, 0.0, 0.0, 0.0, 0.0, 0.0, 0.0, 1.6546750972299685E9, 0.0, 2022-06-08 09:58:17.229
5.0, 22137.86061261423, 37018.534483734904, -8928.985468028244, -11698.947751396627, 4395.559954113955, 5245.216816093543, 17454.387838171464, 2429.299346125048, -0.024, 0.93, 0.448, 192.0, 0.0, 0.0, 0.0, 0.0, 0.0, 0.0, 0.0, 0.0, 0.0, 1.6546750972299764E9, 0.0, 2022-06-08 09:58:17.229
6.0, 22157.86542390173, 37018.22155931253, -8931.980601785255, -11702.4122717872, 4395.470547136134, 5246.490865527495, 17439.836852531058, 2427.5112065686235, -0.024, 0.93, 0.448, 192.0, 0.0, 0.0, 0.0, 0.0, 0.0, 0.0, 0.0, 0.0, 0.0, 1.6546750972299817E9, 0.0, 2022-06-08 09:58:17.229
7.0, 22146.24251678497, 37045.13305963672, -8908.712435807282, -11676.752469152507, 4417.308201468969, 5259.790153478402, 17455.326611438588, 2435.6695932948105, -0.024, 0.93, 0.448, 192.0, 0.0, 0.0, 0.0, 0.0, 0.0, 0.0, 0.0, 0.0, 0.0, 1.6546750972299871E9, 0.0, 2022-06-08 09:58:17.229
8.0, 22120.582714150278, 37032.66078623066, -8903.9515142383, -11676.864227874783, 4422.918489327251, 5256.169170876643, 17481.813428618127, 2437.2342154066823, -0.024, 0.93, 0.448, 192.0, 0.0, 0.0, 0.0, 0.0, 0.0, 0.0, 0.0, 0.0, 0.0, 1.654675097229993E9, 0.0, 2022-06-08 09:58:17.229
9.0, 22127.601161909242, 37020.5908442248, -8907.594848584515, -11683.16741981118, 4423.142006771804, 5262.561769790861, 17518.9843796473, 2458.557779617045, -0.026000000000000002, 0.934, 0.442, 192.0, 255.0, 48.0, 29.0, 48.0, 13.0, 208.0, 0.0, 0.0, 0.0, 1.654675097229998E9, 0.0, 2022-06-08 09:58:17.229
10.0, 22134.23963001247, 37019.92029189113, -8920.223584201764, -11698.433661274155, 4408.2333932201145, 5250.178903362621, 17493.50339096825, 2440.564625330523, -0.026000000000000002, 0.934, 0.442, 192.0, 0.0, 0.0, 0.0, 0.0, 0.0, 0.0, 0.0, 0.0, 0.0, 1.6546750972300036E9, 0.0, 2022-06-08 09:58:17.230
11.0, 22139.51464170392, 37042.00381541298, -8913.80863354309, -11687.861286146795, 4420.906832326274, 5244.903891671168, 17490.530608955694, 2441.615157319922, -0.026000000000000002, 0.934, 0.442, 192.0, 0.0, 0.0, 0.0, 0.0, 0.0, 0.0, 0.0, 0.0, 0.0, 1.6546750972300093E9, 0.0, 2022-06-08 09:58:17.230
12.0, 22146.644848185166, 37050.11749865025, -8902.431595615339, -11674.003204584504, 4434.675506910742, 5253.576368519827, 17496.78909740318, 2450.19822719076, -0.026000000000000002, 0.934, 0.442, 192.0, 0.0, 0.0, 0.0, 0.0, 0.0, 0.0, 0.0, 0.0, 0.0, 1.6546750972300155E9, 0.0, 2022-06-08 09:58:17.230
13.0, 22145.03552258438, 37028.816286184345, -8901.38106362594, -11679.50173372051, 4426.1371405288155, 5260.550112789883, 17461.808617330626, 2456.5461226160674, -0.026000000000000002, 0.934, 0.442, 192.0, 0.0, 0.0, 0.0, 0.0, 0.0, 0.0, 0.0, 0.0, 0.0, 1.654675097230022E9, 0.0, 2022-06-08 09:58:17.230
14.0, 22124.740138618963, 37010.55491096436, -8915.797938799613, -11696.422004273178, 4410.44621592119, 5248.524874272928, 17452.130311981477, 2440.2517009081485, -0.026000000000000002, 0.934, 0.442, 192.0, 0.0, 0.0, 0.0, 0.0, 0.0, 0.0, 0.0, 0.0, 0.0, 1.6546750972300289E9, 0.0, 2022-06-08 09:58:17.230
15.0, 22121.588542650767, 37007.425666740615, -8922.61522085848, -11693.516277493987, 4413.664867122754, 5238.600699734771, 17482.618091418517, 2436.5189595841125, -0.026000000000000002, 0.934, 0.442, 192.0, 0.0, 0.0, 0.0, 0.0, 0.0, 0.0, 0.0, 0.0, 0.0, 1.6546750972300358E9, 0.0, 2022-06-08 09:58:17.230
16.0, 22134.95488583504, 37034.78420195392, -8919.463624890283, -11689.738832681041, 4416.235317735114, 5239.003031134967, 17503.47226899532, 2439.8046660190425, -0.026000000000000002, 0.934, 0.442, 192.0, 0.0, 0.0, 0.0, 0.0, 0.0, 0.0, 0.0, 0.0, 0.0, 1.6546750972300406E9, 0.0, 2022-06-08 09:58:17.230
17.0, 22142.95681035004, 37043.18845786911, -8920.938840024333, -11693.538629238443, 4413.888384567307, 5237.281946811909, 17506.51210624124, 2439.849369507953, -0.026000000000000002, 0.934, 0.442, 192.0, 0.0, 0.0, 0.0, 0.0, 0.0, 0.0, 0.0, 0.0, 0.0, 1.6546750972300456E9, 0.0, 2022-06-08 09:58:17.230
18.0, 22133.3232084898, 36999.02141082542, -8920.469453390771, -11703.663969476696, 4414.178957245226, 5232.901004898668, 17493.50339096825, 2432.272128137604, -0.018000000000000002, 0.934, 0.448, 192.0, 255.0, 112.0, 29.0, 48.0, 14.0, 0.0, 0.0, 0.0, 0.0, 1.6546750972300537E9, 0.0, 2022-06-08 09:58:17.230
19.0, 22142.532127205388, 36993.589936922785, -8936.741523354236, -11728.563812799908, 4399.806785560463, 5219.489958225484, 17475.93491982638, 2413.8319389619755, -0.018000000000000002, 0.934, 0.448, 192.0, 0.0, 0.0, 0.0, 0.0, 0.0, 0.0, 0.0, 0.0, 0.0, 1.6546750972300618E9, 0.0, 2022-06-08 09:58:17.230
20.0, 22173.601051998266, 37002.731800405, -8938.48495942175, -11725.009885431515, 4396.498727381078, 5219.087626825289, 17471.12929476849, 2407.372284814392, -0.018000000000000002, 0.934, 0.448, 192.0, 0.0, 0.0, 0.0, 0.0, 0.0, 0.0, 0.0, 0.0, 0.0, 1.6546750972300675E9, 0.0, 2022-06-08 09:58:17.230
21.0, 22127.66821714261, 37005.123437061724, -8937.43442743235, -11707.687283478652, 4398.242163448592, 5223.602679205261, 17458.45585566233, 2400.1526713553276, -0.018000000000000002, 0.934, 0.448, 192.0, 0.0, 0.0, 0.0, 0.0, 0.0, 0.0, 0.0, 0.0, 0.0, 1.6546750972300751E9, 0.0, 2022-06-08 09:58:17.230
22.0, 22100.197923207037, 36996.56271893534, -8917.630781844948, -11683.592102955832, 4417.174091002237, 5244.076877126322, 17482.573387929606, 2451.449924880257, -0.018000000000000002, 0.934, 0.448, 192.0, 0.0, 0.0, 0.0, 0.0, 0.0, 0.0, 0.0, 0.0, 0.0, 1.6546750972300913E9, 0.0, 2022-06-08 09:58:17.230
23.0, 22103.885961042164, 36988.11375953123, -8910.254706174697, -11682.496867477521, 4423.343172471902, 5247.362583561252, 17505.349815529564, 2460.658843595844, -0.018000000000000002, 0.934, 0.448, 192.0, 0.0, 0.0, 0.0, 0.0, 0.0, 0.0, 0.0, 0.0, 0.0, 1.6546750972300985E9, 0.0, 2022-06-08 09:58:17.230
24.0, 22089.580844590768, 36968.73479708848, -8924.448063903817, -11691.169344326181, 4413.575460144933, 5241.774647447425, 17506.065071352135, 2447.493666111668, -0.018000000000000002, 0.934, 0.448, 192.0, 0.0, 0.0, 0.0, 0.0, 0.0, 0.0, 0.0, 0.0, 0.0, 1.6546750972301042E9, 0.0, 2022-06-08 09:58:17.230
25.0, 22082.048306709326, 36955.25669518193, -8936.808578587601, -11693.672739705175, 4408.903945553773, 5244.859188182258, 17495.47034448032, 2450.7123173132322, -0.018000000000000002, 0.934, 0.448, 192.0, 0.0, 0.0, 0.0, 0.0, 0.0, 0.0, 0.0, 0.0, 0.0, 1.6546750972301114E9, 0.0, 2022-06-08 09:58:17.230
26.0, 22085.7139928, 36949.065261967815, -8940.228395489263, -11682.340405266334, 4409.641553120799, 5252.257615596965, 17488.69776591036, 2467.1632012323385, -0.018000000000000002, 0.934, 0.448, 192.0, 0.0, 0.0, 0.0, 0.0, 0.0, 0.0, 0.0, 0.0, 0.0, 1.6546750972301192E9, 0.0, 2022-06-08 09:58:17.230
27.0, 22077.242681651438, 36943.45497410953, -8935.355715198006, -11669.443448715621, 4419.789245103508, 5265.08751691431, 17483.06512630762, 2478.115556015439, -0.018000000000000002, 0.934, 0.448, 192.0, 0.0, 0.0, 0.0, 0.0, 0.0, 0.0, 0.0, 0.0, 0.0, 1.6546750972301252E9, 0.0, 2022-06-08 09:58:17.230
28.0, 22063.876338467162, 36930.64742453664, -8934.305183208608, -11668.974062082061, 4420.571556159443, 5267.546208804394, 17484.69680365286, 2442.4198201203135, -0.006, 0.928, 0.446, 192.0, 255.0, 208.0, 29.0, 0.0, 13.0, 240.0, 0.0, 0.0, 0.0, 1.6546750972301316E9, 0.0, 2022-06-08 09:58:17.230
29.0, 22046.285515580836, 36915.49294179594, -8940.966003056288, -11673.064431317382, 4413.575460144933, 5259.119601144744, 17476.35960297103, 2422.102084410439, -0.006, 0.928, 0.446, 192.0, 0.0, 0.0, 0.0, 0.0, 0.0, 0.0, 0.0, 0.0, 0.0, 1.6546750972301376E9, 0.0, 2022-06-08 09:58:17.230
30.0, 22042.910402168083, 36899.1091131102, -8944.564633913593, -11673.466762717577, 4411.496747910589, 5262.070031412844, 17487.535475198685, 2457.1272679719054, -0.006, 0.928, 0.446, 192.0, 0.0, 0.0, 0.0, 0.0, 0.0, 0.0, 0.0, 0.0, 0.0, 1.654675097230145E9, 0.0, 2022-06-08 09:58:17.230
31.0, 22042.239849834426, 36898.237395076445, -8946.464532192294, -11675.187847040635, 4409.619201376343, 5256.772667976937, 17493.79396364617, 2460.3459191734696, -0.006, 0.928, 0.446, 192.0, 0.0, 0.0, 0.0, 0.0, 0.0, 0.0, 0.0, 0.0, 0.0, 1.6546750972301517E9, 0.0, 2022-06-08 09:58:17.230
32.0, 22042.06103587878, 36906.77576145837, -8938.753180355214, -11659.653384644198, 4423.767855616553, 5270.228418139031, 17525.734606472804, 2485.1787072633156, -0.006, 0.928, 0.446, 192.0, 0.0, 0.0, 0.0, 0.0, 0.0, 0.0, 0.0, 0.0, 0.0, 1.6546750972301567E9, 0.0, 2022-06-08 09:58:17.230
33.0, 22028.851154905697, 36891.42011301757, -8935.28865996464, -11647.292869960413, 4427.388838218312, 5280.174944421643, 17526.405158806465, 2505.87642262893, -0.006, 0.928, 0.446, 192.0, 0.0, 0.0, 0.0, 0.0, 0.0, 0.0, 0.0, 0.0, 0.0, 1.654675097230162E9, 0.0, 2022-06-08 09:58:17.230
34.0, 22001.514971436856, 36887.888537393635, -8940.049581533622, -11645.616489126265, 4417.598774146888, 5283.125374689744, 17507.406176019453, 2535.0230973986504, -0.006, 0.928, 0.446, 192.0, 0.0, 0.0, 0.0, 0.0, 0.0, 0.0, 0.0, 0.0, 0.0, 1.6546750972301676E9, 0.0, 2022-06-08 09:58:17.230
35.0, 22007.885218606618, 36854.18210675503, -8955.896968352434, -11654.691297375119, 4404.724169340631, 5268.842609982802, 17499.09132708208, 2512.425483754335, -0.006, 0.928, 0.446, 192.0, 0.0, 0.0, 0.0, 0.0, 0.0, 0.0, 0.0, 0.0, 0.0, 1.6546750972301755E9, 0.0, 2022-06-08 09:58:17.230
36.0, 22029.611114217176, 36860.93233358054, -8951.381915972463, -11650.10918976178, 4409.283925209514, 5274.989339708011, 17497.683167181392, 2509.9667918642513, -0.006, 0.928, 0.446, 192.0, 0.0, 0.0, 0.0, 0.0, 0.0, 0.0, 0.0, 0.0, 0.0, 1.6546750972301812E9, 0.0, 2022-06-08 09:58:17.230
37.0, 22016.110660566173, 36885.76512167038, -8929.946593039822, -11633.211270953569, 4430.138102786315, 5297.385787652229, 17508.099080097567, 2519.488635002212, -0.006, 0.928, 0.446, 192.0, 0.0, 0.0, 0.0, 0.0, 0.0, 0.0, 0.0, 0.0, 0.0, 1.6546750972301872E9, 0.0, 2022-06-08 09:58:17.230
38.0, 21995.994090556396, 36884.20049955851, -8926.213851715785, -11631.981925008527, 4431.747428387097, 5294.457709128584, 17520.124318614522, 2504.490614472701, -0.004, 0.92, 0.45, 192.0, 255.0, 224.0, 28.0, 192.0, 14.0, 16.0, 0.0, 0.0, 0.0, 1.6546750972301955E9, 0.0, 2022-06-08 09:58:17.230
39.0, 22008.265198262357, 36888.06735134928, -8928.784302328146, -11636.072294243848, 4431.814483620463, 5284.399424123696, 17528.238001851798, 2471.924122801319, -0.004, 0.92, 0.45, 192.0, 0.0, 0.0, 0.0, 0.0, 0.0, 0.0, 0.0, 0.0, 0.0, 1.6546750972302036E9, 0.0, 2022-06-08 09:58:17.230
40.0, 22018.83757338972, 36887.01681935988, -8941.301279223118, -11650.891500817717, 4415.296544467991, 5265.713365759059, 17511.98828363279, 2414.726008740188, -0.004, 0.92, 0.45, 192.0, 0.0, 0.0, 0.0, 0.0, 0.0, 0.0, 0.0, 0.0, 0.0, 1.6546750972302105E9, 0.0, 2022-06-08 09:58:17.230
41.0, 22038.663570721576, 36906.127560869165, -8934.595755886527, -11650.578576395343, 4418.403436947279, 5276.844534497802, 17521.264257581744, 2439.715259041221, -0.004, 0.92, 0.45, 192.0, 0.0, 0.0, 0.0, 0.0, 0.0, 0.0, 0.0, 0.0, 0.0, 1.654675097230219E9, 0.0, 2022-06-08 09:58:17.230
42.0, 22070.335992614746, 36938.80581126283, -8908.913601507378, -11626.706913317075, 4451.327556529946, 5302.3925784102175, 17539.61503977955, 2498.5897539365, -0.004, 0.92, 0.45, 192.0, 0.0, 0.0, 0.0, 0.0, 0.0, 0.0, 0.0, 0.0, 0.0, 1.6546750972302296E9, 0.0, 2022-06-08 09:58:17.230
43.0, 22088.351498645723, 36959.190602206065, -8906.298447406107, -11618.146195190691, 4443.1021145703935, 5295.441185884618, 17528.57327801863, 2473.4216896798243, -0.004, 0.92, 0.45, 192.0, 0.0, 0.0, 0.0, 0.0, 0.0, 0.0, 0.0, 0.0, 0.0, 1.6546750972302427E9, 0.0, 2022-06-08 09:58:17.230
44.0, 22098.00745225042, 36968.421872666106, -8911.551107353105, -11620.4931283585, 4429.758123130575, 5287.551020091894, 17516.480984268306, 2454.646224337366, -0.004, 0.92, 0.45, 192.0, 0.0, 0.0, 0.0, 0.0, 0.0, 0.0, 0.0, 0.0, 0.0, 1.6546750972302523E9, 0.0, 2022-06-08 09:58:17.230
45.0, 22085.110495699704, 36967.237230209976, -8917.876651033957, -11627.802148795385, 4420.929184070728, 5289.696787559604, 17507.74145218628, 2482.5188496731344, -0.004, 0.92, 0.45, 192.0, 0.0, 0.0, 0.0, 0.0, 0.0, 0.0, 0.0, 0.0, 0.0, 1.6546750972302592E9, 0.0, 2022-06-08 09:58:17.230
46.0, 22090.296100413336, 36974.41214018013, -8925.699761593314, -11633.390084909212, 4415.609468890366, 5280.107889188277, 17486.060260064634, 2480.5518961610674, -0.004, 0.92, 0.45, 192.0, 0.0, 0.0, 0.0, 0.0, 0.0, 0.0, 0.0, 0.0, 0.0, 1.6546750972302675E9, 0.0, 2022-06-08 09:58:17.230
47.0, 22120.470955428, 36995.333372990295, -8909.874726518956, -11617.520346345944, 4427.0759137959385, 5290.85907827128, 17481.612262918028, 2522.416713525857, -0.004, 0.92, 0.45, 192.0, 0.0, 0.0, 0.0, 0.0, 0.0, 0.0, 0.0, 0.0, 0.0, 1.6546750972302754E9, 0.0, 2022-06-08 09:58:17.230
48.0, 22121.320321717303, 36999.71431490354, -8910.277057919153, -11624.11411096026, 4427.657059151776, 5294.792985295414, 17501.728832927805, 2519.8015594245862, -0.012, 0.916, 0.452, 192.0, 255.0, 160.0, 28.0, 160.0, 14.0, 32.0, 0.0, 0.0, 0.0, 1.6546750972302816E9, 0.0, 2022-06-08 09:58:17.230
49.0, 22131.311551488823, 37006.576300451314, -8909.360636396485, -11618.749692290985, 4426.852396351385, 5306.885279045735, 17519.47611802532, 2557.5089523206893, -0.012, 0.916, 0.452, 192.0, 0.0, 0.0, 0.0, 0.0, 0.0, 0.0, 0.0, 0.0, 0.0, 1.6546750972302907E9, 0.0, 2022-06-08 09:58:17.230
50.0, 22136.586563180277, 37004.02820158341, -8916.75906381119, -11627.757445306474, 4420.079817781427, 5302.414930154673, 17513.910533655948, 2542.198007368804, -0.012, 0.916, 0.452, 192.0, 0.0, 0.0, 0.0, 0.0, 0.0, 0.0, 0.0, 0.0, 0.0, 1.6546750972303011E9, 0.0, 2022-06-08 09:58:17.230
51.0, 22129.322246232303, 37010.75607666446, -8916.088511477532, -11627.533927861921, 4425.220719006147, 5301.252639442997, 17525.824013450627, 2534.8889869319187, -0.012, 0.916, 0.452, 192.0, 0.0, 0.0, 0.0, 0.0, 0.0, 0.0, 0.0, 0.0, 0.0, 1.6546750972303104E9, 0.0, 2022-06-08 09:58:17.230
52.0, 22157.597202968267, 37028.07867861732, -8900.732863036736, -11615.285171900412, 4431.278041753536, 5313.590802382327, 17528.975609418823, 2564.5274000796558, -0.012, 0.916, 0.452, 192.0, 0.0, 0.0, 0.0, 0.0, 0.0, 0.0, 0.0, 0.0, 0.0, 1.654675097230322E9, 0.0, 2022-06-08 09:58:17.230
53.0, 22168.035467628895, 37036.81821069935, -8893.915580977868, -11614.212288166558, 4441.962175603173, 5315.177776238654, 17543.459539825864, 2547.0930394045163, -0.012, 0.916, 0.452, 192.0, 0.0, 0.0, 0.0, 0.0, 0.0, 0.0, 0.0, 0.0, 0.0, 1.6546750972303336E9, 0.0, 2022-06-08 09:58:17.230
54.0, 22152.61276395473, 37035.47710603203, -8897.715377535269, -11622.3930266372, 4437.581233689933, 5311.109758747788, 17547.03581893871, 2525.814178683064, -0.012, 0.916, 0.452, 192.0, 0.0, 0.0, 0.0, 0.0, 0.0, 0.0, 0.0, 0.0, 0.0, 1.6546750972303407E9, 0.0, 2022-06-08 09:58:17.230
55.0, 22133.882002101185, 37028.23514082851, -8909.450043374305, -11637.905137289184, 4422.650268393787, 5299.844479542313, 17534.630600766017, 2505.474091228735, -0.012, 0.916, 0.452, 192.0, 0.0, 0.0, 0.0, 0.0, 0.0, 0.0, 0.0, 0.0, 0.0, 1.6546750972303486E9, 0.0, 2022-06-08 09:58:17.230
56.0, 22144.05204582835, 37038.539295022405, -8905.963171239278, -11643.157797236181, 4425.935974828717, 5299.956238264589, 17525.198164605878, 2494.432329467813, -0.012, 0.916, 0.452, 192.0, 0.0, 0.0, 0.0, 0.0, 0.0, 0.0, 0.0, 0.0, 0.0, 1.6546750972303555E9, 0.0, 2022-06-08 09:58:17.230
57.0, 22164.906223405153, 37062.90269647869, -8894.027339700144, -11625.432863883123, 4441.604547691888, 5310.618020369771, 17519.65493198096, 2505.6529051843772, -0.012, 0.916, 0.452, 192.0, 0.0, 0.0, 0.0, 0.0, 0.0, 0.0, 0.0, 0.0, 0.0, 1.6546750972303622E9, 0.0, 2022-06-08 09:58:17.230
58.0, 22175.366839810235, 37069.80938551538, -8881.33154884953, -11617.922677746139, 4445.896082627307, 5321.637430386238, 17508.076728353113, 2498.1650707918493, -0.03, 0.904, 0.452, 192.0, 255.0, 16.0, 28.0, 64.0, 14.0, 32.0, 0.0, 0.0, 0.0, 1.654675097230369E9, 0.0, 2022-06-08 09:58:17.230
59.0, 22163.94509839357, 37055.593676041804, -8892.9991594552, -11650.042134528416, 4429.758123130575, 5309.567488380371, 17503.8298969066, 2496.645152168888, -0.03, 0.904, 0.452, 192.0, 0.0, 0.0, 0.0, 0.0, 0.0, 0.0, 0.0, 0.0, 0.0, 1.6546750972303824E9, 0.0, 2022-06-08 09:58:17.230
60.0, 22159.139473335683, 37048.754042238485, -8907.639552073426, -11637.659268100175, 4422.784378860519, 5292.021368982955, 17507.629693464005, 2516.269983800648, -0.03, 0.904, 0.452, 192.0, 0.0, 0.0, 0.0, 0.0, 0.0, 0.0, 0.0, 0.0, 0.0, 1.6546750972303889E9, 0.0, 2022-06-08 09:58:17.230
61.0, 22161.776979181406, 37044.30604509188, -8912.601639342503, -11649.550396150398, 4421.242108493103, 5273.447069340596, 17503.964007373335, 2476.081547270006, -0.03, 0.904, 0.452, 192.0, 0.0, 0.0, 0.0, 0.0, 0.0, 0.0, 0.0, 0.0, 0.0, 1.6546750972304003E9, 0.0, 2022-06-08 09:58:17.230
62.0, 22173.82456944282, 37056.375987097745, -8901.716339792769, -11644.185977481126, 4429.3110882414685, 5292.110775960777, 17509.082556853602, 2471.231218723204, -0.03, 0.904, 0.452, 192.0, 0.0, 0.0, 0.0, 0.0, 0.0, 0.0, 0.0, 0.0, 0.0, 1.6546750972304063E9, 0.0, 2022-06-08 09:58:17.230
63.0, 22178.451380545066, 37064.80259475739, -8892.082737932533, -11627.06454122836, 4437.581233689933, 5304.493642389017, 17511.60830397705, 2477.534410659601, -0.03, 0.904, 0.452, 192.0, 0.0, 0.0, 0.0, 0.0, 0.0, 0.0, 0.0, 0.0, 0.0, 1.6546750972304132E9, 0.0, 2022-06-08 09:58:17.230
64.0, 22175.031563643406, 37064.17674591264, -8893.110918177475, -11637.838082055818, 4436.240129022614, 5307.667590101671, 17511.764766188237, 2492.0630445555503, -0.03, 0.904, 0.452, 192.0, 0.0, 0.0, 0.0, 0.0, 0.0, 0.0, 0.0, 0.0, 0.0, 1.6546750972304304E9, 0.0, 2022-06-08 09:58:17.230
65.0, 22172.304650819857, 37057.53827780941, -8899.145889180409, -11648.812788583373, 4424.997201561595, 5297.519898118961, 17482.171056529412, 2490.0066840656623, -0.03, 0.904, 0.452, 192.0, 0.0, 0.0, 0.0, 0.0, 0.0, 0.0, 0.0, 0.0, 0.0, 1.6546750972304392E9, 0.0, 2022-06-08 09:58:17.230
66.0, 22179.39015381219, 37062.63447554523, -8900.062310703077, -11652.16555025167, 4425.935974828717, 5296.782290551936, 17454.3207829381, 2483.949361318274, -0.03, 0.904, 0.452, 192.0, 0.0, 0.0, 0.0, 0.0, 0.0, 0.0, 0.0, 0.0, 0.0, 1.6546750972304468E9, 0.0, 2022-06-08 09:58:17.230
67.0, 22185.402773070666, 37071.396359371705, -8888.9981971977, -11640.54264313491, 4434.787265633019, 5302.14670922121, 17475.107905281533, 2490.6772363993214, -0.03, 0.904, 0.452, 192.0, 0.0, 0.0, 0.0, 0.0, 0.0, 0.0, 0.0, 0.0, 0.0, 1.6546750972304547E9, 0.0, 2022-06-08 09:58:17.230
68.0, 22176.260909588447, 37070.39053087122, -8886.003063440688, -11639.82738731234, 4439.145855801804, 5294.9941509955115, 17500.030100349202, 2469.711300100243, -0.044, 0.904, 0.456, 192.0, 254.0, 160.0, 28.0, 64.0, 14.0, 64.0, 0.0, 0.0, 0.0, 1.6546750972304616E9, 0.0, 2022-06-08 09:58:17.230
69.0, 22168.035467628895, 37070.56934482686, -8883.23144712823, -11637.078122744337, 4433.110884798871, 5299.799776053403, 17514.46932726733, 2477.9814455487067, -0.044, 0.904, 0.456, 192.0, 0.0, 0.0, 0.0, 0.0, 0.0, 0.0, 0.0, 0.0, 0.0, 1.6546750972304707E9, 0.0, 2022-06-08 09:58:17.230
70.0, 22171.790560697387, 37083.01926648847, -8882.09150816101, -11628.15977670667, 4433.177940032237, 5304.694808089114, 17512.569428988627, 2494.074701556528, -0.044, 0.904, 0.456, 192.0, 0.0, 0.0, 0.0, 0.0, 0.0, 0.0, 0.0, 0.0, 0.0, 1.6546750972304776E9, 0.0, 2022-06-08 09:58:17.230
71.0, 22180.954775924063, 37089.0542374914, -8879.18578138182, -11625.410512138667, 4437.40241973429, 5301.789081309925, 17495.35858575804, 2501.6742946713325, -0.044, 0.904, 0.456, 192.0, 0.0, 0.0, 0.0, 0.0, 0.0, 0.0, 0.0, 0.0, 0.0, 1.6546750972304862E9, 0.0, 2022-06-08 09:58:17.230
72.0, 22184.642813759187, 37088.33898166883, -8877.263531358663, -11629.813805796362, 4435.681335411231, 5299.173927208653, 17482.238111762777, 2468.7725268331205, -0.044, 0.904, 0.456, 192.0, 0.0, 0.0, 0.0, 0.0, 0.0, 0.0, 0.0, 0.0, 0.0, 1.6546750972305007E9, 0.0, 2022-06-08 09:58:17.230
73.0, 22194.902264464174, 37095.49153989453, -8874.648377257392, -11633.16656746466, 4436.508349956078, 5304.515994133472, 17481.36639372902, 2464.592750619978, -0.044, 0.904, 0.456, 192.0, 0.0, 0.0, 0.0, 0.0, 0.0, 0.0, 0.0, 0.0, 0.0, 1.654675097230512E9, 0.0, 2022-06-08 09:58:17.230
74.0, 22184.95573818156, 37086.372028156766, -8879.498705804195, -11642.554300135887, 4429.646364408299, 5300.917363276168, 17481.70166989585, 2528.4069810398796, -0.044, 0.904, 0.456, 192.0, 0.0, 0.0, 0.0, 0.0, 0.0, 0.0, 0.0, 0.0, 0.0, 1.6546750972305188E9, 0.0, 2022-06-08 09:58:17.230
75.0, 22158.692438446575, 37074.65971406218, -8890.160487909376, -11645.348268192802, 4424.885442839318, 5292.915438761168, 17486.663757164926, 2528.921071162352, -0.044, 0.904, 0.456, 192.0, 0.0, 0.0, 0.0, 0.0, 0.0, 0.0, 0.0, 0.0, 0.0, 1.6546750972305236E9, 0.0, 2022-06-08 09:58:17.230
76.0, 22150.3775895092, 37074.01151347298, -8894.697892033802, -11644.25303271449, 4427.187672518215, 5287.103985202788, 17498.55488521515, 2519.5780419800335, -0.044, 0.904, 0.456, 192.0, 0.0, 0.0, 0.0, 0.0, 0.0, 0.0, 0.0, 0.0, 0.0, 1.6546750972305987E9, 0.0, 2022-06-08 09:58:17.230
77.0, 22159.273583802413, 37086.17086245667, -8887.433575085828, -11637.234584955524, 4439.25761452408, 5298.749244064003, 17505.685091696392, 2533.9278619203405, -0.044, 0.904, 0.456, 192.0, 0.0, 0.0, 0.0, 0.0, 0.0, 0.0, 0.0, 0.0, 0.0, 1.65467509723061E9, 0.0, 2022-06-08 09:58:17.230
78.0, 22160.212357069537, 37092.6081648598, -8886.181877396331, -11633.703009331586, 4442.945652359206, 5307.28761044593, 17503.964007373335, 2519.8015594245862, -0.052000000000000005, 0.91, 0.454, 192.0, 254.0, 96.0, 28.0, 112.0, 14.0, 48.0, 0.0, 0.0, 0.0, 1.6546750972306147E9, 0.0, 2022-06-08 09:58:17.230
79.0, 22155.831415156295, 37086.61789734577, -8895.56961006756, -11636.809901810873, 4438.631765679332, 5300.939715020623, 17505.618036463027, 2504.870594128441, -0.052000000000000005, 0.91, 0.454, 192.0, 0.0, 0.0, 0.0, 0.0, 0.0, 0.0, 0.0, 0.0, 0.0, 1.6546750972306197E9, 0.0, 2022-06-08 09:58:17.230
80.0, 22146.28722027388, 37072.24572566101, -8905.717302050269, -11652.813750840873, 4429.959288830672, 5293.2954184169075, 17500.410080004942, 2531.3574113079803, -0.052000000000000005, 0.91, 0.454, 192.0, 0.0, 0.0, 0.0, 0.0, 0.0, 0.0, 0.0, 0.0, 0.0, 1.6546750972306244E9, 0.0, 2022-06-08 09:58:17.230
81.0, 22152.836281399286, 37084.09215022232, -8897.491860090717, -11643.493073403011, 4431.769780131553, 5295.038854484422, 17497.347891014564, 2525.389495538413, -0.052000000000000005, 0.91, 0.454, 192.0, 0.0, 0.0, 0.0, 0.0, 0.0, 0.0, 0.0, 0.0, 0.0, 1.6546750972306287E9, 0.0, 2022-06-08 09:58:17.230
82.0, 22168.035467628895, 37099.00076377401, -8886.785374496625, -11625.410512138667, 4440.151684302293, 5299.62096209776, 17497.70551892585, 2517.208757067771, -0.052000000000000005, 0.91, 0.454, 192.0, 0.0, 0.0, 0.0, 0.0, 0.0, 0.0, 0.0, 0.0, 0.0, 1.6546750972306364E9, 0.0, 2022-06-08 09:58:17.230
83.0, 22172.125836864216, 37110.1095807683, -8876.794144725101, -11620.068445213848, 4449.494713484611, 5302.683151088137, 17497.12437357001, 2513.4313122548238, -0.052000000000000005, 0.91, 0.454, 192.0, 0.0, 0.0, 0.0, 0.0, 0.0, 0.0, 0.0, 0.0, 0.0, 1.6546750972306418E9, 0.0, 2022-06-08 09:58:17.230
84.0, 22165.777941438908, 37103.89579580972, -8882.069156416555, -11625.902250516683, 4444.622033193354, 5298.90570627519, 17481.098172795555, 2482.4517944397685, -0.052000000000000005, 0.91, 0.454, 192.0, 0.0, 0.0, 0.0, 0.0, 0.0, 0.0, 0.0, 0.0, 0.0, 1.6546750972306466E9, 0.0, 2022-06-08 09:58:17.230
85.0, 22162.76045593744, 37090.52945262545, -8895.90488623439, -11640.92262279065, 4425.779512617531, 5292.691921316615, 17467.284794722174, 2456.635529593889, -0.052000000000000005, 0.91, 0.454, 192.0, 0.0, 0.0, 0.0, 0.0, 0.0, 0.0, 0.0, 0.0, 0.0, 1.6546750972306516E9, 0.0, 2022-06-08 09:58:17.230
86.0, 22168.77307519592, 37098.28550795144, -8893.625008299949, -11634.507672131977, 4432.775608632041, 5283.684168301126, 17476.56076867113, 2459.4742011397125, -0.052000000000000005, 0.91, 0.454, 192.0, 0.0, 0.0, 0.0, 0.0, 0.0, 0.0, 0.0, 0.0, 0.0, 1.6546750972306795E9, 0.0, 2022-06-08 09:58:17.230
87.0, 22176.596185755276, 37111.29422322443, -8883.790240739614, -11622.460081870566, 4449.695879184709, 5294.14478470621, 17505.819202163126, 2492.9347625893074, -0.052000000000000005, 0.91, 0.454, 192.0, 0.0, 0.0, 0.0, 0.0, 0.0, 0.0, 0.0, 0.0, 0.0, 1.6546750972306848E9, 0.0, 2022-06-08 09:58:17.230
88.0, 22185.11220039275, 37133.467153724094, -8880.482182560228, -11621.498956858988, 4448.175960561748, 5308.271087201963, 17503.56167597314, 2543.4273533138457, -0.054, 0.914, 0.456, 192.0, 254.0, 80.0, 28.0, 144.0, 14.0, 64.0, 0.0, 0.0, 0.0, 1.6546750972307148E9, 0.0, 2022-06-08 09:58:17.230
89.0, 22190.387212084202, 37147.72756668658, -8882.270322116652, -11626.125767961237, 4441.202216291692, 5298.793947552914, 17483.71332689683, 2528.518739762156, -0.054, 0.914, 0.456, 192.0, 0.0, 0.0, 0.0, 0.0, 0.0, 0.0, 0.0, 0.0, 0.0, 1.65467509723072E9, 0.0, 2022-06-08 09:58:17.230
90.0, 22145.840185384775, 37102.86761556478, -8889.489935575717, -11629.746750562996, 4442.543320959011, 5293.831860283835, 17481.053469306644, 2502.456605727268, -0.054, 0.914, 0.456, 192.0, 0.0, 0.0, 0.0, 0.0, 0.0, 0.0, 0.0, 0.0, 0.0, 1.6546750972307243E9, 0.0, 2022-06-08 09:58:17.230
91.0, 22123.04140604036, 37079.308876908886, -8899.838793258523, -11639.872090801251, 4444.420867493256, 5289.76384279297, 17483.445105963365, 2472.1923437347823, -0.054, 0.914, 0.456, 192.0, 0.0, 0.0, 0.0, 0.0, 0.0, 0.0, 0.0, 0.0, 0.0, 1.654675097230729E9, 0.0, 2022-06-08 09:58:17.230
92.0, 22134.418443968112, 37080.60527808729, -8889.33347336453, -11639.089779745314, 4450.992280363117, 5295.038854484422, 17482.84160886307, 2493.5382596896006, -0.054, 0.914, 0.456, 192.0, 0.0, 0.0, 0.0, 0.0, 0.0, 0.0, 0.0, 0.0, 0.0, 1.6546750972307339E9, 0.0, 2022-06-08 09:58:17.230
93.0, 22135.312513746325, 37077.58779258583, -8882.963226194766, -11629.97026800755, 4453.428620508745, 5301.744377821014, 17489.435373477387, 2540.9239579348514, -0.054, 0.914, 0.456, 192.0, 0.0, 0.0, 0.0, 0.0, 0.0, 0.0, 0.0, 0.0, 0.0, 1.6546750972307389E9, 0.0, 2022-06-08 09:58:17.230
94.0, 22122.303798473335, 37057.828850487334, -8892.753290266191, -11625.63402958322, 4445.270233782558, 5295.441185884618, 17508.56846673113, 2565.8238012580637, -0.054, 0.914, 0.456, 192.0, 0.0, 0.0, 0.0, 0.0, 0.0, 0.0, 0.0, 0.0, 0.0, 1.6546750972307456E9, 0.0, 2022-06-08 09:58:17.230
95.0, 22099.080335984272, 37038.7404607225, -8910.947610252812, -11642.77781758044, 4432.4179807207565, 5281.001958966489, 17501.03592884969, 2545.0813824035386, -0.054, 0.914, 0.456, 192.0, 0.0, 0.0, 0.0, 0.0, 0.0, 0.0, 0.0, 0.0, 0.0, 1.65467509723075E9, 0.0, 2022-06-08 09:58:17.230
96.0, 22094.632338837666, 37035.27594033193, -8915.596773099514, -11659.094591032816, 4434.787265633019, 5269.714328016559, 17503.628731206507, 2502.1883847938043, -0.054, 0.914, 0.456, 192.0, 0.0, 0.0, 0.0, 0.0, 0.0, 0.0, 0.0, 0.0, 0.0, 1.6546750972307549E9, 0.0, 2022-06-08 09:58:17.230
97.0, 22102.589559863754, 37042.607312513275, -8909.785319541135, -11650.779742095441, 4442.096286069905, 5273.067089684855, 17499.56071371564, 2491.392492221891, -0.054, 0.914, 0.456, 192.0, 0.0, 0.0, 0.0, 0.0, 0.0, 0.0, 0.0, 0.0, 0.0, 1.6546750972307591E9, 0.0, 2022-06-08 09:58:17.230
98.0, 22110.479725656478, 37051.548010295395, -8903.012740971177, -11644.789474581417, 4445.940786116217, 5282.812450267369, 17496.967911358824, 2525.9259374053404, -0.036000000000000004, 0.916, 0.454, 192.0, 254.0, 224.0, 28.0, 160.0, 14.0, 48.0, 0.0, 0.0, 0.0, 1.6546750972307637E9, 0.0, 2022-06-08 09:58:17.230
99.0, 22127.645865398154, 37067.9988942145, -8900.107014191988, -11641.548471635399, 4447.930091372739, 5286.142860191209, 17499.828934649104, 2526.0600478720726, -0.036000000000000004, 0.916, 0.454, 192.0, 0.0, 0.0, 0.0, 0.0, 0.0, 0.0, 0.0, 0.0, 0.0, 1.654675097230768E9, 0.0, 2022-06-08 09:58:17.230
100.0, 22104.71297558701, 37048.262303860465, -8922.011723758189, -11667.208274270091, 4428.841701607907, 5259.588987778305, 17470.50344592374, 2477.4450036817793, -0.036000000000000004, 0.916, 0.454, 192.0, 0.0, 0.0, 0.0, 0.0, 0.0, 0.0, 0.0, 0.0, 0.0, 1.6546750972307725E9, 0.0, 2022-06-08 09:58:17.230
101.0, 22104.735327331466, 37048.44111781611, -8930.237165717741, -11669.130524293247, 4425.779512617531, 5253.844589453291, 17455.416018416407, 2450.7123173132322, -0.036000000000000004, 0.916, 0.454, 192.0, 0.0, 0.0, 0.0, 0.0, 0.0, 0.0, 0.0, 0.0, 0.0, 1.6546750972307773E9, 0.0, 2022-06-08 09:58:17.230
102.0, 22116.537048403865, 37065.249629646496, -8918.614258600981, -11658.602852654798, 4437.692992412209, 5263.835819224813, 17473.83385584758, 2508.2904110301033, -0.036000000000000004, 0.916, 0.454, 192.0, 0.0, 0.0, 0.0, 0.0, 0.0, 0.0, 0.0, 0.0, 0.0, 1.654675097230782E9, 0.0, 2022-06-08 09:58:17.230
103.0, 22120.716824617008, 37075.21850767356, -8911.551107353105, -11651.606756640287, 4444.107943070882, 5270.675453028137, 17497.638463692485, 2523.9366321488183, -0.036000000000000004, 0.916, 0.454, 192.0, 0.0, 0.0, 0.0, 0.0, 0.0, 0.0, 0.0, 0.0, 0.0, 1.6546750972307868E9, 0.0, 2022-06-08 09:58:17.230
104.0, 22124.226048496494, 37076.89488850771, -8910.210002685786, -11649.706858361586, 4440.2857947690245, 5271.033080939422, 17497.90668462595, 2518.505158246179, -0.036000000000000004, 0.916, 0.454, 192.0, 0.0, 0.0, 0.0, 0.0, 0.0, 0.0, 0.0, 0.0, 0.0, 1.6546750972307916E9, 0.0, 2022-06-08 09:58:17.230
105.0, 22116.358234448224, 37066.076644191344, -8927.689066849836, -11656.92647182065, 4429.6016609193875, 5260.393650578696, 17488.206027532342, 2517.208757067771, -0.036000000000000004, 0.916, 0.454, 192.0, 0.0, 0.0, 0.0, 0.0, 0.0, 0.0, 0.0, 0.0, 0.0, 1.6546750972307963E9, 0.0, 2022-06-08 09:58:17.230
106.0, 22123.4213856961, 37067.37304536975, -8929.186633728343, -11653.461951430078, 4428.148797529793, 5266.5850837928165, 17492.229341534297, 2517.208757067771, -0.036000000000000004, 0.916, 0.454, 192.0, 0.0, 0.0, 0.0, 0.0, 0.0, 0.0, 0.0, 0.0, 0.0, 1.6546750977131588E9, 0.0, 2022-06-08 09:58:17.713
107.0, 22132.250324755947, 37080.87349902076, -8914.00979924319, -11643.560128636376, 4440.509312213578, 5275.637540297215, 17498.867809637526, 2514.817120411053, -0.024, 0.904, 0.448, 192.0, 255.0, 64.0, 28.0, 64.0, 14.0, 0.0, 0.0, 0.0, 0.0, 1.6546750977131763E9, 0.0, 2022-06-08 09:58:17.713
108.0, 22129.702225888042, 37087.31080142389, -8916.021456244165, -11644.58830888132, 4444.845550637907, 5277.582142064827, 17490.1282775555, 2496.309876002059, -0.024, 0.904, 0.448, 192.0, 0.0, 0.0, 0.0, 0.0, 0.0, 0.0, 0.0, 0.0, 0.0, 1.6546750977133465E9, 0.0, 2022-06-08 09:58:17.713
109.0, 22124.226048496494, 37081.678161821146, -8918.994238256722, -11650.891500817717, 4436.865977867363, 5268.373223349241, 17485.9261495979, 2473.533448402101, -0.024, 0.904, 0.448, 192.0, 0.0, 0.0, 0.0, 0.0, 0.0, 0.0, 0.0, 0.0, 0.0, 1.6546750977133515E9, 0.0, 2022-06-08 09:58:17.713
110.0, 22116.022958281395, 37077.52073735246, -8927.756122083203, -11658.759314865985, 4427.411189962768, 5258.560807533361, 17483.46745770782, 2455.7638115601317, -0.024, 0.904, 0.448, 192.0, 0.0, 0.0, 0.0, 0.0, 0.0, 0.0, 0.0, 0.0, 0.0, 1.6546750977133572E9, 0.0, 2022-06-08 09:58:17.713
111.0, 22119.19690599405, 37082.19225194362, -8926.280906949152, -11658.200521254603, 4432.149759787293, 5260.684223256615, 17482.774553629704, 2480.1942682497825, -0.024, 0.904, 0.448, 192.0, 0.0, 0.0, 0.0, 0.0, 0.0, 0.0, 0.0, 0.0, 0.0, 1.6546750977133627E9, 0.0, 2022-06-08 09:58:17.713
112.0, 22135.111348046226, 37089.27775493595, -8911.461700375283, -11645.281212959435, 4441.693954669709, 5276.486906586517, 17486.75316414275, 2534.106675875983, -0.024, 0.904, 0.448, 192.0, 0.0, 0.0, 0.0, 0.0, 0.0, 0.0, 0.0, 0.0, 0.0, 1.6546750977133687E9, 0.0, 2022-06-08 09:58:17.713
113.0, 22135.647789913153, 37094.37395267176, -8907.661903817881, -11646.73407634903, 4442.699783170197, 5283.751223534492, 17465.630765632483, 2538.107638133483, -0.024, 0.904, 0.448, 192.0, 0.0, 0.0, 0.0, 0.0, 0.0, 0.0, 0.0, 0.0, 0.0, 1.654675097713374E9, 0.0, 2022-06-08 09:58:17.713
114.0, 22124.784842107874, 37090.261231691984, -8914.590944599026, -11665.286024246934, 4432.775608632041, 5275.503429830484, 17443.949573510836, 2535.6042427544885, -0.024, 0.904, 0.448, 192.0, 0.0, 0.0, 0.0, 0.0, 0.0, 0.0, 0.0, 0.0, 0.0, 1.65467509771338E9, 0.0, 2022-06-08 09:58:17.713
115.0, 22116.626455381687, 37084.36037115579, -8925.409188915395, -11665.241320758025, 4423.365524216357, 5259.61133952276, 17451.146835225445, 2512.693704687799, -0.024, 0.904, 0.448, 192.0, 0.0, 0.0, 0.0, 0.0, 0.0, 0.0, 0.0, 0.0, 0.0, 1.6546750977133849E9, 0.0, 2022-06-08 09:58:17.713
116.0, 22121.029749039382, 37084.58388860034, -8926.10209299351, -11660.88273058924, 4428.595832418899, 5255.252749353976, 17473.40917270293, 2493.3817974784133, -0.024, 0.904, 0.448, 192.0, 0.0, 0.0, 0.0, 0.0, 0.0, 0.0, 0.0, 0.0, 0.0, 1.6546750977133899E9, 0.0, 2022-06-08 09:58:17.713
117.0, 22131.28919974437, 37097.19027247313, -8922.749331325214, -11657.015878798471, 4435.346059244402, 5263.344080846797, 17483.199236774355, 2476.9979687926734, -0.018000000000000002, 0.916, 0.456, 192.0, 255.0, 112.0, 28.0, 160.0, 14.0, 64.0, 0.0, 0.0, 0.0, 1.6546750977133946E9, 0.0, 2022-06-08 09:58:17.713
118.0, 22138.017074825417, 37106.60035688882, -8915.417959143873, -11647.002297282494, 4434.54139644401, 5274.542304818905, 17481.768725129215, 2510.9949721091953, -0.018000000000000002, 0.916, 0.456, 192.0, 0.0, 0.0, 0.0, 0.0, 0.0, 0.0, 0.0, 0.0, 0.0, 1.6546750977133994E9, 0.0, 2022-06-08 09:58:17.713
119.0, 22139.76051089293, 37113.57410115887, -8899.682331047337, -11641.392009424211, 4447.527759972544, 5287.394557880707, 17509.306074298154, 2559.788830255131, -0.018000000000000002, 0.916, 0.456, 192.0, 0.0, 0.0, 0.0, 0.0, 0.0, 0.0, 0.0, 0.0, 0.0, 1.6546750977134044E9, 0.0, 2022-06-08 09:58:17.713
120.0, 22130.23866775497, 37099.04546726292, -8916.312028922084, -11654.534835163931, 4433.446160965701, 5269.1108309162655, 17521.487775026297, 2528.272870573148, -0.018000000000000002, 0.916, 0.456, 192.0, 0.0, 0.0, 0.0, 0.0, 0.0, 0.0, 0.0, 0.0, 0.0, 1.6546750977134092E9, 0.0, 2022-06-08 09:58:17.713
121.0, 22151.115197076226, 37110.02017379048, -8909.427691629851, -11637.569861122354, 4441.537492458522, 5269.200237894087, 17534.965876932845, 2523.914280404363, -0.018000000000000002, 0.916, 0.456, 192.0, 0.0, 0.0, 0.0, 0.0, 0.0, 0.0, 0.0, 0.0, 0.0, 1.654675097713414E9, 0.0, 2022-06-08 09:58:17.713
122.0, 22162.827511170806, 37121.75483962952, -8904.912639249878, -11634.3959134097, 4449.740582673619, 5277.671549042649, 17523.56648726064, 2523.8025216820865, -0.018000000000000002, 0.916, 0.456, 192.0, 0.0, 0.0, 0.0, 0.0, 0.0, 0.0, 0.0, 0.0, 0.0, 1.6546750977134187E9, 0.0, 2022-06-08 09:58:17.713
123.0, 22153.28331628839, 37119.854941350815, -8909.986485241234, -11640.050904756894, 4443.169169803759, 5274.542304818905, 17507.383824274995, 2517.7228471902426, -0.018000000000000002, 0.916, 0.456, 192.0, 0.0, 0.0, 0.0, 0.0, 0.0, 0.0, 0.0, 0.0, 0.0, 1.6546750977134235E9, 0.0, 2022-06-08 09:58:17.713
124.0, 22136.564211435823, 37112.47886568056, -8917.653133589403, -11651.226776984548, 4433.177940032237, 5274.698767030092, 17492.542265956672, 2497.650980669377, -0.018000000000000002, 0.916, 0.456, 192.0, 0.0, 0.0, 0.0, 0.0, 0.0, 0.0, 0.0, 0.0, 0.0, 1.6546750977134285E9, 0.0, 2022-06-08 09:58:17.713
125.0, 22120.80623159483, 37103.76168534299, -8926.213851715785, -11663.11790503477, 4426.83004460693, 5259.61133952276, 17481.992242573768, 2483.077643284517, -0.018000000000000002, 0.916, 0.456, 192.0, 0.0, 0.0, 0.0, 0.0, 0.0, 0.0, 0.0, 0.0, 0.0, 1.6546750977134333E9, 0.0, 2022-06-08 09:58:17.713
126.0, 22115.888847814662, 37108.589662145336, -8923.33047668105, -11656.010050297982, 4429.758123130575, 5267.255636126475, 17486.730812398295, 2498.7685678921425, -0.018000000000000002, 0.916, 0.456, 192.0, 0.0, 0.0, 0.0, 0.0, 0.0, 0.0, 0.0, 0.0, 0.0, 1.654675097713438E9, 0.0, 2022-06-08 09:58:17.713
127.0, 22128.294065987357, 37118.49148493904, -8900.28582814763, -11644.454198414589, 4443.3926872483125, 5280.845496755302, 17502.04175735018, 2520.203890824782, -0.02, 0.918, 0.456, 192.0, 255.0, 96.0, 28.0, 176.0, 14.0, 64.0, 0.0, 0.0, 0.0, 1.6546750977134428E9, 0.0, 2022-06-08 09:58:17.713
128.0, 22129.948095077052, 37116.68099363816, -8899.324703136052, -11652.478474674044, 4441.984527347628, 5278.230342654031, 17501.99705386127, 2499.7073411592655, -0.02, 0.918, 0.456, 192.0, 0.0, 0.0, 0.0, 0.0, 0.0, 0.0, 0.0, 0.0, 0.0, 1.6546750977134497E9, 0.0, 2022-06-08 09:58:17.713
129.0, 22125.455394441535, 37109.34962145682, -8908.041883473621, -11662.156780023191, 4433.736733643619, 5277.000996708989, 17485.12148679751, 2510.950268620285, -0.02, 0.918, 0.456, 192.0, 0.0, 0.0, 0.0, 0.0, 0.0, 0.0, 0.0, 0.0, 0.0, 1.6546750977134545E9, 0.0, 2022-06-08 09:58:17.713
130.0, 22124.784842107874, 37108.50025516752, -8913.607467842992, -11676.037213329937, 4430.763951631064, 5272.240075140009, 17488.116620554523, 2520.5391669916116, -0.02, 0.918, 0.456, 192.0, 0.0, 0.0, 0.0, 0.0, 0.0, 0.0, 0.0, 0.0, 0.0, 1.6546750977134593E9, 0.0, 2022-06-08 09:58:17.713
131.0, 22129.702225888042, 37116.144551771235, -8906.834889273036, -11663.609643412787, 4431.4792074536335, 5268.954368705078, 17488.965986843825, 2517.87930940143, -0.02, 0.918, 0.456, 192.0, 0.0, 0.0, 0.0, 0.0, 0.0, 0.0, 0.0, 0.0, 0.0, 1.654675097713464E9, 0.0, 2022-06-08 09:58:17.713
132.0, 22128.316417731814, 37115.98808956004, -8907.348979395507, -11660.323936977857, 4434.831969121929, 5266.026290181433, 17478.862998350025, 2507.5080999741676, -0.02, 0.918, 0.456, 192.0, 0.0, 0.0, 0.0, 0.0, 0.0, 0.0, 0.0, 0.0, 0.0, 1.6546750977134688E9, 0.0, 2022-06-08 09:58:17.713
133.0, 22126.841202597763, 37121.307804740405, -8901.693988048315, -11656.479436931544, 4441.090457569416, 5264.394612836196, 17483.825085619104, 2487.3468264754806, -0.02, 0.918, 0.456, 192.0, 0.0, 0.0, 0.0, 0.0, 0.0, 0.0, 0.0, 0.0, 0.0, 1.6546750977134738E9, 0.0, 2022-06-08 09:58:17.713
134.0, 22120.515658916913, 37121.732487885056, -8904.510307849683, -11656.144160764714, 4434.787265633019, 5259.253711611475, 17487.691937409872, 2464.7045093422544, -0.02, 0.918, 0.456, 192.0, 0.0, 0.0, 0.0, 0.0, 0.0, 0.0, 0.0, 0.0, 0.0, 1.6546750977134788E9, 0.0, 2022-06-08 09:58:17.713
135.0, 22118.302836215837, 37116.94921457162, -8913.29454342062, -11665.330727735845, 4424.751332372586, 5258.985490678012, 17464.64728887645, 2511.397303509391, -0.02, 0.918, 0.456, 192.0, 0.0, 0.0, 0.0, 0.0, 0.0, 0.0, 0.0, 0.0, 0.0, 1.6546750977134836E9, 0.0, 2022-06-08 09:58:17.713
136.0, 22116.51469665941, 37117.753877372015, -8910.612334085981, -11666.515370191977, 4431.59096617591, 5264.036984924911, 17469.9223005679, 2531.7597427081755, -0.02, 0.918, 0.456, 192.0, 0.0, 0.0, 0.0, 0.0, 0.0, 0.0, 0.0, 0.0, 0.0, 1.6546750977134883E9, 0.0, 2022-06-08 09:58:17.713
137.0, 22128.450528198544, 37127.70040365463, -8908.287752662629, -11667.476495203555, 4442.900948870296, 5263.679357013626, 17492.296396767666, 2522.2378995702147, -0.022, 0.92, 0.456, 192.0, 255.0, 80.0, 28.0, 192.0, 14.0, 64.0, 0.0, 0.0, 0.0, 1.654675097713493E9, 0.0, 2022-06-08 09:58:17.713
138.0, 22132.13856603367, 37128.929749599665, -8905.359674138985, -11659.273404988457, 4445.672565182754, 5265.512200058961, 17500.432431749396, 2521.1873675808156, -0.022, 0.92, 0.456, 192.0, 0.0, 0.0, 0.0, 0.0, 0.0, 0.0, 0.0, 0.0, 0.0, 1.654675097713498E9, 0.0, 2022-06-08 09:58:17.713
139.0, 22104.824734309284, 37103.58287138735, -8912.087549220032, -11677.110097063793, 4439.25761452408, 5257.107944143766, 17495.78326890269, 2497.2262975247263, -0.022, 0.92, 0.456, 192.0, 0.0, 0.0, 0.0, 0.0, 0.0, 0.0, 0.0, 0.0, 0.0, 1.654675097713503E9, 0.0, 2022-06-08 09:58:17.713
140.0, 22094.498228370932, 37099.00076377401, -8928.33726743904, -11691.236399559546, 4426.360657973368, 5236.499635755973, 17472.2245302468, 2452.9698435032183, -0.022, 0.92, 0.456, 192.0, 0.0, 0.0, 0.0, 0.0, 0.0, 0.0, 0.0, 0.0, 0.0, 1.6546750977135077E9, 0.0, 2022-06-08 09:58:17.713
141.0, 22096.241664438447, 37104.745162099025, -8929.790130828635, -11682.69803317762, 4427.366486473857, 5247.206121350065, 17474.482056436784, 2492.420672466835, -0.022, 0.92, 0.456, 192.0, 0.0, 0.0, 0.0, 0.0, 0.0, 0.0, 0.0, 0.0, 0.0, 1.6546750977135124E9, 0.0, 2022-06-08 09:58:17.713
142.0, 22112.916065802106, 37116.837455849345, -8920.603563857505, -11667.78941962593, 4441.939823858717, 5262.427659324129, 17491.581140945094, 2556.011385442184, -0.022, 0.92, 0.456, 192.0, 0.0, 0.0, 0.0, 0.0, 0.0, 0.0, 0.0, 0.0, 0.0, 1.6546750977135177E9, 0.0, 2022-06-08 09:58:17.713
143.0, 22127.221182253503, 37129.53324669996, -8909.137118951932, -11664.011974812982, 4449.427658251245, 5264.081688413821, 17485.859094364536, 2525.5012542606896, -0.022, 0.92, 0.456, 192.0, 0.0, 0.0, 0.0, 0.0, 0.0, 0.0, 0.0, 0.0, 0.0, 1.6546750977135224E9, 0.0, 2022-06-08 09:58:17.713
144.0, 22113.22899022448, 37123.87825535277, -8911.394645141918, -11677.31126276389, 4440.911643613773, 5256.884426699213, 17476.31489948212, 2501.9872190937067, -0.022, 0.92, 0.456, 192.0, 0.0, 0.0, 0.0, 0.0, 0.0, 0.0, 0.0, 0.0, 0.0, 1.6546750977135272E9, 0.0, 2022-06-08 09:58:17.713
145.0, 22104.958844776018, 37123.18535127465, -8920.223584201764, -11679.479381976054, 4439.101152312894, 5253.777534219925, 17478.304204738644, 2517.16405357886, -0.022, 0.92, 0.456, 192.0, 0.0, 0.0, 0.0, 0.0, 0.0, 0.0, 0.0, 0.0, 0.0, 1.654675097713532E9, 0.0, 2022-06-08 09:58:17.713
146.0, 22109.205676222526, 37119.87729309527, -8921.072950491065, -11683.323882022367, 4439.59289069091, 5251.251787096476, 17493.682204923894, 2535.9395189213183, -0.022, 0.92, 0.456, 192.0, 0.0, 0.0, 0.0, 0.0, 0.0, 0.0, 0.0, 0.0, 0.0, 1.6546750977135367E9, 0.0, 2022-06-08 09:58:17.713
147.0, 22124.538972918865, 37127.946272843634, -8909.628857329948, -11663.4531812016, 4455.015594365072, 5259.767801733948, 17516.637446479494, 2550.691670261821, -0.024, 0.916, 0.456, 192.0, 255.0, 64.0, 28.0, 160.0, 14.0, 64.0, 0.0, 0.0, 0.0, 1.6546750977135417E9, 0.0, 2022-06-08 09:58:17.713
148.0, 22120.023920538893, 37131.83547637886, -8909.71826430777, -11667.767067881474, 4454.970890876161, 5260.907740701168, 17506.31094054114, 2522.8637484149635, -0.024, 0.916, 0.456, 192.0, 0.0, 0.0, 0.0, 0.0, 0.0, 0.0, 0.0, 0.0, 0.0, 1.6546750977135468E9, 0.0, 2022-06-08 09:58:17.713
149.0, 22095.74992606043, 37115.54105467094, -8919.284810934641, -11686.229608801557, 4437.961213345672, 5250.2683103404415, 17474.325594225596, 2470.292445456081, -0.024, 0.916, 0.456, 192.0, 0.0, 0.0, 0.0, 0.0, 0.0, 0.0, 0.0, 0.0, 0.0, 1.654675097713552E9, 0.0, 2022-06-08 09:58:17.713
150.0, 22085.624585822177, 37104.02990627645, -8933.455816919306, -11694.79032692794, 4423.3208207274465, 5232.208100820554, 17450.520986380696, 2476.6179891369334, -0.024, 0.916, 0.456, 192.0, 0.0, 0.0, 0.0, 0.0, 0.0, 0.0, 0.0, 0.0, 0.0, 1.6546750977135568E9, 0.0, 2022-06-08 09:58:17.713
151.0, 22091.123114958184, 37113.73056337006, -8931.310049451597, -11686.676643690664, 4427.187672518215, 5235.739676444492, 17445.82712004508, 2531.558577008078, -0.024, 0.916, 0.456, 192.0, 0.0, 0.0, 0.0, 0.0, 0.0, 0.0, 0.0, 0.0, 0.0, 1.6546750977135615E9, 0.0, 2022-06-08 09:58:17.713
152.0, 22102.053117996827, 37119.45260995062, -8925.520947637671, -11682.742736666529, 4431.725076642642, 5239.8747491687245, 17454.387838171464, 2538.8899491894185, -0.024, 0.916, 0.456, 192.0, 0.0, 0.0, 0.0, 0.0, 0.0, 0.0, 0.0, 0.0, 0.0, 1.6546750977135663E9, 0.0, 2022-06-08 09:58:17.713
