%OpenBCI Raw EEG Data
%Number of channels = 8
%Sample Rate = 250 Hz
%Board = OpenBCI_GUI$BoardCytonSerial
Sample Index, EXG Channel 0, EXG Channel 1, EXG Channel 2, EXG Channel 3, EXG Channel 4, EXG Channel 5, EXG Channel 6, EXG Channel 7, Accel Channel 0, Accel Channel 1, Accel Channel 2, Other, Other, Other, Other, Other, Other, Other, Analog Channel 0, Analog Channel 1, Analog Channel 2, Timestamp, Other, Timestamp (Formatted)
0.0, 0.0, 0.0, 0.0, 0.0, 0.0, 0.0, 0.0, 0.0, 0.0, 0.0, 0.0, 192.0, 0.0, 0.0, 0.0, 0.0, 0.0, 0.0, 0.0, 0.0, 0.0, 1.6527906723379614E9, 0.0, 2022-05-17 14:31:12.337
1.0, 81755.70747324318, 61294.02652907688, 26777.38985745786, 13113.947285884296, 81742.47524052564, 19100.526762071462, 18501.723528113787, 65010.361672682964, -0.078, 1.004, 0.178, 192.0, 253.0, 144.0, 31.0, 96.0, 5.0, 144.0, 0.0, 0.0, 0.0, 1.6527906728236296E9, 0.0, 2022-05-17 14:31:12.823
2.0, 81744.28573182652, 61288.66211040761, 26767.175110241787, 13101.16208805586, 81982.01888585316, 18979.134437934692, 18406.102765333984, 64925.87207864191, -0.078, 1.004, 0.178, 192.0, 0.0, 0.0, 0.0, 0.0, 0.0, 0.0, 0.0, 0.0, 0.0, 1.6527906728237405E9, 0.0, 2022-05-17 14:31:12.823
3.0, 81759.70843550068, 61323.44142478007, 26794.91362511082, 13142.713980998276, 81072.6828661779, 18978.41918211212, 18313.09715665545, 64750.61205036784, -0.078, 1.004, 0.178, 192.0, 0.0, 0.0, 0.0, 0.0, 0.0, 0.0, 0.0, 0.0, 0.0, 1.6527906728237486E9, 0.0, 2022-05-17 14:31:12.823
4.0, 81788.09515095892, 61352.96807920553, 26830.341140072484, 13193.519496145189, 80249.66928358904, 19096.39168934723, 18351.653915840856, 64704.14277364526, -0.078, 1.004, 0.178, 192.0, 0.0, 0.0, 0.0, 0.0, 0.0, 0.0, 0.0, 0.0, 0.0, 1.6527906728237543E9, 0.0, 2022-05-17 14:31:12.823
5.0, 81781.61314506688, 61331.71157022853, 26816.326596299004, 13174.073478469072, 80645.85395405936, 19179.65193744325, 18470.118161453982, 64857.78866503104, -0.078, 1.004, 0.178, 192.0, 0.0, 0.0, 0.0, 0.0, 0.0, 0.0, 0.0, 0.0, 0.0, 1.6527906728237603E9, 0.0, 2022-05-17 14:31:12.823
6.0, 81742.65405448127, 61280.906055081614, 26766.213985230206, 13109.275771293136, 81742.58699924791, 19120.151593703224, 18512.072385796593, 65032.601658415995, -0.078, 1.004, 0.178, 192.0, 0.0, 0.0, 0.0, 0.0, 0.0, 0.0, 0.0, 0.0, 0.0, 1.6527906728237655E9, 0.0, 2022-05-17 14:31:12.823
7.0, 81738.4966300126, 61278.98380505846, 26760.62604911638, 13099.329245010525, 82020.01685142718, 18996.18881895409, 18411.891867147908, 64976.09644843298, -0.078, 1.004, 0.178, 192.0, 0.0, 0.0, 0.0, 0.0, 0.0, 0.0, 0.0, 0.0, 0.0, 1.6527906728237712E9, 0.0, 2022-05-17 14:31:12.823
8.0, 81763.30706635799, 61321.07213986781, 26797.037040834075, 13146.200853133305, 81101.40485780298, 18984.4318013706, 18316.405214834835, 64782.038603072004, -0.078, 0.998, 0.218, 192.0, 253.0, 144.0, 31.0, 48.0, 6.0, 208.0, 0.0, 0.0, 0.0, 1.6527906728237767E9, 0.0, 2022-05-17 14:31:12.823
9.0, 81789.88329051534, 61348.69889601456, 26830.676416239312, 13192.312501944603, 80267.75184485338, 19110.942674987637, 18360.616965367433, 64730.51783210252, -0.078, 0.998, 0.218, 192.0, 0.0, 0.0, 0.0, 0.0, 0.0, 0.0, 0.0, 0.0, 0.0, 1.652790672823782E9, 0.0, 2022-05-17 14:31:12.823
10.0, 81776.0028572086, 61317.89819215515, 26805.35188977145, 13174.766382547186, 80663.86946009034, 19192.012452127034, 18480.064687736594, 64895.69722362724, -0.078, 0.998, 0.218, 192.0, 0.0, 0.0, 0.0, 0.0, 0.0, 0.0, 0.0, 0.0, 0.0, 1.6527906728237877E9, 0.0, 2022-05-17 14:31:12.823
11.0, 81757.45090931069, 61289.22090401899, 26777.702781880234, 13121.613934232466, 81711.7415918996, 19124.487832127554, 18514.70989164232, 65018.36359719797, -0.078, 0.998, 0.218, 192.0, 0.0, 0.0, 0.0, 0.0, 0.0, 0.0, 0.0, 0.0, 0.0, 1.652790672823793E9, 0.0, 2022-05-17 14:31:12.823
12.0, 81752.53352553053, 61287.27630225138, 26772.15954925532, 13113.299085295092, 81983.2482317982, 19009.890438305192, 18433.997742414205, 64941.719465460716, -0.078, 0.998, 0.218, 192.0, 0.0, 0.0, 0.0, 0.0, 0.0, 0.0, 0.0, 0.0, 0.0, 1.6527906728237984E9, 0.0, 2022-05-17 14:31:12.823
13.0, 81757.98735117762, 61317.18293633258, 26789.191578530263, 13150.648850279911, 81110.07733465164, 18998.51340037744, 18338.33227614549, 64785.65958567376, -0.078, 0.998, 0.218, 192.0, 0.0, 0.0, 0.0, 0.0, 0.0, 0.0, 0.0, 0.0, 0.0, 1.652790672823804E9, 0.0, 2022-05-17 14:31:12.823
14.0, 81773.16418566277, 61341.36752383322, 26816.661872465836, 13185.249350696726, 80270.76933035486, 19104.21479990659, 18357.24185195468, 64733.35650364835, -0.078, 0.998, 0.218, 192.0, 0.0, 0.0, 0.0, 0.0, 0.0, 0.0, 0.0, 0.0, 0.0, 1.6527906728238094E9, 0.0, 2022-05-17 14:31:12.823
15.0, 81764.46935706965, 61314.9254101426, 26798.914587368323, 13162.539978330135, 80650.88309656181, 19174.868664129815, 18474.47675162277, 64892.500924170134, -0.078, 0.998, 0.218, 192.0, 0.0, 0.0, 0.0, 0.0, 0.0, 0.0, 0.0, 0.0, 0.0, 1.6527906728238149E9, 0.0, 2022-05-17 14:31:12.823
16.0, 81748.24199059511, 61286.38223247317, 26765.05169451853, 13110.974503871741, 81717.77656290252, 19121.82797453737, 18516.788603876663, 65033.62983866094, -0.078, 0.998, 0.218, 192.0, 0.0, 0.0, 0.0, 0.0, 0.0, 0.0, 0.0, 0.0, 0.0, 1.6527906728238204E9, 0.0, 2022-05-17 14:31:12.823
17.0, 81742.6987579702, 61279.587302158754, 26758.122653737388, 13096.803497887076, 82005.97995590925, 19003.922522535628, 18421.79368994161, 64961.366648836934, -0.078, 0.998, 0.218, 192.0, 0.0, 0.0, 0.0, 0.0, 0.0, 0.0, 0.0, 0.0, 0.0, 1.6527906728238258E9, 0.0, 2022-05-17 14:31:12.823
18.0, 81757.94264768872, 61309.56099147332, 26785.72705813969, 13140.568213530567, 81107.57393927264, 18982.420144369622, 18319.04272068056, 64769.49927443258, -0.078, 0.992, 0.23600000000000002, 192.0, 253.0, 144.0, 31.0, 0.0, 7.0, 96.0, 0.0, 0.0, 0.0, 1.652790672823831E9, 0.0, 2022-05-17 14:31:12.823
19.0, 81780.18263342175, 61341.56868953332, 26814.8290294205, 13189.5632373766, 80257.31358019276, 19092.59189278983, 18350.69279082928, 64711.652959782245, -0.078, 0.992, 0.23600000000000002, 192.0, 0.0, 0.0, 0.0, 0.0, 0.0, 0.0, 0.0, 0.0, 0.0, 1.6527906728238366E9, 0.0, 2022-05-17 14:31:12.823
20.0, 81779.08739794343, 61327.01770389292, 26807.69882293926, 13172.911187757396, 80629.76069805154, 19178.89197813177, 18477.784809802153, 64873.99367976114, -0.078, 0.992, 0.23600000000000002, 192.0, 0.0, 0.0, 0.0, 0.0, 0.0, 0.0, 0.0, 0.0, 0.0, 1.652790672823842E9, 0.0, 2022-05-17 14:31:12.823
21.0, 81750.63362725182, 61286.53869468436, 26771.645459132847, 13116.204812074282, 81696.60946090335, 19109.378052875763, 18519.873144611498, 65016.48605066372, -0.078, 0.992, 0.23600000000000002, 192.0, 0.0, 0.0, 0.0, 0.0, 0.0, 0.0, 0.0, 0.0, 0.0, 1.6527906728238475E9, 0.0, 2022-05-17 14:31:12.823
22.0, 81739.10012711289, 61283.096526038236, 26758.435578159762, 13101.206791544771, 82012.52901703466, 18988.835095028295, 18427.046349888606, 64962.79716048207, -0.078, 0.992, 0.23600000000000002, 192.0, 0.0, 0.0, 0.0, 0.0, 0.0, 0.0, 0.0, 0.0, 0.0, 1.6527906728238695E9, 0.0, 2022-05-17 14:31:12.823
23.0, 81751.59475226341, 61315.730072942984, 26787.224625018196, 13146.625536277956, 81126.37175635956, 18971.46778958652, 18322.082557926486, 64776.11539079135, -0.078, 0.992, 0.23600000000000002, 192.0, 0.0, 0.0, 0.0, 0.0, 0.0, 0.0, 0.0, 0.0, 0.0, 1.6527906728238747E9, 0.0, 2022-05-17 14:31:12.823
24.0, 81777.83570025393, 61351.33640186029, 26823.12152661342, 13187.842153053542, 80271.88691757762, 19086.95925318709, 18353.710276330745, 64716.682102284685, -0.078, 0.992, 0.23600000000000002, 192.0, 0.0, 0.0, 0.0, 0.0, 0.0, 0.0, 0.0, 0.0, 0.0, 1.6527906728238804E9, 0.0, 2022-05-17 14:31:12.823
25.0, 81780.74142703312, 61337.545375531365, 26815.6783957098, 13167.993803977228, 80615.41087811123, 19167.872568115305, 18473.85090277802, 64859.085066209445, -0.078, 0.992, 0.23600000000000002, 192.0, 0.0, 0.0, 0.0, 0.0, 0.0, 0.0, 0.0, 0.0, 0.0, 1.652790672823886E9, 0.0, 2022-05-17 14:31:12.823
26.0, 81752.86880169736, 61290.360842986214, 26774.01474404511, 13101.564419456055, 81694.59780390238, 19105.667663296183, 18515.4698509538, 65015.07789076304, -0.078, 0.992, 0.23600000000000002, 192.0, 0.0, 0.0, 0.0, 0.0, 0.0, 0.0, 0.0, 0.0, 0.0, 1.6527906728238912E9, 0.0, 2022-05-17 14:31:12.823
27.0, 81743.1457928593, 61288.99738657444, 26760.000200271632, 13085.001776814674, 82034.8584097455, 18988.499818861463, 18424.945285909806, 64974.643585043385, -0.082, 0.994, 0.248, 192.0, 253.0, 112.0, 31.0, 16.0, 7.0, 192.0, 0.0, 0.0, 0.0, 1.652790672823897E9, 0.0, 2022-05-17 14:31:12.823
28.0, 81761.07189191245, 61328.738788215975, 26792.320822754005, 13132.566289015567, 81137.56998033167, 18962.147112148657, 18312.4713078107, 64770.77332386653, -0.082, 0.994, 0.248, 192.0, 0.0, 0.0, 0.0, 0.0, 0.0, 0.0, 0.0, 0.0, 0.0, 1.6527906728239024E9, 0.0, 2022-05-17 14:31:12.823
29.0, 81784.0047817236, 61360.411210109145, 26826.809564448544, 13180.622539594477, 80275.35143796819, 19075.44810479261, 18343.696694814767, 64714.648093539254, -0.082, 0.994, 0.248, 192.0, 0.0, 0.0, 0.0, 0.0, 0.0, 0.0, 0.0, 0.0, 0.0, 1.6527906728239079E9, 0.0, 2022-05-17 14:31:12.823
30.0, 81774.86291824137, 61336.38308481969, 26810.336328784982, 13153.755742759198, 80624.28452065999, 19158.015448810514, 18460.17163517137, 64875.17832221727, -0.082, 0.994, 0.248, 192.0, 0.0, 0.0, 0.0, 0.0, 0.0, 0.0, 0.0, 0.0, 0.0, 1.652790672823913E9, 0.0, 2022-05-17 14:31:12.823
31.0, 81754.61223776487, 61302.78841290336, 26782.77662787159, 13100.871515377941, 81675.82233855991, 19088.479171810053, 18502.863467081006, 65004.080832491025, -0.082, 0.994, 0.248, 192.0, 0.0, 0.0, 0.0, 0.0, 0.0, 0.0, 0.0, 0.0, 0.0, 1.6527906728239188E9, 0.0, 2022-05-17 14:31:12.823
32.0, 81739.547162002, 61293.0654040653, 26765.610488129914, 13095.060061819562, 82007.54457802113, 18969.925519219105, 18421.190192841317, 64946.36862830742, -0.082, 0.994, 0.248, 192.0, 0.0, 0.0, 0.0, 0.0, 0.0, 0.0, 0.0, 0.0, 0.0, 1.6527906728239243E9, 0.0, 2022-05-17 14:31:12.823
33.0, 81751.23712435212, 61319.55222124484, 26785.68235465078, 13131.873384937453, 81170.53880340324, 18964.4269900831, 18322.887220726876, 64796.27666429003, -0.082, 0.994, 0.248, 192.0, 0.0, 0.0, 0.0, 0.0, 0.0, 0.0, 0.0, 0.0, 0.0, 1.6527906728239295E9, 0.0, 2022-05-17 14:31:12.823
34.0, 81772.94066821822, 61350.062352426336, 26821.489849268182, 13179.79552504963, 80328.95092117201, 19094.1565149017, 18356.504244387655, 64767.44291394269, -0.082, 0.994, 0.248, 192.0, 0.0, 0.0, 0.0, 0.0, 0.0, 0.0, 0.0, 0.0, 0.0, 1.6527906728239353E9, 0.0, 2022-05-17 14:31:12.823
35.0, 81767.12921465984, 61338.528852287396, 26811.386860774383, 13162.964661474785, 80655.35344545287, 19174.846312385358, 18472.241577177236, 64919.770052405605, -0.082, 0.994, 0.248, 192.0, 0.0, 0.0, 0.0, 0.0, 0.0, 0.0, 0.0, 0.0, 0.0, 1.6527906728239405E9, 0.0, 2022-05-17 14:31:12.823
36.0, 81748.95724641767, 61304.4200902486, 26783.268366249606, 13110.907448638374, 81691.53561491199, 19107.098174941322, 18511.446536951844, 65039.91067885288, -0.082, 0.994, 0.248, 192.0, 0.0, 0.0, 0.0, 0.0, 0.0, 0.0, 0.0, 0.0, 0.0, 1.652790672823946E9, 0.0, 2022-05-17 14:31:12.823
37.0, 81734.40626077726, 61300.910866369115, 26774.417075445304, 13105.855954391474, 82026.63296778596, 18999.116897477736, 18441.150300639903, 64977.862236244946, -0.084, 0.996, 0.256, 192.0, 253.0, 96.0, 31.0, 32.0, 8.0, 0.0, 0.0, 0.0, 0.0, 1.6527906728239515E9, 0.0, 2022-05-17 14:31:12.823
38.0, 81737.4460980232, 61318.747558444455, 26791.896139609355, 13140.054123408096, 81184.75451287681, 18977.81568501183, 18343.361418647935, 64815.83444068843, -0.084, 0.996, 0.256, 192.0, 0.0, 0.0, 0.0, 0.0, 0.0, 0.0, 0.0, 0.0, 0.0, 1.6527906728239572E9, 0.0, 2022-05-17 14:31:12.823
39.0, 81754.56753427596, 61333.94674467406, 26810.582197973992, 13174.65462382491, 80318.28913906684, 19079.806694961393, 18354.045552497573, 64768.31463197645, -0.084, 0.996, 0.256, 192.0, 0.0, 0.0, 0.0, 0.0, 0.0, 0.0, 0.0, 0.0, 0.0, 1.6527906728239627E9, 0.0, 2022-05-17 14:31:12.823
40.0, 81766.25749662609, 61329.163471360625, 26813.44322126427, 13172.017117979183, 80649.20671572766, 19188.614986969827, 18478.500065624725, 64934.6786659573, -0.084, 0.996, 0.256, 192.0, 0.0, 0.0, 0.0, 0.0, 0.0, 0.0, 0.0, 0.0, 0.0, 1.652790672823968E9, 0.0, 2022-05-17 14:31:12.823
41.0, 81748.24199059511, 61295.05470932183, 26779.043886547555, 13115.578963229533, 81696.3859434588, 19126.566544361896, 18515.13457478697, 65066.75512394371, -0.084, 0.996, 0.256, 192.0, 0.0, 0.0, 0.0, 0.0, 0.0, 0.0, 0.0, 0.0, 0.0, 1.6527906728239737E9, 0.0, 2022-05-17 14:31:12.823
42.0, 81740.46358352466, 61293.80301163233, 26763.464720662203, 13102.950227612286, 82037.22769465778, 19011.90209530617, 18432.969562169263, 65000.52690512263, -0.084, 0.996, 0.256, 192.0, 0.0, 0.0, 0.0, 0.0, 0.0, 0.0, 0.0, 0.0, 0.0, 1.652790672823979E9, 0.0, 2022-05-17 14:31:12.823
43.0, 81746.20798184967, 61320.71451195652, 26788.319860496507, 13148.234861878736, 81194.34341124815, 19001.396775412177, 18334.53247958809, 64831.52536529605, -0.084, 0.996, 0.256, 192.0, 0.0, 0.0, 0.0, 0.0, 0.0, 0.0, 0.0, 0.0, 0.0, 1.6527906728239875E9, 0.0, 2022-05-17 14:31:12.823
44.0, 81766.72688325965, 61344.4297128236, 26815.566636987525, 13194.815897323597, 80314.91402565408, 19109.690977298138, 18354.671401342322, 64779.78107688202, -0.084, 0.996, 0.256, 192.0, 0.0, 0.0, 0.0, 0.0, 0.0, 0.0, 0.0, 0.0, 0.0, 1.6527906728239932E9, 0.0, 2022-05-17 14:31:12.823
45.0, 81768.62678153835, 61331.13042487269, 26806.6259392054, 13176.532170359156, 80615.45558160015, 19194.158219594745, 18471.95100449932, 64930.387131021875, -0.084, 0.996, 0.256, 192.0, 0.0, 0.0, 0.0, 0.0, 0.0, 0.0, 0.0, 0.0, 0.0, 1.6527906728239987E9, 0.0, 2022-05-17 14:31:12.823
46.0, 81754.99221742061, 61300.30736926883, 26780.54145342606, 13118.775262686642, 81665.0711494769, 19124.621942594284, 18519.694330655853, 65067.22451057727, -0.084, 0.996, 0.256, 192.0, 0.0, 0.0, 0.0, 0.0, 0.0, 0.0, 0.0, 0.0, 0.0, 1.6527906728240044E9, 0.0, 2022-05-17 14:31:12.824
47.0, 81742.47524052564, 61289.6679389081, 26765.364618940905, 13095.797669386588, 82029.7622120097, 19001.19560971208, 18437.752835482697, 65014.38498668492, -0.08600000000000001, 0.992, 0.26, 192.0, 253.0, 80.0, 31.0, 0.0, 8.0, 32.0, 0.0, 0.0, 0.0, 1.652790672824011E9, 0.0, 2022-05-17 14:31:12.824
48.0, 81750.85714469638, 61317.495860754956, 26785.68235465078, 13131.247536092704, 81202.12181831858, 18977.56981582282, 18333.839575509977, 64850.94903122772, -0.08600000000000001, 0.992, 0.26, 192.0, 0.0, 0.0, 0.0, 0.0, 0.0, 0.0, 0.0, 0.0, 0.0, 1.6527906728240163E9, 0.0, 2022-05-17 14:31:12.824
49.0, 81778.12627293186, 61350.5317390599, 26817.175962588306, 13178.454420382312, 80319.22791233395, 19080.320785083866, 18352.16800596333, 64795.4943532341, -0.08600000000000001, 0.992, 0.26, 192.0, 0.0, 0.0, 0.0, 0.0, 0.0, 0.0, 0.0, 0.0, 0.0, 1.6527906728240223E9, 0.0, 2022-05-17 14:31:12.824
50.0, 81776.49459558661, 61330.79514870586, 26812.39268927487, 13166.764458032187, 80600.23404362609, 19172.164103050723, 18472.018059732683, 64932.845822911964, -0.08600000000000001, 0.992, 0.26, 192.0, 0.0, 0.0, 0.0, 0.0, 0.0, 0.0, 0.0, 0.0, 0.0, 1.6527906728240285E9, 0.0, 2022-05-17 14:31:12.824
51.0, 81747.88436268382, 61283.431802205065, 26775.44525569025, 13108.806384659576, 81666.50166112205, 19119.63750358075, 18520.968380089806, 65085.01649916369, -0.08600000000000001, 0.992, 0.26, 192.0, 0.0, 0.0, 0.0, 0.0, 0.0, 0.0, 0.0, 0.0, 0.0, 1.6527906728240345E9, 0.0, 2022-05-17 14:31:12.824
52.0, 81734.294502055, 61274.17818000057, 26762.525947395083, 13082.20780875776, 82059.64649434644, 18997.95460676606, 18430.756739468186, 65047.06323707858, -0.08600000000000001, 0.992, 0.26, 192.0, 0.0, 0.0, 0.0, 0.0, 0.0, 0.0, 0.0, 0.0, 0.0, 1.6527906728240402E9, 0.0, 2022-05-17 14:31:12.824
53.0, 81752.64528425281, 61312.936104886074, 26799.16045655733, 13134.935573927829, 81206.36864976509, 18964.762266249927, 18325.368264361416, 64846.74690327012, -0.08600000000000001, 0.992, 0.26, 192.0, 0.0, 0.0, 0.0, 0.0, 0.0, 0.0, 0.0, 0.0, 0.0, 1.652790672824046E9, 0.0, 2022-05-17 14:31:12.824
54.0, 81773.72297927416, 61340.09347439927, 26829.044738894077, 13188.445650153835, 80313.90819715359, 19081.19250311762, 18352.257412941148, 64787.96181535266, -0.08600000000000001, 0.992, 0.26, 192.0, 0.0, 0.0, 0.0, 0.0, 0.0, 0.0, 0.0, 0.0, 0.0, 1.6527906728242276E9, 0.0, 2022-05-17 14:31:12.824
55.0, 81771.93483971774, 61320.28982881187, 26814.046718364563, 13161.489446340735, 80596.68011625769, 19167.157312292733, 18467.637117819442, 64942.01003813864, -0.08600000000000001, 0.992, 0.26, 192.0, 0.0, 0.0, 0.0, 0.0, 0.0, 0.0, 0.0, 0.0, 0.0, 1.6527906728242333E9, 0.0, 2022-05-17 14:31:12.824
56.0, 81748.17493536173, 61277.17331375758, 26773.433598689273, 13102.100861322984, 81651.79421327046, 19095.87759922476, 18512.072385796593, 65085.038850908146, -0.08600000000000001, 0.992, 0.26, 192.0, 0.0, 0.0, 0.0, 0.0, 0.0, 0.0, 0.0, 0.0, 0.0, 1.6527906728242393E9, 0.0, 2022-05-17 14:31:12.824
57.0, 81737.37904278983, 61268.85846482021, 26758.636743859857, 13075.882265076909, 82024.0625171736, 18972.27245238691, 18418.843259673507, 65014.20617272928, -0.084, 0.998, 0.26, 192.0, 253.0, 96.0, 31.0, 48.0, 8.0, 32.0, 0.0, 0.0, 0.0, 1.6527906728242452E9, 0.0, 2022-05-17 14:31:12.824
58.0, 81746.38679580532, 61300.46383148001, 26786.06233430652, 13129.727617469744, 81196.89151011605, 18954.65927775613, 18320.24971488115, 64828.91021119479, -0.084, 0.998, 0.26, 192.0, 0.0, 0.0, 0.0, 0.0, 0.0, 0.0, 0.0, 0.0, 0.0, 1.652790672824422E9, 0.0, 2022-05-17 14:31:12.824
59.0, 81773.0971304294, 61334.17026211861, 26819.76876494512, 13178.052088982116, 80309.01316511788, 19074.1517036142, 18344.52370935961, 64779.55755943747, -0.084, 0.998, 0.26, 192.0, 0.0, 0.0, 0.0, 0.0, 0.0, 0.0, 0.0, 0.0, 0.0, 1.6527906728244288E9, 0.0, 2022-05-17 14:31:12.824
60.0, 81774.28177288554, 61320.31218055632, 26808.97287237321, 13165.579815576055, 80574.86481366931, 19162.21757676811, 18457.60118455901, 64926.31911353101, -0.084, 0.998, 0.26, 192.0, 0.0, 0.0, 0.0, 0.0, 0.0, 0.0, 0.0, 0.0, 0.0, 1.652790672824434E9, 0.0, 2022-05-17 14:31:12.824
61.0, 81756.42272906574, 61284.482334194465, 26775.244089990152, 13115.958942885274, 81618.26659658749, 19109.53451508695, 18502.550542658635, 65059.04377210663, -0.084, 0.998, 0.26, 192.0, 0.0, 0.0, 0.0, 0.0, 0.0, 0.0, 0.0, 0.0, 0.0, 1.65279067282444E9, 0.0, 2022-05-17 14:31:12.824
62.0, 81732.08167935393, 61263.13641823965, 26752.33355192346, 13085.627625659423, 82029.98572945425, 18995.160638709145, 18423.782995198133, 65017.2460099752, -0.084, 0.998, 0.26, 192.0, 0.0, 0.0, 0.0, 0.0, 0.0, 0.0, 0.0, 0.0, 0.0, 1.6527906728244455E9, 0.0, 2022-05-17 14:31:12.824
63.0, 81738.04959512349, 61290.293787752846, 26769.477339920682, 13118.819966175553, 81232.60959775563, 18967.220958140013, 18312.963046188717, 64854.055923707005, -0.084, 0.998, 0.26, 192.0, 0.0, 0.0, 0.0, 0.0, 0.0, 0.0, 0.0, 0.0, 0.0, 1.6527906728244514E9, 0.0, 2022-05-17 14:31:12.824
64.0, 81760.02135992305, 61322.01091313492, 26799.20516004624, 13164.663394053388, 80336.72932824247, 19081.930110684647, 18333.63840980988, 64802.08811784841, -0.084, 0.998, 0.26, 192.0, 0.0, 0.0, 0.0, 0.0, 0.0, 0.0, 0.0, 0.0, 0.0, 1.6527906728244607E9, 0.0, 2022-05-17 14:31:12.824
65.0, 81761.20600237919, 61310.03037810688, 26794.332479754983, 13153.50987357019, 80588.05234289794, 19177.528521719996, 18448.99576294372, 64944.312267817535, -0.084, 0.998, 0.26, 192.0, 0.0, 0.0, 0.0, 0.0, 0.0, 0.0, 0.0, 0.0, 0.0, 1.6527906728244662E9, 0.0, 2022-05-17 14:31:12.824
66.0, 81738.31781605695, 61270.89247356564, 26757.47445314818, 13102.883172378919, 81629.2636548595, 19122.096195470833, 18489.206551218816, 65077.0592781376, -0.084, 0.998, 0.26, 192.0, 0.0, 0.0, 0.0, 0.0, 0.0, 0.0, 0.0, 0.0, 0.0, 1.652790672824472E9, 0.0, 2022-05-17 14:31:12.824
67.0, 81728.99713861909, 61265.41629617409, 26747.68438907676, 13084.442983203291, 82032.89145623344, 19006.3365109368, 18413.79176542661, 65020.17408849885, -0.08600000000000001, 0.994, 0.256, 192.0, 253.0, 80.0, 31.0, 16.0, 8.0, 0.0, 0.0, 0.0, 0.0, 1.6527906728244777E9, 0.0, 2022-05-17 14:31:12.824
68.0, 81741.6929294697, 61299.18978204606, 26777.81454060251, 13130.55463201459, 81220.22673132739, 18973.300632631854, 18312.6724735108, 64835.5039758091, -0.08600000000000001, 0.994, 0.256, 192.0, 0.0, 0.0, 0.0, 0.0, 0.0, 0.0, 0.0, 0.0, 0.0, 1.652790672824483E9, 0.0, 2022-05-17 14:31:12.824
69.0, 81760.8483744679, 61323.44142478007, 26802.826142648002, 13165.713926042787, 80313.93054889805, 19081.952462429104, 18338.35462788995, 64777.76941988104, -0.08600000000000001, 0.994, 0.256, 192.0, 0.0, 0.0, 0.0, 0.0, 0.0, 0.0, 0.0, 0.0, 0.0, 1.6527906728244884E9, 0.0, 2022-05-17 14:31:12.824
70.0, 81758.97082793365, 61308.689273439566, 26791.53851169807, 13147.988992689729, 80565.25356355353, 19176.99207985307, 18456.5059490807, 64934.11987234592, -0.08600000000000001, 0.994, 0.256, 192.0, 0.0, 0.0, 0.0, 0.0, 0.0, 0.0, 0.0, 0.0, 0.0, 1.652790672824494E9, 0.0, 2022-05-17 14:31:12.824
71.0, 81730.42765026423, 61268.03145027536, 26751.595944356435, 13084.353576225469, 81628.52604729249, 19117.916419257694, 18503.62342639249, 65091.43144982236, -0.08600000000000001, 0.994, 0.256, 192.0, 0.0, 0.0, 0.0, 0.0, 0.0, 0.0, 0.0, 0.0, 0.0, 1.6527906728244991E9, 0.0, 2022-05-17 14:31:12.824
72.0, 81716.92719661322, 61256.721467580974, 26738.162545938798, 13059.766657324632, 82054.08090997707, 18992.00904274095, 18423.157146353384, 65040.715341653275, -0.08600000000000001, 0.994, 0.256, 192.0, 0.0, 0.0, 0.0, 0.0, 0.0, 0.0, 0.0, 0.0, 0.0, 1.6527906728245049E9, 0.0, 2022-05-17 14:31:12.824
73.0, 81727.63368220732, 61285.73403188396, 26760.58134562747, 13097.854029876475, 81252.9273334655, 18959.55430979184, 18316.80754623503, 64855.57584232996, -0.08600000000000001, 0.994, 0.256, 192.0, 0.0, 0.0, 0.0, 0.0, 0.0, 0.0, 0.0, 0.0, 0.0, 1.65279067282451E9, 0.0, 2022-05-17 14:31:12.824
74.0, 81747.9961214061, 61314.836003164775, 26788.521026196602, 13133.50506228269, 80333.98006367446, 19071.11186636828, 18332.58787782048, 64789.01234734206, -0.08600000000000001, 0.994, 0.256, 192.0, 0.0, 0.0, 0.0, 0.0, 0.0, 0.0, 0.0, 0.0, 0.0, 1.6527906728245363E9, 0.0, 2022-05-17 14:31:12.824
75.0, 81749.78426096252, 61306.431747249575, 26785.39178197286, 13128.654733735888, 80557.1622320607, 19163.066943057413, 18445.12891115295, 64928.88956414337, -0.08600000000000001, 0.994, 0.256, 192.0, 0.0, 0.0, 0.0, 0.0, 0.0, 0.0, 0.0, 0.0, 0.0, 1.6527906728245473E9, 0.0, 2022-05-17 14:31:12.824
76.0, 81726.60550196237, 61269.864293320694, 26754.278153691073, 13093.741308896699, 81617.77485820948, 19120.30805591441, 18503.154039758927, 65086.40230731992, -0.08600000000000001, 0.994, 0.256, 192.0, 0.0, 0.0, 0.0, 0.0, 0.0, 0.0, 0.0, 0.0, 0.0, 1.652790672824561E9, 0.0, 2022-05-17 14:31:12.824
77.0, 81705.281937752, 61250.26181343339, 26729.15479292331, 13067.701526606266, 82083.56286091362, 19002.223789957025, 18419.156184095882, 65068.96794664478, -0.082, 0.992, 0.254, 192.0, 253.0, 112.0, 31.0, 0.0, 7.0, 240.0, 0.0, 0.0, 0.0, 1.6527906728245673E9, 0.0, 2022-05-17 14:31:12.824
78.0, 81719.94468211468, 61281.956587071014, 26760.469586905194, 13111.890925394408, 81299.6424793771, 18961.096580159257, 18309.453822309235, 64896.144258516346, -0.082, 0.992, 0.254, 192.0, 0.0, 0.0, 0.0, 0.0, 0.0, 0.0, 0.0, 0.0, 0.0, 1.6527906728245733E9, 0.0, 2022-05-17 14:31:12.824
79.0, 81750.45481329618, 61316.17710783209, 26802.647328692357, 13160.103638184506, 80358.3658168752, 19063.10994185328, 18332.409063864838, 64812.88401042033, -0.082, 0.992, 0.254, 192.0, 0.0, 0.0, 0.0, 0.0, 0.0, 0.0, 0.0, 0.0, 0.0, 1.6527906728245797E9, 0.0, 2022-05-17 14:31:12.824
80.0, 81756.78035697703, 61306.923485627594, 26803.54139847057, 13155.02979219315, 80555.17292680418, 19181.55183572195, 18457.534129325646, 64936.15388109135, -0.082, 0.992, 0.254, 192.0, 0.0, 0.0, 0.0, 0.0, 0.0, 0.0, 0.0, 0.0, 0.0, 1.6527906728245857E9, 0.0, 2022-05-17 14:31:12.824
81.0, 81731.27701655353, 61268.00909853091, 26765.230508474175, 13100.290370022103, 81607.9177389047, 19130.656913597217, 18510.396004962447, 65088.190446876346, -0.082, 0.992, 0.254, 192.0, 0.0, 0.0, 0.0, 0.0, 0.0, 0.0, 0.0, 0.0, 0.0, 1.6527906728245912E9, 0.0, 2022-05-17 14:31:12.824
82.0, 81716.12253381283, 61256.8555780477, 26745.784490798058, 13075.748154610177, 82052.4715843763, 18997.485220132497, 18421.36900679696, 65040.581231186545, -0.082, 0.992, 0.254, 192.0, 0.0, 0.0, 0.0, 0.0, 0.0, 0.0, 0.0, 0.0, 0.0, 1.652790672824597E9, 0.0, 2022-05-17 14:31:12.824
83.0, 81734.42861252173, 61293.42303197659, 26776.764008613114, 13122.575059244045, 81258.4258626015, 18971.60190005325, 18317.63456077988, 64846.50103408111, -0.082, 0.992, 0.254, 192.0, 0.0, 0.0, 0.0, 0.0, 0.0, 0.0, 0.0, 0.0, 0.0, 1.6527906728246024E9, 0.0, 2022-05-17 14:31:12.824
84.0, 81756.17685987674, 61323.5755352468, 26806.22360780521, 13171.503027856712, 80328.43683104955, 19079.58317751684, 18333.347837131958, 64777.61295766985, -0.082, 0.992, 0.254, 192.0, 0.0, 0.0, 0.0, 0.0, 0.0, 0.0, 0.0, 0.0, 0.0, 1.6527906728246078E9, 0.0, 2022-05-17 14:31:12.824
85.0, 81755.37219707634, 61307.906962383626, 26800.88154088039, 13153.88985322593, 80519.67835660915, 19172.007640839536, 18446.917050709373, 64908.19184877776, -0.082, 0.992, 0.254, 192.0, 0.0, 0.0, 0.0, 0.0, 0.0, 0.0, 0.0, 0.0, 0.0, 1.652790672824613E9, 0.0, 2022-05-17 14:31:12.824
86.0, 81732.90869389876, 61272.45709567751, 26766.191633485752, 13105.207753802271, 81574.27836349946, 19132.60151536483, 18505.970359560295, 65066.442199521334, -0.082, 0.992, 0.254, 192.0, 0.0, 0.0, 0.0, 0.0, 0.0, 0.0, 0.0, 0.0, 0.0, 1.6527906728246217E9, 0.0, 2022-05-17 14:31:12.824
87.0, 81710.62400467682, 61254.19572045752, 26742.230563429664, 13084.01830005864, 82051.33164540907, 19010.91861855014, 18422.82187018655, 65043.665771921376, -0.084, 0.99, 0.254, 192.0, 253.0, 96.0, 30.0, 240.0, 7.0, 240.0, 0.0, 0.0, 0.0, 1.652790672824627E9, 0.0, 2022-05-17 14:31:12.824
88.0, 81719.69881292568, 61278.15679051361, 26759.754331082622, 13116.182460329826, 81291.32763043971, 18970.66312678613, 18310.727871743187, 64879.26869145259, -0.084, 0.99, 0.254, 192.0, 0.0, 0.0, 0.0, 0.0, 0.0, 0.0, 0.0, 0.0, 0.0, 1.6527906728246324E9, 0.0, 2022-05-17 14:31:12.824
89.0, 81745.78329870502, 61308.6222182062, 26793.214892532218, 13169.17844643336, 80361.24919190994, 19072.38591580223, 18331.045607453063, 64818.06961513396, -0.084, 0.99, 0.254, 192.0, 0.0, 0.0, 0.0, 0.0, 0.0, 0.0, 0.0, 0.0, 0.0, 1.6527906728246377E9, 0.0, 2022-05-17 14:31:12.824
90.0, 81747.48203128362, 61297.69221516755, 26788.11869479641, 13157.533187572144, 80544.26527551, 19166.419704725708, 18448.526376310158, 64955.9351749343, -0.084, 0.99, 0.254, 192.0, 0.0, 0.0, 0.0, 0.0, 0.0, 0.0, 0.0, 0.0, 0.0, 1.6527906728246431E9, 0.0, 2022-05-17 14:31:12.824
91.0, 81726.65020545128, 61265.01396477389, 26754.43461590226, 13103.330207268025, 81583.9566688486, 19117.98347449106, 18502.79641184764, 65103.50139182823, -0.084, 0.99, 0.254, 192.0, 0.0, 0.0, 0.0, 0.0, 0.0, 0.0, 0.0, 0.0, 0.0, 1.6527906728246489E9, 0.0, 2022-05-17 14:31:12.824
92.0, 81707.56181568645, 61250.28416517784, 26731.47937434666, 13071.031936530106, 82059.0206455017, 19005.66595860314, 18422.26307657517, 65069.370278044975, -0.084, 0.99, 0.254, 192.0, 0.0, 0.0, 0.0, 0.0, 0.0, 0.0, 0.0, 0.0, 0.0, 1.6527906728246543E9, 0.0, 2022-05-17 14:31:12.824
93.0, 81718.58122570292, 61273.708793367005, 26753.33938042395, 13109.611047459966, 81301.74354335589, 18972.071286686813, 18312.761880488622, 64899.005281806625, -0.084, 0.99, 0.254, 192.0, 0.0, 0.0, 0.0, 0.0, 0.0, 0.0, 0.0, 0.0, 0.0, 1.65279067282466E9, 0.0, 2022-05-17 14:31:12.824
94.0, 81743.9504556597, 61309.33747402877, 26784.81063661702, 13155.298013126614, 80342.67489226758, 19066.373296543756, 18320.450880581247, 64815.946199410704, -0.084, 0.99, 0.254, 192.0, 0.0, 0.0, 0.0, 0.0, 0.0, 0.0, 0.0, 0.0, 0.0, 1.6527906728246684E9, 0.0, 2022-05-17 14:31:12.824
95.0, 81751.12536562984, 61308.93514262857, 26781.279060993085, 13150.31357411308, 80498.53360635444, 19155.489701687064, 18440.591507028523, 64938.34435204796, -0.084, 0.99, 0.254, 192.0, 0.0, 0.0, 0.0, 0.0, 0.0, 0.0, 0.0, 0.0, 0.0, 1.6527906728246741E9, 0.0, 2022-05-17 14:31:12.824
96.0, 81732.10403109838, 61272.07711602177, 26744.733958808658, 13099.753928155176, 81532.63706357921, 19111.613227321297, 18498.929560056873, 65083.22835960727, -0.084, 0.99, 0.254, 192.0, 0.0, 0.0, 0.0, 0.0, 0.0, 0.0, 0.0, 0.0, 0.0, 1.6527906728246796E9, 0.0, 2022-05-17 14:31:12.824
97.0, 81718.76003965856, 61258.196682715025, 26726.159659166296, 13069.646128373877, 82034.34431962304, 19001.217961456536, 18437.126986637948, 65064.65405996491, -0.088, 0.988, 0.254, 192.0, 253.0, 64.0, 30.0, 224.0, 7.0, 240.0, 0.0, 0.0, 0.0, 1.6527906728246868E9, 0.0, 2022-05-17 14:31:12.824
98.0, 81723.02922284952, 61279.520246925385, 26742.632894829858, 13098.345768254492, 81300.42479043303, 18958.794350480362, 18326.19527890626, 64906.627226665885, -0.088, 0.988, 0.254, 192.0, 0.0, 0.0, 0.0, 0.0, 0.0, 0.0, 0.0, 0.0, 0.0, 1.6527906728246927E9, 0.0, 2022-05-17 14:31:12.824
99.0, 81748.51021152857, 61316.914715399114, 26780.139122025863, 13155.298013126614, 80339.38918583265, 19050.615316702762, 18326.26233413963, 64820.23773434613, -0.088, 0.988, 0.254, 192.0, 0.0, 0.0, 0.0, 0.0, 0.0, 0.0, 0.0, 0.0, 0.0, 1.6527906728246984E9, 0.0, 2022-05-17 14:31:12.824
100.0, 81756.48978429912, 61313.96428513101, 26789.571558186002, 13139.160053629883, 80492.52098709595, 19146.3701899493, 18440.92678319535, 64946.10040737396, -0.088, 0.988, 0.254, 192.0, 0.0, 0.0, 0.0, 0.0, 0.0, 0.0, 0.0, 0.0, 0.0, 1.652790672824724E9, 0.0, 2022-05-17 14:31:12.824
101.0, 81740.17301084675, 61281.621310904186, 26763.174147984286, 13088.443945460791, 81527.63027282123, 19099.856209737805, 18506.28328398267, 65092.8172579786, -0.088, 0.988, 0.254, 192.0, 0.0, 0.0, 0.0, 0.0, 0.0, 0.0, 0.0, 0.0, 0.0, 1.65279067282473E9, 0.0, 2022-05-17 14:31:12.824
102.0, 81725.26439729505, 61265.88568280765, 26744.33162740846, 13068.752058595664, 82030.16454340989, 18974.03824019888, 18430.622629001457, 65064.11761809798, -0.088, 0.988, 0.254, 192.0, 0.0, 0.0, 0.0, 0.0, 0.0, 0.0, 0.0, 0.0, 0.0, 1.652790672824736E9, 0.0, 2022-05-17 14:31:12.824
103.0, 81737.4908015121, 61295.61350293321, 26765.208156729717, 13111.622704460944, 81289.69595309449, 18932.687512956563, 18316.405214834835, 64889.79636309104, -0.088, 0.988, 0.254, 192.0, 0.0, 0.0, 0.0, 0.0, 0.0, 0.0, 0.0, 0.0, 0.0, 1.6527906728247423E9, 0.0, 2022-05-17 14:31:12.824
104.0, 81760.15547038979, 61322.3238375573, 26793.103133809942, 13159.343678873025, 80334.27063635238, 19022.20624950007, 18323.78129050509, 64815.11918486586, -0.088, 0.988, 0.254, 192.0, 0.0, 0.0, 0.0, 0.0, 0.0, 0.0, 0.0, 0.0, 0.0, 1.6527906728247485E9, 0.0, 2022-05-17 14:31:12.824
105.0, 81767.64330478231, 61314.053692108835, 26792.63374717638, 13149.285393868136, 80479.62403054524, 19127.013579251, 18435.338847081526, 64943.44054978378, -0.088, 0.988, 0.254, 192.0, 0.0, 0.0, 0.0, 0.0, 0.0, 0.0, 0.0, 0.0, 0.0, 1.6527906728247547E9, 0.0, 2022-05-17 14:31:12.824
106.0, 81742.43053703672, 61272.45709567751, 26756.401569414327, 13091.282617006615, 81519.91892098414, 19090.088497410834, 18492.224036720283, 65096.639406280454, -0.088, 0.988, 0.254, 192.0, 0.0, 0.0, 0.0, 0.0, 0.0, 0.0, 0.0, 0.0, 0.0, 1.6527906728247612E9, 0.0, 2022-05-17 14:31:12.824
107.0, 81730.38294677531, 61262.197644972526, 26738.18489768325, 13065.801628327565, 82024.59895904052, 18961.14128364817, 18410.841335158508, 65058.35086802851, -0.082, 0.986, 0.256, 192.0, 253.0, 112.0, 30.0, 208.0, 8.0, 0.0, 0.0, 0.0, 0.0, 1.65279067282477E9, 0.0, 2022-05-17 14:31:12.824
108.0, 81743.70458647067, 61296.79814538934, 26762.145967739343, 13102.279675278625, 81280.66584833454, 18918.047120338335, 18306.86101995242, 64869.232758192156, -0.082, 0.986, 0.256, 192.0, 0.0, 0.0, 0.0, 0.0, 0.0, 0.0, 0.0, 0.0, 0.0, 1.652790672824776E9, 0.0, 2022-05-17 14:31:12.824
109.0, 81762.27888611304, 61327.01770389292, 26793.01372683212, 13147.877233967452, 80317.93151115555, 19022.094490777792, 18314.23709562267, 64791.426335743236, -0.082, 0.986, 0.256, 192.0, 0.0, 0.0, 0.0, 0.0, 0.0, 0.0, 0.0, 0.0, 0.0, 1.6527906728247995E9, 0.0, 2022-05-17 14:31:12.824
110.0, 81765.36342684788, 61320.73686370097, 26787.761066885123, 13145.93263219984, 80457.31698957885, 19124.55488736092, 18425.83935568802, 64929.29189554357, -0.082, 0.986, 0.256, 192.0, 0.0, 0.0, 0.0, 0.0, 0.0, 0.0, 0.0, 0.0, 0.0, 1.652790672824828E9, 0.0, 2022-05-17 14:31:12.824
111.0, 81736.99906313409, 61279.90022658113, 26748.556107110515, 13089.472125705735, 81507.06666792235, 19088.81444797688, 18487.12783898447, 65096.30413011362, -0.082, 0.986, 0.256, 192.0, 0.0, 0.0, 0.0, 0.0, 0.0, 0.0, 0.0, 0.0, 0.0, 1.6527906728248336E9, 0.0, 2022-05-17 14:31:12.824
112.0, 81721.82222864893, 61266.04214501884, 26730.741766779636, 13064.169950982327, 82030.14219166544, 18970.23844364148, 18415.35638753848, 65066.12927509896, -0.082, 0.986, 0.256, 192.0, 0.0, 0.0, 0.0, 0.0, 0.0, 0.0, 0.0, 0.0, 0.0, 1.6527906728248396E9, 0.0, 2022-05-17 14:31:12.824
113.0, 81732.97574913214, 61290.02556681938, 26752.467662390194, 13102.793765401098, 81287.99722051588, 18929.60297222173, 18310.124374642895, 64868.875130280874, -0.082, 0.986, 0.256, 192.0, 0.0, 0.0, 0.0, 0.0, 0.0, 0.0, 0.0, 0.0, 0.0, 1.652790672824846E9, 0.0, 2022-05-17 14:31:12.824
114.0, 81749.11370862887, 61316.60179097674, 26779.49092143666, 13150.023001435162, 80321.9101216686, 19045.72028466705, 18324.921229472307, 64790.39815549829, -0.082, 0.986, 0.256, 192.0, 0.0, 0.0, 0.0, 0.0, 0.0, 0.0, 0.0, 0.0, 0.0, 1.6527906728248522E9, 0.0, 2022-05-17 14:31:12.824
115.0, 81742.0952608699, 61299.61446519071, 26768.180938742276, 13134.466187294269, 80464.40249257119, 19146.861928327315, 18433.30483833609, 64939.46193927073, -0.082, 0.986, 0.256, 192.0, 0.0, 0.0, 0.0, 0.0, 0.0, 0.0, 0.0, 0.0, 0.0, 1.6527906728248584E9, 0.0, 2022-05-17 14:31:12.824
116.0, 81731.70169969818, 61275.63104339017, 26747.729092565667, 13096.200000786783, 81498.08126665131, 19106.11469818529, 18497.18612398936, 65089.710365499304, -0.078, 0.99, 0.254, 192.0, 253.0, 144.0, 30.0, 240.0, 7.0, 240.0, 0.0, 0.0, 0.0, 1.6527906728248649E9, 0.0, 2022-05-17 14:31:12.824
117.0, 81710.6910599102, 61259.13545598215, 26722.71749052018, 13067.142732994884, 82047.0624622181, 18998.245179443977, 18428.767434211666, 65078.13216187146, -0.078, 0.99, 0.254, 192.0, 0.0, 0.0, 0.0, 0.0, 0.0, 0.0, 0.0, 0.0, 0.0, 1.6527906728248713E9, 0.0, 2022-05-17 14:31:12.824
118.0, 81716.97190010213, 61282.873008593684, 26738.76604303909, 13099.351596754981, 81328.40917449107, 18951.03829515437, 18306.34692982995, 64897.12773527238, -0.078, 0.99, 0.254, 192.0, 0.0, 0.0, 0.0, 0.0, 0.0, 0.0, 0.0, 0.0, 0.0, 1.6527906728248773E9, 0.0, 2022-05-17 14:31:12.824
119.0, 81739.68127246872, 61316.73590144348, 26769.276174220584, 13150.112408412982, 80361.58446807676, 19046.748464911994, 18307.08453739697, 64820.46125179068, -0.078, 0.99, 0.254, 192.0, 0.0, 0.0, 0.0, 0.0, 0.0, 0.0, 0.0, 0.0, 0.0, 1.6527906728248837E9, 0.0, 2022-05-17 14:31:12.824
120.0, 81746.83383069442, 61317.42880552159, 26772.986563800165, 13149.5536148016, 80473.05261767538, 19156.763751121016, 18425.615838243466, 64949.2296515977, -0.078, 0.99, 0.254, 192.0, 0.0, 0.0, 0.0, 0.0, 0.0, 0.0, 0.0, 0.0, 0.0, 1.6527906728248897E9, 0.0, 2022-05-17 14:31:12.824
121.0, 81723.74447867209, 61280.23550274796, 26739.749519795125, 13093.718957152243, 81516.38734536021, 19124.465480383096, 18488.62540586298, 65115.370168133995, -0.078, 0.99, 0.254, 192.0, 0.0, 0.0, 0.0, 0.0, 0.0, 0.0, 0.0, 0.0, 0.0, 1.652790673301571E9, 0.0, 2022-05-17 14:31:13.301
122.0, 81701.19156851669, 61258.3084414373, 26716.101374161408, 13064.885206804896, 82066.95551478333, 18998.848676544272, 18415.199925327295, 65095.96885394679, -0.078, 0.99, 0.254, 192.0, 0.0, 0.0, 0.0, 0.0, 0.0, 0.0, 0.0, 0.0, 0.0, 1.6527906733017547E9, 0.0, 2022-05-17 14:31:13.301
123.0, 81708.54529244248, 61286.60574991772, 26737.871973260877, 13099.776279899632, 81369.33521858873, 18950.099521887245, 18307.732737986178, 64925.93913387527, -0.078, 0.99, 0.254, 192.0, 0.0, 0.0, 0.0, 0.0, 0.0, 0.0, 0.0, 0.0, 0.0, 1.6527906733017604E9, 0.0, 2022-05-17 14:31:13.301
124.0, 81729.64533920829, 61317.67467471059, 26773.34419171145, 13153.956908459295, 80389.14416899015, 19044.490938722007, 18310.48200255418, 64837.895612465814, -0.078, 0.99, 0.254, 192.0, 0.0, 0.0, 0.0, 0.0, 0.0, 0.0, 0.0, 0.0, 0.0, 1.652790673301766E9, 0.0, 2022-05-17 14:31:13.301
125.0, 81736.797897434, 61312.71258744152, 26774.998220801142, 13147.877233967452, 80472.76204499746, 19144.49264341505, 18418.26211431767, 64948.916727175325, -0.078, 0.99, 0.254, 192.0, 0.0, 0.0, 0.0, 0.0, 0.0, 0.0, 0.0, 0.0, 0.0, 1.6527906733017714E9, 0.0, 2022-05-17 14:31:13.301
126.0, 81714.44615297868, 61275.7651538569, 26737.112013949398, 13089.494477450191, 81507.33488885581, 19107.58991331934, 18481.89753078193, 65111.21274366531, -0.08, 0.998, 0.252, 192.0, 253.0, 128.0, 31.0, 48.0, 7.0, 224.0, 0.0, 0.0, 0.0, 1.652790673301777E9, 0.0, 2022-05-17 14:31:13.301
127.0, 81703.51614994004, 61267.427953175065, 26725.891438232833, 13074.20588424276, 82060.02647400218, 18982.554254836352, 18420.54199225211, 65084.99414741924, -0.08, 0.998, 0.252, 192.0, 0.0, 0.0, 0.0, 0.0, 0.0, 0.0, 0.0, 0.0, 0.0, 1.6527906733017821E9, 0.0, 2022-05-17 14:31:13.301
128.0, 81710.91457735475, 61290.53965694185, 26742.92346750778, 13106.571210214044, 81365.20014586451, 18932.776919934382, 18314.23709562267, 64907.92362784429, -0.08, 0.998, 0.252, 192.0, 0.0, 0.0, 0.0, 0.0, 0.0, 0.0, 0.0, 0.0, 0.0, 1.6527906733017983E9, 0.0, 2022-05-17 14:31:13.301
129.0, 81731.94756888719, 61315.90888689863, 26770.371409698895, 13153.576928803555, 80385.5231863884, 19030.118767037246, 18313.611246777924, 64825.803318715494, -0.08, 0.998, 0.252, 192.0, 0.0, 0.0, 0.0, 0.0, 0.0, 0.0, 0.0, 0.0, 0.0, 1.6527906733018036E9, 0.0, 2022-05-17 14:31:13.301
130.0, 81734.11568809935, 61306.789375160864, 26763.934107295765, 13136.74606522871, 80464.46954780455, 19134.948448532636, 18416.78689918362, 64944.021695139614, -0.08, 0.998, 0.252, 192.0, 0.0, 0.0, 0.0, 0.0, 0.0, 0.0, 0.0, 0.0, 0.0, 1.652790673301809E9, 0.0, 2022-05-17 14:31:13.301
131.0, 81717.15071405777, 61278.73793586945, 26733.178106925265, 13091.170858284338, 81501.1434556417, 19106.137049929745, 18489.765344830197, 65114.945484989345, -0.08, 0.998, 0.252, 192.0, 0.0, 0.0, 0.0, 0.0, 0.0, 0.0, 0.0, 0.0, 0.0, 1.6527906733018143E9, 0.0, 2022-05-17 14:31:13.301
132.0, 81701.86212085035, 61263.11406649519, 26713.866199715878, 13073.960015053752, 82066.08379674958, 18979.447362357067, 18420.921971907854, 65097.10879291401, -0.08, 0.998, 0.252, 192.0, 0.0, 0.0, 0.0, 0.0, 0.0, 0.0, 0.0, 0.0, 0.0, 1.6527906733018196E9, 0.0, 2022-05-17 14:31:13.301
133.0, 81709.79699013197, 61290.27143600839, 26737.33553139395, 13116.651846963388, 81366.09421564272, 18929.424158266087, 18313.544191544555, 64909.10827030043, -0.08, 0.998, 0.252, 192.0, 0.0, 0.0, 0.0, 0.0, 0.0, 0.0, 0.0, 0.0, 0.0, 1.6527906733018248E9, 0.0, 2022-05-17 14:31:13.301
134.0, 81731.1876095757, 61324.201384091546, 26771.421941688295, 13168.351431888514, 80375.12962521668, 19037.964229341058, 18318.886258469374, 64820.282437835034, -0.08, 0.998, 0.252, 192.0, 0.0, 0.0, 0.0, 0.0, 0.0, 0.0, 0.0, 0.0, 0.0, 1.6527906733018308E9, 0.0, 2022-05-17 14:31:13.301
135.0, 81738.78720269051, 61321.18389859008, 26773.187729500263, 13166.31742314308, 80445.47056501753, 19144.64910562624, 18430.488518534723, 64944.55813700654, -0.08, 0.998, 0.252, 192.0, 0.0, 0.0, 0.0, 0.0, 0.0, 0.0, 0.0, 0.0, 0.0, 1.652790673301836E9, 0.0, 2022-05-17 14:31:13.301
136.0, 81720.25760653707, 61283.90118883863, 26741.1129762069, 13113.299085295092, 81469.7839581709, 19112.864925010792, 18493.475734409778, 65106.20595290732, -0.08, 0.996, 0.252, 192.0, 253.0, 128.0, 31.0, 32.0, 7.0, 224.0, 0.0, 0.0, 0.0, 1.6527906733018413E9, 0.0, 2022-05-17 14:31:13.301
137.0, 81710.13226629881, 61269.88664506515, 26726.182010910754, 13089.025090816629, 82048.09064246305, 18997.038185243393, 18427.135756866428, 65089.106868399016, -0.08, 0.996, 0.252, 192.0, 0.0, 0.0, 0.0, 0.0, 0.0, 0.0, 0.0, 0.0, 0.0, 1.6527906733018465E9, 0.0, 2022-05-17 14:31:13.301
138.0, 81721.24108329309, 61296.4181657336, 26749.740749566645, 13128.162995357872, 81359.54515451731, 18951.775902721394, 18321.970799204206, 64899.22879925118, -0.08, 0.996, 0.252, 192.0, 0.0, 0.0, 0.0, 0.0, 0.0, 0.0, 0.0, 0.0, 0.0, 1.652790673301852E9, 0.0, 2022-05-17 14:31:13.301
139.0, 81739.05542362397, 61326.10128237025, 26771.15372075483, 13176.107487214505, 80358.14229943065, 19049.117749824258, 18313.47713631119, 64802.91513239326, -0.08, 0.996, 0.252, 192.0, 0.0, 0.0, 0.0, 0.0, 0.0, 0.0, 0.0, 0.0, 0.0, 1.6527906733018572E9, 0.0, 2022-05-17 14:31:13.301
140.0, 81746.27503708303, 61317.58526773278, 26768.58327014247, 13167.569120832577, 80408.90311108866, 19150.997001051546, 18418.239762573216, 64919.56888670551, -0.08, 0.996, 0.252, 192.0, 0.0, 0.0, 0.0, 0.0, 0.0, 0.0, 0.0, 0.0, 0.0, 1.6527906733018627E9, 0.0, 2022-05-17 14:31:13.301
141.0, 81723.02922284952, 61271.004232287916, 26726.740804522135, 13103.911352623863, 81429.3720041957, 19107.344044130332, 18485.250292450226, 65082.78132471816, -0.08, 0.996, 0.252, 192.0, 0.0, 0.0, 0.0, 0.0, 0.0, 0.0, 0.0, 0.0, 0.0, 1.652790673301868E9, 0.0, 2022-05-17 14:31:13.301
142.0, 81711.56277794395, 61256.47559839197, 26716.347243350418, 13075.032898787607, 82018.09460140402, 18978.66505130113, 18424.677064976342, 65066.19633033232, -0.08, 0.996, 0.252, 192.0, 0.0, 0.0, 0.0, 0.0, 0.0, 0.0, 0.0, 0.0, 0.0, 1.6527906733018732E9, 0.0, 2022-05-17 14:31:13.301
143.0, 81718.73768791411, 61285.55521792832, 26743.95164775272, 13113.813175417565, 81358.69578822801, 18937.783710692373, 18322.52959281559, 64895.451354438235, -0.08, 0.996, 0.252, 192.0, 0.0, 0.0, 0.0, 0.0, 0.0, 0.0, 0.0, 0.0, 0.0, 1.6527906733018787E9, 0.0, 2022-05-17 14:31:13.301
144.0, 81739.7483277021, 61316.221811321004, 26775.981697557178, 13170.22897842276, 80363.43966286656, 19036.57842118483, 18319.04272068056, 64809.77711794104, -0.08, 0.996, 0.252, 192.0, 0.0, 0.0, 0.0, 0.0, 0.0, 0.0, 0.0, 0.0, 0.0, 1.652790673301884E9, 0.0, 2022-05-17 14:31:13.301
145.0, 81741.98350214762, 61301.98375010297, 26768.62797363138, 13158.561367817088, 80401.95171856305, 19150.617021395807, 18427.35927431098, 64926.31911353101, -0.08, 0.996, 0.252, 192.0, 0.0, 0.0, 0.0, 0.0, 0.0, 0.0, 0.0, 0.0, 0.0, 1.6527906733018892E9, 0.0, 2022-05-17 14:31:13.301
146.0, 81724.01269960555, 61270.80306658782, 26732.261685402595, 13102.346730511992, 81426.6227396277, 19122.31971291539, 18497.90137981193, 65097.22055163629, -0.078, 0.992, 0.252, 192.0, 253.0, 144.0, 31.0, 0.0, 7.0, 224.0, 0.0, 0.0, 0.0, 1.6527906733018947E9, 0.0, 2022-05-17 14:31:13.301
147.0, 81704.25375750706, 61258.37549667067, 26713.70973750469, 13074.272939476126, 82028.68932827584, 18994.646548586672, 18432.611934257977, 65085.798810219625, -0.078, 0.992, 0.252, 192.0, 0.0, 0.0, 0.0, 0.0, 0.0, 0.0, 0.0, 0.0, 0.0, 1.6527906733019E9, 0.0, 2022-05-17 14:31:13.301
148.0, 81708.34412674238, 61275.72045036798, 26731.501726091115, 13111.55564922758, 81384.46734958499, 18934.676818213084, 18318.707444513733, 64922.13933731787, -0.078, 0.992, 0.252, 192.0, 0.0, 0.0, 0.0, 0.0, 0.0, 0.0, 0.0, 0.0, 0.0, 1.6527906733019056E9, 0.0, 2022-05-17 14:31:13.301
149.0, 81727.27605429603, 61303.146040814645, 26757.943839781743, 13155.387420104435, 80385.70200034404, 19029.023531558934, 18304.514086784613, 64832.71000775218, -0.078, 0.992, 0.252, 192.0, 0.0, 0.0, 0.0, 0.0, 0.0, 0.0, 0.0, 0.0, 0.0, 1.6527906733019109E9, 0.0, 2022-05-17 14:31:13.301
150.0, 81739.36834804635, 61304.4200902486, 26767.91271780881, 13164.730449286753, 80400.38709645117, 19130.388692663753, 18409.12025083545, 64934.298686301554, -0.078, 0.992, 0.252, 192.0, 0.0, 0.0, 0.0, 0.0, 0.0, 0.0, 0.0, 0.0, 0.0, 1.6527906733019185E9, 0.0, 2022-05-17 14:31:13.301
151.0, 81727.90190314078, 61275.00519454542, 26742.074101218477, 13116.02599811864, 81413.18934121005, 19108.752204031018, 18486.971376773283, 65097.77934524767, -0.078, 0.992, 0.252, 192.0, 0.0, 0.0, 0.0, 0.0, 0.0, 0.0, 0.0, 0.0, 0.0, 1.6527906733019235E9, 0.0, 2022-05-17 14:31:13.301
152.0, 81705.036068563, 61251.37940065616, 26716.123725905865, 13082.364270968947, 82037.74178478024, 18980.453190857555, 18421.011378885672, 65099.567484804094, -0.078, 0.992, 0.252, 192.0, 0.0, 0.0, 0.0, 0.0, 0.0, 0.0, 0.0, 0.0, 0.0, 1.652790673301929E9, 0.0, 2022-05-17 14:31:13.301
153.0, 81715.69785066818, 61277.08390677976, 26731.166449924287, 13115.489556251712, 81394.03389621185, 18914.828469136773, 18303.284740839572, 64924.598029207955, -0.078, 0.992, 0.252, 192.0, 0.0, 0.0, 0.0, 0.0, 0.0, 0.0, 0.0, 0.0, 0.0, 1.6527906733019345E9, 0.0, 2022-05-17 14:31:13.301
154.0, 81732.37225203184, 61305.71649142701, 26763.554127640025, 13173.313519157591, 80378.16946246261, 19013.779641840418, 18299.820220448997, 64821.48943203562, -0.078, 0.992, 0.252, 192.0, 0.0, 0.0, 0.0, 0.0, 0.0, 0.0, 0.0, 0.0, 0.0, 1.6527906733019395E9, 0.0, 2022-05-17 14:31:13.301
155.0, 81731.5899409759, 61296.95460760053, 26758.368522926394, 13160.058934695595, 80412.43468671259, 19133.674399098683, 18406.97448336774, 64955.085808644995, -0.078, 0.992, 0.252, 192.0, 0.0, 0.0, 0.0, 0.0, 0.0, 0.0, 0.0, 0.0, 0.0, 1.6527906733019452E9, 0.0, 2022-05-17 14:31:13.301
156.0, 81729.80180141948, 61280.280206236865, 26738.453118616715, 13114.506079495679, 81409.61306209721, 19107.63461680825, 18478.27654818017, 65105.2671796402, -0.084, 0.99, 0.254, 192.0, 253.0, 96.0, 30.0, 240.0, 7.0, 240.0, 0.0, 0.0, 0.0, 1.6527906733019505E9, 0.0, 2022-05-17 14:31:13.301
157.0, 81704.4325714627, 61256.49795013642, 26713.039185171034, 13092.713128651754, 82034.45607834532, 18994.24421718648, 18421.36900679696, 65097.84640048104, -0.084, 0.99, 0.254, 192.0, 0.0, 0.0, 0.0, 0.0, 0.0, 0.0, 0.0, 0.0, 0.0, 1.6527906733019557E9, 0.0, 2022-05-17 14:31:13.301
158.0, 81715.76490590154, 61283.76707837189, 26733.06634820299, 13128.677085480344, 81387.61894555319, 18926.138451831157, 18300.423717549293, 64909.86822961191, -0.084, 0.99, 0.254, 192.0, 0.0, 0.0, 0.0, 0.0, 0.0, 0.0, 0.0, 0.0, 0.0, 1.6527906733019612E9, 0.0, 2022-05-17 14:31:13.301
159.0, 81739.3459963019, 61320.60275323424, 26772.897156822346, 13174.028774980161, 80368.98289549147, 19011.186839483602, 18305.363453073915, 64807.09490860641, -0.084, 0.99, 0.254, 192.0, 0.0, 0.0, 0.0, 0.0, 0.0, 0.0, 0.0, 0.0, 0.0, 1.6527906733019667E9, 0.0, 2022-05-17 14:31:13.301
160.0, 81742.11761261435, 61313.629008964184, 26777.993354558155, 13180.622539594477, 80383.60093636524, 19121.93973325965, 18424.83352718753, 64930.9235728888, -0.084, 0.99, 0.254, 192.0, 0.0, 0.0, 0.0, 0.0, 0.0, 0.0, 0.0, 0.0, 0.0, 1.652790673301972E9, 0.0, 2022-05-17 14:31:13.301
161.0, 81724.70560368367, 61277.016851546396, 26747.61733384339, 13125.659599978877, 81387.35072461973, 19097.933959714646, 18501.90234206943, 65094.44893532383, -0.084, 0.99, 0.254, 192.0, 0.0, 0.0, 0.0, 0.0, 0.0, 0.0, 0.0, 0.0, 0.0, 1.6527906733019772E9, 0.0, 2022-05-17 14:31:13.301
162.0, 81704.70079239616, 61256.386191414145, 26724.595037054427, 13095.060061819562, 82025.51538056319, 18975.692269288575, 18443.944268696818, 65093.711327756806, -0.084, 0.99, 0.254, 192.0, 0.0, 0.0, 0.0, 0.0, 0.0, 0.0, 0.0, 0.0, 0.0, 1.6527906733019826E9, 0.0, 2022-05-17 14:31:13.301
163.0, 81706.66774590824, 61275.98867130145, 26742.878764018868, 13125.480786023234, 81413.07758248778, 18927.926591387582, 18334.420720865815, 64928.509584487634, -0.084, 0.99, 0.254, 192.0, 0.0, 0.0, 0.0, 0.0, 0.0, 0.0, 0.0, 0.0, 0.0, 1.652790673301988E9, 0.0, 2022-05-17 14:31:13.301
164.0, 81725.75613567307, 61302.721357669994, 26768.76208409811, 13173.60409183551, 80399.35891620624, 19006.604731870262, 18320.607342792435, 64830.430129817745, -0.084, 0.99, 0.254, 192.0, 0.0, 0.0, 0.0, 0.0, 0.0, 0.0, 0.0, 0.0, 0.0, 1.6527906733019931E9, 0.0, 2022-05-17 14:31:13.301
165.0, 81740.2400660801, 61303.61542744821, 26775.132331267876, 13181.628368094965, 80391.64756436915, 19122.78909954895, 18427.716902222266, 64940.5795264935, -0.084, 0.99, 0.254, 192.0, 0.0, 0.0, 0.0, 0.0, 0.0, 0.0, 0.0, 0.0, 0.0, 1.6527906733019989E9, 0.0, 2022-05-17 14:31:13.301
166.0, 81725.13028682832, 61268.99257528694, 26747.326761165474, 13127.537146513123, 81406.12618996217, 19114.45189886712, 18511.401833462936, 65116.13012744548, -0.08600000000000001, 0.996, 0.254, 192.0, 253.0, 80.0, 31.0, 32.0, 7.0, 240.0, 0.0, 0.0, 0.0, 1.652790673302004E9, 0.0, 2022-05-17 14:31:13.302
167.0, 81716.05547857947, 61258.196682715025, 26732.641665058338, 13100.938570611308, 82069.43655841787, 18996.367632909732, 18458.048219448116, 65130.83757529707, -0.08600000000000001, 0.996, 0.254, 192.0, 0.0, 0.0, 0.0, 0.0, 0.0, 0.0, 0.0, 0.0, 0.0, 1.6527906733020096E9, 0.0, 2022-05-17 14:31:13.302
168.0, 81725.10793508387, 61288.63975866315, 26753.00410425712, 13133.907393682885, 81460.35152201075, 18934.296838557344, 18344.322543659513, 64959.95848893625, -0.08600000000000001, 0.996, 0.254, 192.0, 0.0, 0.0, 0.0, 0.0, 0.0, 0.0, 0.0, 0.0, 0.0, 1.652790673302015E9, 0.0, 2022-05-17 14:31:13.302
169.0, 81745.09039462691, 61323.8214044358, 26791.091476808964, 13189.987920521251, 80434.85348640126, 19015.500726163475, 18329.43628185228, 64852.78187427305, -0.08600000000000001, 0.996, 0.254, 192.0, 0.0, 0.0, 0.0, 0.0, 0.0, 0.0, 0.0, 0.0, 0.0, 1.6527906733020203E9, 0.0, 2022-05-17 14:31:13.302
170.0, 81760.96013319018, 61324.24608758045, 26800.50156122465, 13196.380519435468, 80407.80787561035, 19129.807547307915, 18439.540975039123, 64956.31515459003, -0.08600000000000001, 0.996, 0.254, 192.0, 0.0, 0.0, 0.0, 0.0, 0.0, 0.0, 0.0, 0.0, 0.0, 1.6527906733020258E9, 0.0, 2022-05-17 14:31:13.302
171.0, 81739.9941968911, 61284.907017339116, 26767.800959086533, 13143.563347287578, 81406.88614927366, 19108.97572147557, 18515.71572014281, 65122.67918857088, -0.08600000000000001, 0.996, 0.254, 192.0, 0.0, 0.0, 0.0, 0.0, 0.0, 0.0, 0.0, 0.0, 0.0, 1.6527906733020332E9, 0.0, 2022-05-17 14:31:13.302
172.0, 81729.22065606364, 61266.91386305259, 26752.646476345835, 13117.92589639734, 82063.49099439276, 18994.870066031228, 18456.75181826971, 65123.79677579365, -0.08600000000000001, 0.996, 0.254, 192.0, 0.0, 0.0, 0.0, 0.0, 0.0, 0.0, 0.0, 0.0, 0.0, 1.6527906733020396E9, 0.0, 2022-05-17 14:31:13.302
173.0, 81737.289635812, 61285.19759001704, 26766.8174823305, 13141.618745519967, 81460.35152201075, 18934.78857693536, 18344.791930293075, 64949.14024461988, -0.08600000000000001, 0.996, 0.254, 192.0, 0.0, 0.0, 0.0, 0.0, 0.0, 0.0, 0.0, 0.0, 0.0, 1.652790673302045E9, 0.0, 2022-05-17 14:31:13.302
174.0, 81760.8930779568, 61319.61927647821, 26795.78534314458, 13188.378594920468, 80433.60178871176, 19021.647455888684, 18332.476119098203, 64843.39414160182, -0.08600000000000001, 0.996, 0.254, 192.0, 0.0, 0.0, 0.0, 0.0, 0.0, 0.0, 0.0, 0.0, 0.0, 1.6527906733020504E9, 0.0, 2022-05-17 14:31:13.302
175.0, 81773.7006275297, 61320.53569800087, 26802.40145950335, 13192.75953683371, 80389.05476201234, 19134.188489221156, 18440.435044817335, 64942.837052683484, -0.08600000000000001, 0.996, 0.254, 192.0, 0.0, 0.0, 0.0, 0.0, 0.0, 0.0, 0.0, 0.0, 0.0, 1.6527906733020558E9, 0.0, 2022-05-17 14:31:13.302
176.0, 81758.7473104891, 61289.869104608195, 26771.6678108773, 13150.000649690706, 81390.39056186564, 19114.854230267316, 18522.734167901777, 65118.99115073576, -0.078, 1.002, 0.258, 192.0, 253.0, 144.0, 31.0, 80.0, 8.0, 16.0, 0.0, 0.0, 0.0, 1.652790673302061E9, 0.0, 2022-05-17 14:31:13.302
177.0, 81738.4966300126, 61274.82638058977, 26746.76796755409, 13123.066797622061, 82064.04978800414, 18992.56783635233, 18464.239652662236, 65128.580049107084, -0.078, 1.002, 0.258, 192.0, 0.0, 0.0, 0.0, 0.0, 0.0, 0.0, 0.0, 0.0, 0.0, 1.6527906733020663E9, 0.0, 2022-05-17 14:31:13.302
178.0, 81741.51411551406, 61292.79718313184, 26758.793206071045, 13150.671202024365, 81473.96373438403, 18930.005303621925, 18341.68503781379, 64956.13634063439, -0.078, 1.002, 0.258, 192.0, 0.0, 0.0, 0.0, 0.0, 0.0, 0.0, 0.0, 0.0, 0.0, 1.6527906733020718E9, 0.0, 2022-05-17 14:31:13.302
179.0, 81763.1506041468, 61325.56484050332, 26794.93597685528, 13208.56222016361, 80442.87776266072, 19023.10031927828, 18327.335217873482, 64847.81978700397, -0.078, 1.002, 0.258, 192.0, 0.0, 0.0, 0.0, 0.0, 0.0, 0.0, 0.0, 0.0, 0.0, 1.6527906733020773E9, 0.0, 2022-05-17 14:31:13.302
180.0, 81777.67923804275, 61329.297581827355, 26808.347023528462, 13207.623446896489, 80390.01588702392, 19127.997056007036, 18434.623591258955, 64950.77192196512, -0.078, 1.002, 0.258, 192.0, 0.0, 0.0, 0.0, 0.0, 0.0, 0.0, 0.0, 0.0, 0.0, 1.6527906733020823E9, 0.0, 2022-05-17 14:31:13.302
181.0, 81774.77351126356, 61300.620293691194, 26790.666793664313, 13162.048239952117, 81383.93090771805, 19109.40040462022, 18517.213287021314, 65126.36722640601, -0.078, 1.002, 0.258, 192.0, 0.0, 0.0, 0.0, 0.0, 0.0, 0.0, 0.0, 0.0, 0.0, 1.652790673302088E9, 0.0, 2022-05-17 14:31:13.302
182.0, 81759.90960120078, 61282.56008417131, 26769.34322945395, 13134.063855894072, 82059.24416294626, 18990.824400284815, 18460.126931682462, 65134.14563347646, -0.078, 1.002, 0.258, 192.0, 0.0, 0.0, 0.0, 0.0, 0.0, 0.0, 0.0, 0.0, 0.0, 1.6527906733020933E9, 0.0, 2022-05-17 14:31:13.302
183.0, 81766.86099372638, 61304.57655245979, 26783.558938927526, 13157.019097449673, 81484.02201938893, 18928.150108832135, 18336.655895311345, 64970.24029138569, -0.078, 1.002, 0.258, 192.0, 0.0, 0.0, 0.0, 0.0, 0.0, 0.0, 0.0, 0.0, 0.0, 1.6527906733020985E9, 0.0, 2022-05-17 14:31:13.302
184.0, 81791.78318879404, 61339.69114299907, 26822.361567301938, 13215.111281289015, 80440.57553298182, 19019.255819231967, 18319.333293358482, 64851.485473094646, -0.078, 1.002, 0.258, 192.0, 0.0, 0.0, 0.0, 0.0, 0.0, 0.0, 0.0, 0.0, 0.0, 1.652790673302104E9, 0.0, 2022-05-17 14:31:13.302
185.0, 81800.92505227626, 61339.445273810066, 26829.000035405166, 13219.38046447998, 80378.34827641824, 19140.089349757356, 18437.015227915672, 64955.488140045185, -0.078, 1.002, 0.258, 192.0, 0.0, 0.0, 0.0, 0.0, 0.0, 0.0, 0.0, 0.0, 0.0, 1.6527906733021092E9, 0.0, 2022-05-17 14:31:13.302
186.0, 81785.50234860211, 61309.158660073124, 26793.907796610332, 13167.949100488318, 81381.00282919442, 19125.9630472616, 18525.79635689215, 65145.99205803777, -0.078, 0.994, 0.254, 192.0, 253.0, 144.0, 31.0, 16.0, 7.0, 240.0, 0.0, 0.0, 0.0, 1.6527906733021145E9, 0.0, 2022-05-17 14:31:13.302
187.0, 81769.92318271675, 61292.64072092065, 26774.931165567777, 13143.920975198864, 82062.41811065891, 19008.728147593516, 18467.21243467479, 65152.496415674264, -0.078, 0.994, 0.254, 192.0, 0.0, 0.0, 0.0, 0.0, 0.0, 0.0, 0.0, 0.0, 0.0, 1.65279067330212E9, 0.0, 2022-05-17 14:31:13.302
188.0, 81770.01258969458, 61307.12465132769, 26786.509369195628, 13167.144437687926, 81483.61968798873, 18946.679704985585, 18348.614078594932, 64975.492951332686, -0.078, 0.994, 0.254, 192.0, 0.0, 0.0, 0.0, 0.0, 0.0, 0.0, 0.0, 0.0, 0.0, 1.6527906733021252E9, 0.0, 2022-05-17 14:31:13.302
189.0, 81797.48288363015, 61343.87091921222, 26820.953407401255, 13219.961609835818, 80436.93219863561, 19031.079892048823, 18336.991171478174, 64856.134635941344, -0.078, 0.994, 0.254, 192.0, 0.0, 0.0, 0.0, 0.0, 0.0, 0.0, 0.0, 0.0, 0.0, 1.6527906733021307E9, 0.0, 2022-05-17 14:31:13.302
190.0, 81810.08926750295, 61343.490939556475, 26831.950465673264, 13230.064598329616, 80359.68456979806, 19148.515957417007, 18446.782940242643, 64956.695134245776, -0.078, 0.994, 0.254, 192.0, 0.0, 0.0, 0.0, 0.0, 0.0, 0.0, 0.0, 0.0, 0.0, 1.652790673302136E9, 0.0, 2022-05-17 14:31:13.302
191.0, 81789.01157248158, 61310.90209614064, 26798.333442012485, 13178.342661660035, 81338.73568042942, 19133.562640376407, 18533.86533664052, 65127.685979328875, -0.078, 0.994, 0.254, 192.0, 0.0, 0.0, 0.0, 0.0, 0.0, 0.0, 0.0, 0.0, 0.0, 1.6527906733021412E9, 0.0, 2022-05-17 14:31:13.302
192.0, 81768.96205770518, 61295.07706106628, 26775.467607434704, 13142.915146698375, 82040.82632551508, 19015.81365058585, 18479.930577269864, 65145.23209872629, -0.078, 0.994, 0.254, 192.0, 0.0, 0.0, 0.0, 0.0, 0.0, 0.0, 0.0, 0.0, 0.0, 1.6527906733021488E9, 0.0, 2022-05-17 14:31:13.302
193.0, 81776.04756069751, 61316.33357004328, 26797.14879955635, 13170.966585989785, 81474.45547276206, 18948.959582920026, 18360.080523500506, 64966.41814308383, -0.078, 0.994, 0.254, 192.0, 0.0, 0.0, 0.0, 0.0, 0.0, 0.0, 0.0, 0.0, 0.0, 1.6527906733021543E9, 0.0, 2022-05-17 14:31:13.302
194.0, 81800.0533342425, 61347.67071576962, 26829.40236680536, 13217.61467666801, 80426.80685839735, 19033.739749639004, 18340.031008724094, 64847.68567653724, -0.078, 0.994, 0.254, 192.0, 0.0, 0.0, 0.0, 0.0, 0.0, 0.0, 0.0, 0.0, 0.0, 1.6527906733021595E9, 0.0, 2022-05-17 14:31:13.302
195.0, 81810.33513669195, 61346.44136982458, 26832.50925928465, 13211.311484731614, 80355.32597962928, 19164.519806447006, 18454.628402546456, 64968.228634384715, -0.076, 0.994, 0.256, 192.0, 253.0, 160.0, 31.0, 16.0, 8.0, 0.0, 0.0, 0.0, 0.0, 1.6527906733021648E9, 0.0, 2022-05-17 14:31:13.302
196.0, 81793.32545916147, 61310.343302529254, 26799.808657146536, 13159.097809684017, 81333.05833733777, 19142.771559091994, 18528.925601115894, 65144.807415581636, -0.076, 0.994, 0.256, 192.0, 0.0, 0.0, 0.0, 0.0, 0.0, 0.0, 0.0, 0.0, 0.0, 1.65279067330217E9, 0.0, 2022-05-17 14:31:13.302
197.0, 81776.04756069751, 61293.087755809756, 26772.15954925532, 13130.018190147663, 82043.0614999606, 19024.463775690052, 18478.723583069277, 65162.82292161261, -0.076, 0.994, 0.256, 192.0, 0.0, 0.0, 0.0, 0.0, 0.0, 0.0, 0.0, 0.0, 0.0, 1.6527906733021755E9, 0.0, 2022-05-17 14:31:13.302
198.0, 81786.17290093577, 61321.407416034635, 26791.15853204233, 13153.621632292467, 81492.60508925976, 18956.201548123547, 18362.62862236841, 64991.362689895956, -0.076, 0.994, 0.256, 192.0, 0.0, 0.0, 0.0, 0.0, 0.0, 0.0, 0.0, 0.0, 0.0, 1.6527906733021808E9, 0.0, 2022-05-17 14:31:13.302
199.0, 81807.5635203795, 61355.1809019066, 26823.948541158265, 13211.892630087452, 80451.57259125383, 19047.06138933437, 18347.787064050088, 64880.25216820862, -0.076, 0.994, 0.256, 192.0, 0.0, 0.0, 0.0, 0.0, 0.0, 0.0, 0.0, 0.0, 0.0, 1.6527906733021863E9, 0.0, 2022-05-17 14:31:13.302
200.0, 81818.00178504012, 61354.108018172745, 26833.202163362763, 13225.549545949645, 80342.49607831193, 19160.429437211686, 18448.41461758788, 64967.42397158432, -0.076, 0.994, 0.256, 192.0, 0.0, 0.0, 0.0, 0.0, 0.0, 0.0, 0.0, 0.0, 0.0, 1.6527906733021915E9, 0.0, 2022-05-17 14:31:13.302
201.0, 81794.66656382878, 61312.75729093043, 26802.200293803253, 13171.815952279087, 81327.51510471286, 19142.01159978051, 18537.95570587584, 65154.79864535316, -0.076, 0.994, 0.256, 192.0, 0.0, 0.0, 0.0, 0.0, 0.0, 0.0, 0.0, 0.0, 0.0, 1.6527906733021967E9, 0.0, 2022-05-17 14:31:13.302
202.0, 81773.32064787396, 61288.66211040761, 26775.53466266807, 13133.907393682885, 82040.42399411488, 19016.394795941687, 18483.685670338353, 65168.27674725971, -0.076, 0.994, 0.256, 192.0, 0.0, 0.0, 0.0, 0.0, 0.0, 0.0, 0.0, 0.0, 0.0, 1.6527906733022022E9, 0.0, 2022-05-17 14:31:13.302
203.0, 81778.34979037641, 61308.823383906296, 26788.856302363434, 13156.437952093835, 81517.39317386069, 18953.921670189105, 18366.406067181357, 65011.546315139094, -0.076, 0.994, 0.256, 192.0, 0.0, 0.0, 0.0, 0.0, 0.0, 0.0, 0.0, 0.0, 0.0, 1.6527906733022077E9, 0.0, 2022-05-17 14:31:13.302
204.0, 81811.54213089254, 61356.11967517372, 26835.817317464032, 13216.340627234058, 80451.95257090958, 19032.2421827605, 18342.892032014373, 64875.02186000608, -0.076, 0.994, 0.256, 192.0, 0.0, 0.0, 0.0, 0.0, 0.0, 0.0, 0.0, 0.0, 0.0, 1.6527906733022127E9, 0.0, 2022-05-17 14:31:13.302
205.0, 81825.13199152137, 61358.89129148619, 26840.667646010836, 13221.816804625609, 80347.4134620921, 19152.94160281916, 18457.109446180995, 64978.30927113406, -0.084, 0.996, 0.258, 192.0, 253.0, 96.0, 31.0, 32.0, 8.0, 16.0, 0.0, 0.0, 0.0, 1.6527906733022184E9, 0.0, 2022-05-17 14:31:13.302
206.0, 81808.4128866688, 61325.83306143678, 26806.69299443877, 13178.901455271418, 81332.03015709283, 19148.068922527902, 18541.956668133338, 65170.93660484989, -0.084, 0.996, 0.258, 192.0, 0.0, 0.0, 0.0, 0.0, 0.0, 0.0, 0.0, 0.0, 0.0, 1.6527906733022237E9, 0.0, 2022-05-17 14:31:13.302
207.0, 81793.95130800622, 61310.67857869608, 26781.368467970904, 13141.46228330878, 82053.23154368777, 19027.548316424887, 18485.965548272794, 65184.459410245356, -0.084, 0.996, 0.258, 192.0, 0.0, 0.0, 0.0, 0.0, 0.0, 0.0, 0.0, 0.0, 0.0, 1.6527906733022287E9, 0.0, 2022-05-17 14:31:13.302
208.0, 81803.2049302107, 61338.77472147641, 26802.11088682543, 13175.012251736194, 81512.87812148072, 18960.31426910332, 18369.11062826045, 65000.68336733382, -0.084, 0.996, 0.258, 192.0, 0.0, 0.0, 0.0, 0.0, 0.0, 0.0, 0.0, 0.0, 0.0, 1.6527906733022344E9, 0.0, 2022-05-17 14:31:13.302
209.0, 81818.31470946249, 61366.73675379, 26828.64240749388, 13223.873165115496, 80460.02155065794, 19050.235337047023, 18350.715142573732, 64876.25120595112, -0.084, 0.996, 0.258, 192.0, 0.0, 0.0, 0.0, 0.0, 0.0, 0.0, 0.0, 0.0, 0.0, 1.6527906733022404E9, 0.0, 2022-05-17 14:31:13.302
210.0, 81824.32732872097, 61361.19352116508, 26836.912552942344, 13234.423188498402, 80334.27063635238, 19161.457617456632, 18454.628402546456, 64968.89918671837, -0.084, 0.996, 0.258, 192.0, 0.0, 0.0, 0.0, 0.0, 0.0, 0.0, 0.0, 0.0, 0.0, 1.6527906733022456E9, 0.0, 2022-05-17 14:31:13.302
211.0, 81807.25059595711, 61325.78835794787, 26810.49279099617, 13182.74595531773, 81296.40147643107, 19149.65589638423, 18536.324028530602, 65143.42160742541, -0.084, 0.996, 0.258, 192.0, 0.0, 0.0, 0.0, 0.0, 0.0, 0.0, 0.0, 0.0, 0.0, 1.652790673302251E9, 0.0, 2022-05-17 14:31:13.302
212.0, 81790.37502889337, 61310.79033741836, 26789.63861341937, 13146.69259151132, 82046.54837209564, 19032.309237993864, 18495.509743155213, 65175.630471185505, -0.084, 0.996, 0.258, 192.0, 0.0, 0.0, 0.0, 0.0, 0.0, 0.0, 0.0, 0.0, 0.0, 1.6527906733022563E9, 0.0, 2022-05-17 14:31:13.302
213.0, 81790.26327017108, 61326.1236341147, 26802.40145950335, 13170.765420289687, 81549.91496204317, 18955.910975445626, 18373.06688702904, 65024.8008996011, -0.084, 0.996, 0.258, 192.0, 0.0, 0.0, 0.0, 0.0, 0.0, 0.0, 0.0, 0.0, 0.0, 1.652790673302262E9, 0.0, 2022-05-17 14:31:13.302
214.0, 81812.32444194847, 61359.47243684202, 26834.20799186325, 13230.086950074072, 80504.74739131301, 19043.596868943798, 18349.64225883988, 64912.505735457635, -0.084, 0.996, 0.258, 192.0, 0.0, 0.0, 0.0, 0.0, 0.0, 0.0, 0.0, 0.0, 0.0, 1.6527906733022692E9, 0.0, 2022-05-17 14:31:13.302
215.0, 81822.98622405366, 61358.734829274996, 26843.483965812204, 13229.081121573583, 80365.45131986754, 19157.233137754578, 18449.80042574411, 65004.23729470221, -0.082, 0.996, 0.258, 192.0, 253.0, 112.0, 31.0, 32.0, 8.0, 16.0, 0.0, 0.0, 0.0, 1.6527906733022745E9, 0.0, 2022-05-17 14:31:13.302
216.0, 81810.98333728116, 61325.721302714504, 26816.438355021284, 13174.27464416917, 81320.07197380924, 19155.4226464537, 18542.783682678186, 65176.99392759728, -0.082, 0.996, 0.258, 192.0, 0.0, 0.0, 0.0, 0.0, 0.0, 0.0, 0.0, 0.0, 0.0, 1.6527906733022797E9, 0.0, 2022-05-17 14:31:13.302
217.0, 81789.61506958188, 61306.1188228272, 26787.73871514067, 13130.5993355035, 82059.44532864635, 19038.00893282997, 18494.526266399178, 65192.14841033798, -0.082, 0.996, 0.258, 192.0, 0.0, 0.0, 0.0, 0.0, 0.0, 0.0, 0.0, 0.0, 0.0, 1.6527906733022852E9, 0.0, 2022-05-17 14:31:13.302
218.0, 81786.35171489141, 61317.18293633258, 26794.35483149944, 13149.777132246154, 81552.64187486672, 18957.94498419106, 18371.30109921707, 65021.09051002152, -0.082, 0.996, 0.258, 192.0, 0.0, 0.0, 0.0, 0.0, 0.0, 0.0, 0.0, 0.0, 0.0, 1.6527906733022904E9, 0.0, 2022-05-17 14:31:13.302
219.0, 81813.19615998222, 61353.81744549483, 26826.876619681912, 13203.287208472158, 80491.78337952893, 19029.068235047846, 18348.21174719474, 64894.4678776822, -0.082, 0.996, 0.258, 192.0, 0.0, 0.0, 0.0, 0.0, 0.0, 0.0, 0.0, 0.0, 0.0, 1.6527906733022957E9, 0.0, 2022-05-17 14:31:13.302
220.0, 81823.12033452038, 61357.52783507441, 26835.347930830474, 13207.511688174212, 80350.07331968228, 19146.75016960504, 18455.32130662457, 64997.2411986877, -0.082, 0.996, 0.258, 192.0, 0.0, 0.0, 0.0, 0.0, 0.0, 0.0, 0.0, 0.0, 0.0, 1.6527906733023012E9, 0.0, 2022-05-17 14:31:13.302
221.0, 81812.10092450392, 61327.352980059746, 26802.98260485919, 13156.259138138192, 81298.52489215432, 19132.065073497903, 18540.034418110183, 65173.37294499552, -0.082, 0.996, 0.258, 192.0, 0.0, 0.0, 0.0, 0.0, 0.0, 0.0, 0.0, 0.0, 0.0, 1.6527906733023064E9, 0.0, 2022-05-17 14:31:13.302
222.0, 81788.45277887021, 61303.97305535949, 26768.82913933148, 13120.094015609506, 82051.35399715352, 19015.321912207834, 18492.5146093982, 65198.988044141304, -0.082, 0.996, 0.258, 192.0, 0.0, 0.0, 0.0, 0.0, 0.0, 0.0, 0.0, 0.0, 0.0, 1.652790673302314E9, 0.0, 2022-05-17 14:31:13.302
223.0, 81785.72586604666, 61320.02160787841, 26777.032229546578, 13134.466187294269, 81565.4047209507, 18937.537841503363, 18368.97651779372, 65038.63662941893, -0.082, 0.996, 0.258, 192.0, 0.0, 0.0, 0.0, 0.0, 0.0, 0.0, 0.0, 0.0, 0.0, 1.6527906733023193E9, 0.0, 2022-05-17 14:31:13.302
224.0, 81805.14953197831, 61348.229509381, 26804.189599059773, 13182.56714136209, 80512.0564117499, 19007.23058071501, 18338.35462788995, 64919.1218518164, -0.082, 0.996, 0.258, 192.0, 0.0, 0.0, 0.0, 0.0, 0.0, 0.0, 0.0, 0.0, 0.0, 1.6527906733023245E9, 0.0, 2022-05-17 14:31:13.302
225.0, 81814.7607820941, 61351.246994882466, 26808.905817139843, 13190.971397277284, 80361.22684016549, 19129.092291485347, 18444.190137885827, 65024.085643778526, -0.08600000000000001, 0.998, 0.262, 192.0, 253.0, 80.0, 31.0, 48.0, 8.0, 48.0, 0.0, 0.0, 0.0, 1.65279067330233E9, 0.0, 2022-05-17 14:31:13.302
226.0, 81798.84634004193, 61319.12753810019, 26782.262537749117, 13142.557518787089, 81312.38297371662, 19133.048550253934, 18528.545621460155, 65213.91900943745, -0.08600000000000001, 0.998, 0.262, 192.0, 0.0, 0.0, 0.0, 0.0, 0.0, 0.0, 0.0, 0.0, 0.0, 1.6527906733023355E9, 0.0, 2022-05-17 14:31:13.302
227.0, 81780.0038194661, 61299.726223912985, 26760.76015958311, 13106.92883812533, 82057.81365130111, 19007.945836537583, 18483.573911616077, 65225.31839910965, -0.08600000000000001, 0.998, 0.262, 192.0, 0.0, 0.0, 0.0, 0.0, 0.0, 0.0, 0.0, 0.0, 0.0, 1.6527906733023407E9, 0.0, 2022-05-17 14:31:13.302
228.0, 81790.35267714891, 61320.625104978695, 26776.58519465747, 13123.849108677998, 81593.88084338675, 18933.4698240125, 18367.30013695957, 65073.6618129804, -0.08600000000000001, 0.998, 0.262, 192.0, 0.0, 0.0, 0.0, 0.0, 0.0, 0.0, 0.0, 0.0, 0.0, 1.652790673302346E9, 0.0, 2022-05-17 14:31:13.302
229.0, 81823.36620370939, 61362.86990199923, 26820.484020767693, 13191.910170544406, 80515.94561528512, 19000.4356504006, 18330.95620047524, 64929.2248403102, -0.08600000000000001, 0.998, 0.262, 192.0, 0.0, 0.0, 0.0, 0.0, 0.0, 0.0, 0.0, 0.0, 0.0, 1.6527906733023517E9, 0.0, 2022-05-17 14:31:13.302
230.0, 81839.97354983969, 61372.70466955956, 26835.347930830474, 13209.076310286084, 80315.27165356537, 19127.03593099546, 18433.79657671411, 64995.833038787016, -0.08600000000000001, 0.998, 0.262, 192.0, 0.0, 0.0, 0.0, 0.0, 0.0, 0.0, 0.0, 0.0, 0.0, 1.652790673302357E9, 0.0, 2022-05-17 14:31:13.302
231.0, 81823.8132385985, 61342.39570407817, 26805.01661360462, 13160.148341673415, 81239.51628679232, 19134.523765387985, 18527.562144704123, 65160.2301192558, -0.08600000000000001, 0.998, 0.262, 192.0, 0.0, 0.0, 0.0, 0.0, 0.0, 0.0, 0.0, 0.0, 0.0, 1.6527906733023624E9, 0.0, 2022-05-17 14:31:13.302
232.0, 81800.47801738715, 61316.19945957655, 26778.35098246944, 13125.88311742343, 82010.96439492279, 19027.615371658252, 18491.553484386623, 65189.22033181434, -0.08600000000000001, 0.998, 0.262, 192.0, 0.0, 0.0, 0.0, 0.0, 0.0, 0.0, 0.0, 0.0, 0.0, 1.6527906733023677E9, 0.0, 2022-05-17 14:31:13.302
233.0, 81795.73944756264, 61325.98952364797, 26785.592947672958, 13143.116312398472, 81556.01698827947, 18959.196681880556, 18373.5362736626, 65038.748388141204, -0.08600000000000001, 0.998, 0.262, 192.0, 0.0, 0.0, 0.0, 0.0, 0.0, 0.0, 0.0, 0.0, 0.0, 1.6527906733023732E9, 0.0, 2022-05-17 14:31:13.302
234.0, 81812.05622101501, 61354.04096293938, 26818.651177722357, 13192.804240322619, 80510.78236231593, 19029.2917524924, 18346.714180316234, 64929.202488565745, -0.08600000000000001, 0.998, 0.262, 192.0, 0.0, 0.0, 0.0, 0.0, 0.0, 0.0, 0.0, 0.0, 0.0, 1.6527906733023784E9, 0.0, 2022-05-17 14:31:13.302
235.0, 81820.37106995238, 61350.71055301554, 26828.39653830487, 13196.447574668835, 80323.74296471394, 19136.64718111124, 18446.358257097992, 65020.241143732215, -0.078, 0.992, 0.262, 192.0, 253.0, 144.0, 31.0, 0.0, 8.0, 48.0, 0.0, 0.0, 0.0, 1.652790673302386E9, 0.0, 2022-05-17 14:31:13.302
236.0, 81804.72484883366, 61316.6241427212, 26795.07008732201, 13143.36218158748, 81260.45987134695, 19128.86877404079, 18533.150080817948, 65203.592503499094, -0.078, 0.992, 0.262, 192.0, 0.0, 0.0, 0.0, 0.0, 0.0, 0.0, 0.0, 0.0, 0.0, 1.6527906733023913E9, 0.0, 2022-05-17 14:31:13.302
237.0, 81782.08253170043, 61294.85354362173, 26767.800959086533, 13104.02311134614, 82039.35111038103, 19004.794240569383, 18487.597225618032, 65235.53314632573, -0.078, 0.992, 0.262, 192.0, 0.0, 0.0, 0.0, 0.0, 0.0, 0.0, 0.0, 0.0, 0.0, 1.6527906733023965E9, 0.0, 2022-05-17 14:31:13.302
238.0, 81783.42363636776, 61312.28790429687, 26777.613374902416, 13138.154225129394, 81596.89832888822, 18941.784672949874, 18371.21169223925, 65087.51989454269, -0.078, 0.992, 0.262, 192.0, 0.0, 0.0, 0.0, 0.0, 0.0, 0.0, 0.0, 0.0, 0.0, 1.652790673302402E9, 0.0, 2022-05-17 14:31:13.302
239.0, 81806.1106569899, 61347.134273902695, 26812.79502067507, 13185.472868141278, 80545.20404877712, 19017.020644786437, 18342.467348869723, 64972.45311408676, -0.078, 0.992, 0.262, 192.0, 0.0, 0.0, 0.0, 0.0, 0.0, 0.0, 0.0, 0.0, 0.0, 1.6527906733024073E9, 0.0, 2022-05-17 14:31:13.302
240.0, 81818.69468911823, 61352.230471638504, 26819.58995098948, 13194.570028134589, 80341.0655666668, 19129.516974629998, 18446.402960586904, 65054.841644149026, -0.078, 0.992, 0.262, 192.0, 0.0, 0.0, 0.0, 0.0, 0.0, 0.0, 0.0, 0.0, 0.0, 1.6527906733024125E9, 0.0, 2022-05-17 14:31:13.302
241.0, 81811.65388961481, 61333.25384059595, 26795.561825700024, 13153.487521825735, 81248.16641189653, 19126.343026917344, 18537.7768919202, 65215.349521082586, -0.078, 0.992, 0.262, 192.0, 0.0, 0.0, 0.0, 0.0, 0.0, 0.0, 0.0, 0.0, 0.0, 1.6527906737817748E9, 0.0, 2022-05-17 14:31:13.781
242.0, 81785.99408698012, 61314.45602350903, 26770.371409698895, 13116.115405096461, 82027.41527884189, 19023.927333823125, 18503.869295581495, 65238.215355660366, -0.078, 0.992, 0.262, 192.0, 0.0, 0.0, 0.0, 0.0, 0.0, 0.0, 0.0, 0.0, 0.0, 1.6527906737818587E9, 0.0, 2022-05-17 14:31:13.781
243.0, 81776.49459558661, 61319.84279392276, 26771.0196102881, 13121.770396443653, 81604.07323885837, 18946.41148405212, 18381.717012133242, 65095.5665225466, -0.078, 0.992, 0.262, 192.0, 0.0, 0.0, 0.0, 0.0, 0.0, 0.0, 0.0, 0.0, 0.0, 1.652790673782057E9, 0.0, 2022-05-17 14:31:13.782
244.0, 81803.62961335536, 61358.62307055272, 26807.743526428167, 13178.163847704393, 80535.95042657261, 19010.67274936113, 18339.673380812812, 64961.366648836934, -0.078, 0.992, 0.262, 192.0, 0.0, 0.0, 0.0, 0.0, 0.0, 0.0, 0.0, 0.0, 0.0, 1.652790673782068E9, 0.0, 2022-05-17 14:31:13.782
245.0, 81816.57127339498, 61365.19448342258, 26819.433488778293, 13182.678900084366, 80304.52046448237, 19126.03010249497, 18436.814062215577, 65028.198364758304, -0.08, 0.994, 0.26, 192.0, 253.0, 128.0, 31.0, 16.0, 8.0, 32.0, 0.0, 0.0, 0.0, 1.6527906737820752E9, 0.0, 2022-05-17 14:31:13.782
246.0, 81801.88617728784, 61331.264535339425, 26793.72898265469, 13142.445760064813, 81228.11689712011, 19133.40617816522, 18536.05580759714, 65211.8402972031, -0.08, 0.994, 0.26, 192.0, 0.0, 0.0, 0.0, 0.0, 0.0, 0.0, 0.0, 0.0, 0.0, 1.6527906737820818E9, 0.0, 2022-05-17 14:31:13.782
247.0, 81786.12819744686, 61312.98080837498, 26766.281040463575, 13099.552762455078, 82040.08871794805, 19023.52500242293, 18508.76432761721, 65261.9529082719, -0.08, 0.994, 0.26, 192.0, 0.0, 0.0, 0.0, 0.0, 0.0, 0.0, 0.0, 0.0, 0.0, 1.6527906737820888E9, 0.0, 2022-05-17 14:31:13.782
248.0, 81788.63159282584, 61329.11876787171, 26777.25574699113, 13128.922954669351, 81618.06543088739, 18939.862422926715, 18384.19805576778, 65108.75405177523, -0.08, 0.994, 0.26, 192.0, 0.0, 0.0, 0.0, 0.0, 0.0, 0.0, 0.0, 0.0, 0.0, 1.6527906737820947E9, 0.0, 2022-05-17 14:31:13.782
249.0, 81804.97071802268, 61358.10898043025, 26803.250825792653, 13174.498161613723, 80557.94454311664, 19011.09743250578, 18347.518843116624, 64980.63385255741, -0.08, 0.994, 0.26, 192.0, 0.0, 0.0, 0.0, 0.0, 0.0, 0.0, 0.0, 0.0, 0.0, 1.6527906737821133E9, 0.0, 2022-05-17 14:31:13.782
250.0, 81817.66650887328, 61360.74648627597, 26815.007843376145, 13179.817876794086, 80348.41929059259, 19128.712311829604, 18444.704228008297, 65077.0592781376, -0.08, 0.994, 0.26, 192.0, 0.0, 0.0, 0.0, 0.0, 0.0, 0.0, 0.0, 0.0, 0.0, 1.6527906737821257E9, 0.0, 2022-05-17 14:31:13.782
251.0, 81811.54213089254, 61338.64061100967, 26796.96998560071, 13137.707190240288, 81238.15283038054, 19129.78519556346, 18536.65930469743, 65228.626457289036, -0.08, 0.994, 0.26, 192.0, 0.0, 0.0, 0.0, 0.0, 0.0, 0.0, 0.0, 0.0, 0.0, 1.6527906737821364E9, 0.0, 2022-05-17 14:31:13.782
252.0, 81793.37016265038, 61315.171279331604, 26770.86314807691, 13108.091128837006, 82023.81664798458, 19022.85445008927, 18497.18612398936, 65244.20562317439, -0.08, 0.994, 0.26, 192.0, 0.0, 0.0, 0.0, 0.0, 0.0, 0.0, 0.0, 0.0, 0.0, 1.6527906737821443E9, 0.0, 2022-05-17 14:31:13.782
253.0, 81790.93382250474, 61330.61633475022, 26779.69208713676, 13123.69264646681, 81610.2646720725, 18944.623344495696, 18377.11255277545, 65087.69870849833, -0.08, 0.994, 0.26, 192.0, 0.0, 0.0, 0.0, 0.0, 0.0, 0.0, 0.0, 0.0, 0.0, 1.6527906737821536E9, 0.0, 2022-05-17 14:31:13.782
254.0, 81810.37984018086, 61364.54628283338, 26815.946616643265, 13178.610882593499, 80548.95914184561, 19025.201383257077, 18341.327409902504, 64957.36568657943, -0.08, 0.994, 0.26, 192.0, 0.0, 0.0, 0.0, 0.0, 0.0, 0.0, 0.0, 0.0, 0.0, 1.6527906737821648E9, 0.0, 2022-05-17 14:31:13.782
255.0, 81829.24471250114, 61368.70370730206, 26825.468459781227, 13194.480621156767, 80296.8091126453, 19146.79487309395, 18436.23291685974, 65021.001103043694, -0.082, 0.992, 0.262, 192.0, 253.0, 112.0, 31.0, 0.0, 8.0, 48.0, 0.0, 0.0, 0.0, 1.6527906737821708E9, 0.0, 2022-05-17 14:31:13.782
0.0, 81817.42063968428, 61336.80776796434, 26792.991375087666, 13138.6012600185, 81189.44837921244, 19145.54317540445, 18525.259915025224, 65182.80538115566, -0.082, 0.992, 0.262, 192.0, 0.0, 0.0, 0.0, 0.0, 0.0, 0.0, 0.0, 0.0, 0.0, 1.6527906737822397E9, 0.0, 2022-05-17 14:31:13.782
1.0, 81800.32155517598, 61317.78643343288, 26769.499691665136, 13099.485707221713, 81988.72440918976, 19031.86220310476, 18494.258045465715, 65203.63720698801, -0.082, 0.992, 0.262, 192.0, 0.0, 0.0, 0.0, 0.0, 0.0, 0.0, 0.0, 0.0, 0.0, 1.6527906737822535E9, 0.0, 2022-05-17 14:31:13.782
2.0, 81795.69474407373, 61327.3753318042, 26768.87384282039, 13112.717939939253, 81602.10628534631, 18957.967335935515, 18387.416706969347, 65065.57048148757, -0.082, 0.992, 0.262, 192.0, 0.0, 0.0, 0.0, 0.0, 0.0, 0.0, 0.0, 0.0, 0.0, 1.6527906737822633E9, 0.0, 2022-05-17 14:31:13.782
3.0, 81815.07370651647, 61362.37816362121, 26800.859189135932, 13163.299937641614, 80547.17100228918, 19021.58040065532, 18346.40125589386, 64944.20050909526, -0.082, 0.992, 0.262, 192.0, 0.0, 0.0, 0.0, 0.0, 0.0, 0.0, 0.0, 0.0, 0.0, 1.6527906737822704E9, 0.0, 2022-05-17 14:31:13.782
4.0, 81836.33021549348, 61376.61622483924, 26817.48888701068, 13176.576873848067, 80282.21342351598, 19136.468367155598, 18433.282486591637, 65004.997254013695, -0.082, 0.992, 0.262, 192.0, 0.0, 0.0, 0.0, 0.0, 0.0, 0.0, 0.0, 0.0, 0.0, 1.6527906737822793E9, 0.0, 2022-05-17 14:31:13.782
5.0, 81821.13102926387, 61344.966154690526, 26792.074953565, 13135.06968439456, 81177.66900988448, 19150.147634762245, 18526.064577825615, 65177.6868316754, -0.082, 0.992, 0.262, 192.0, 0.0, 0.0, 0.0, 0.0, 0.0, 0.0, 0.0, 0.0, 0.0, 1.6527906737822907E9, 0.0, 2022-05-17 14:31:13.782
6.0, 81792.76666555008, 61320.66980846761, 26762.458892161714, 13091.953169340273, 82016.17235138087, 19037.20427002958, 18485.630272105966, 65233.186213157926, -0.082, 0.992, 0.262, 192.0, 0.0, 0.0, 0.0, 0.0, 0.0, 0.0, 0.0, 0.0, 0.0, 1.6527906737823071E9, 0.0, 2022-05-17 14:31:13.782
7.0, 81792.54314810553, 61340.540509288374, 26774.10415102293, 13112.494422494701, 81627.65432925873, 18945.159786362623, 18361.376924678912, 65078.13216187146, -0.082, 0.992, 0.262, 192.0, 0.0, 0.0, 0.0, 0.0, 0.0, 0.0, 0.0, 0.0, 0.0, 1.652790673782318E9, 0.0, 2022-05-17 14:31:13.782
8.0, 81813.39732568232, 61371.3859166367, 26806.961215372234, 13166.65269930991, 80562.57135421889, 19008.41522317114, 18323.870697482907, 64939.30547705955, -0.082, 0.992, 0.262, 192.0, 0.0, 0.0, 0.0, 0.0, 0.0, 0.0, 0.0, 0.0, 0.0, 1.6527906737823288E9, 0.0, 2022-05-17 14:31:13.782
9.0, 81818.29235771803, 61365.999146222974, 26806.558883972037, 13164.998670220217, 80321.9548251575, 19121.1127187148, 18416.138698594415, 65036.35675148449, -0.07200000000000001, 0.986, 0.26, 192.0, 253.0, 192.0, 30.0, 208.0, 8.0, 32.0, 0.0, 0.0, 0.0, 1.652790673782338E9, 0.0, 2022-05-17 14:31:13.782
10.0, 81807.49646514612, 61335.48901504148, 26783.96127032772, 13120.317533054058, 81216.2704725588, 19117.64819832423, 18503.489315925755, 65215.64009376051, -0.07200000000000001, 0.986, 0.26, 192.0, 0.0, 0.0, 0.0, 0.0, 0.0, 0.0, 0.0, 0.0, 0.0, 1.6527906737823474E9, 0.0, 2022-05-17 14:31:13.782
11.0, 81785.43529336873, 61310.03037810688, 26757.139176981353, 13080.643186645888, 82065.21207871582, 19012.840868573294, 18478.477713880267, 65275.09573401162, -0.07200000000000001, 0.986, 0.26, 192.0, 0.0, 0.0, 0.0, 0.0, 0.0, 0.0, 0.0, 0.0, 0.0, 1.6527906737823591E9, 0.0, 2022-05-17 14:31:13.782
12.0, 81790.7550085491, 61329.476395783, 26770.617278887905, 13096.870553120441, 81660.60080058585, 18919.65644593912, 18349.418741395326, 65092.88431321196, -0.07200000000000001, 0.986, 0.26, 192.0, 0.0, 0.0, 0.0, 0.0, 0.0, 0.0, 0.0, 0.0, 0.0, 1.65279067378237E9, 0.0, 2022-05-17 14:31:13.782
13.0, 81809.6645843583, 61362.42286711012, 26795.807694889034, 13145.686763010832, 80598.69177325866, 18994.534789864396, 18317.500450313146, 64960.182006380805, -0.07200000000000001, 0.986, 0.26, 192.0, 0.0, 0.0, 0.0, 0.0, 0.0, 0.0, 0.0, 0.0, 0.0, 1.652790673782381E9, 0.0, 2022-05-17 14:31:13.782
14.0, 81823.43325894276, 61366.557939834354, 26799.093401323964, 13156.147379415916, 80336.6622730091, 19125.22543969458, 18409.70139619129, 65046.68325742284, -0.07200000000000001, 0.986, 0.26, 192.0, 0.0, 0.0, 0.0, 0.0, 0.0, 0.0, 0.0, 0.0, 0.0, 1.6527906737823932E9, 0.0, 2022-05-17 14:31:13.782
15.0, 81816.75008735062, 61341.0769511553, 26779.91560458131, 13115.511907996168, 81229.0780221317, 19137.653009611728, 18511.62535090749, 65234.1473381695, -0.07200000000000001, 0.986, 0.26, 192.0, 0.0, 0.0, 0.0, 0.0, 0.0, 0.0, 0.0, 0.0, 0.0, 1.6527906737824063E9, 0.0, 2022-05-17 14:31:13.782
16.0, 81798.39930515281, 61320.24512532296, 26760.022552016086, 13079.30208197857, 82052.18101169837, 19022.966208811547, 18482.590434860045, 65266.95969902989, -0.07200000000000001, 0.986, 0.26, 192.0, 0.0, 0.0, 0.0, 0.0, 0.0, 0.0, 0.0, 0.0, 0.0, 1.6527906737824185E9, 0.0, 2022-05-17 14:31:13.782
17.0, 81801.55090112101, 61338.50650054294, 26774.215909745206, 13098.055195576573, 81671.35198966885, 18943.237536339468, 18375.056192285563, 65100.66272028241, -0.07200000000000001, 0.986, 0.26, 192.0, 0.0, 0.0, 0.0, 0.0, 0.0, 0.0, 0.0, 0.0, 0.0, 1.6527906737824345E9, 0.0, 2022-05-17 14:31:13.782
18.0, 81818.09119201794, 61370.67066081413, 26799.540436213072, 13144.12214089896, 80599.89876745925, 19008.884609804703, 18335.024217966107, 64960.02554416961, -0.07200000000000001, 0.986, 0.26, 192.0, 0.0, 0.0, 0.0, 0.0, 0.0, 0.0, 0.0, 0.0, 0.0, 1.6527906737824557E9, 0.0, 2022-05-17 14:31:13.782
19.0, 81826.33898572194, 61376.59387309479, 26805.15072407135, 13161.51179808519, 80311.24833956342, 19125.247791439033, 18417.345692795003, 65033.40632121639, -0.078, 0.986, 0.258, 192.0, 253.0, 144.0, 30.0, 208.0, 8.0, 16.0, 0.0, 0.0, 0.0, 1.6527906737824829E9, 0.0, 2022-05-17 14:31:13.782
20.0, 81805.73067733416, 61339.42292206561, 26778.373334213895, 13126.196041845804, 81187.16850127799, 19132.847384553836, 18507.445574694346, 65210.18626811341, -0.078, 0.986, 0.258, 192.0, 0.0, 0.0, 0.0, 0.0, 0.0, 0.0, 0.0, 0.0, 0.0, 1.6527906737824924E9, 0.0, 2022-05-17 14:31:13.782
21.0, 81783.20011892321, 61318.16641308861, 26747.39381639884, 13078.743288367188, 82039.12759293648, 19032.420996716144, 18482.05399299312, 65263.6069373616, -0.078, 0.986, 0.258, 192.0, 0.0, 0.0, 0.0, 0.0, 0.0, 0.0, 0.0, 0.0, 0.0, 1.6527906737825E9, 0.0, 2022-05-17 14:31:13.782
22.0, 81786.99991548061, 61337.88065169819, 26755.731017080667, 13095.820021131041, 81686.46176892064, 18932.687512956563, 18357.800645566065, 65116.286589656665, -0.078, 0.986, 0.258, 192.0, 0.0, 0.0, 0.0, 0.0, 0.0, 0.0, 0.0, 0.0, 0.0, 1.6527906737825713E9, 0.0, 2022-05-17 14:31:13.782
23.0, 81819.92403506328, 61380.326614418824, 26805.15072407135, 13163.434048108345, 80600.05522967044, 18995.808839298348, 18315.466441567714, 64960.91961394783, -0.078, 0.986, 0.258, 192.0, 0.0, 0.0, 0.0, 0.0, 0.0, 0.0, 0.0, 0.0, 0.0, 1.6527906737826E9, 0.0, 2022-05-17 14:31:13.782
24.0, 81829.53528517905, 61382.092402230795, 26810.671604951815, 13166.831513265553, 80300.56420571377, 19128.01940775149, 18406.303931034083, 65035.619143917465, -0.078, 0.986, 0.258, 192.0, 0.0, 0.0, 0.0, 0.0, 0.0, 0.0, 0.0, 0.0, 0.0, 1.6527906737826169E9, 0.0, 2022-05-17 14:31:13.782
25.0, 81818.89585481833, 61353.59392805028, 26788.029287818586, 13131.001666903696, 81166.56019289019, 19146.660762627216, 18498.95191180133, 65213.98606467081, -0.078, 0.986, 0.258, 192.0, 0.0, 0.0, 0.0, 0.0, 0.0, 0.0, 0.0, 0.0, 0.0, 1.6527906737826371E9, 0.0, 2022-05-17 14:31:13.782
26.0, 81801.72971507665, 61333.87968944069, 26760.894270049845, 13097.272884520637, 82020.64270027193, 19035.10320605078, 18472.17452194387, 65265.73035308485, -0.078, 0.986, 0.258, 192.0, 0.0, 0.0, 0.0, 0.0, 0.0, 0.0, 0.0, 0.0, 0.0, 1.6527906737826464E9, 0.0, 2022-05-17 14:31:13.782
27.0, 81796.94644176323, 61346.44136982458, 26766.14692999684, 13117.992951630707, 81680.8291293179, 18943.014018894915, 18351.54215711858, 65120.37695889199, -0.078, 0.986, 0.258, 192.0, 0.0, 0.0, 0.0, 0.0, 0.0, 0.0, 0.0, 0.0, 0.0, 1.652790673782653E9, 0.0, 2022-05-17 14:31:13.782
28.0, 81814.09022976045, 61380.10309697427, 26798.333442012485, 13176.7109843148, 80614.44975309966, 19001.508534134453, 18308.068014153007, 64984.299538648076, -0.08, 0.988, 0.262, 192.0, 253.0, 128.0, 30.0, 224.0, 8.0, 48.0, 0.0, 0.0, 0.0, 1.652790673782679E9, 0.0, 2022-05-17 14:31:13.782
29.0, 81826.78602061105, 61386.74156507749, 26808.45878225074, 13189.406775165413, 80310.39897327412, 19122.386768148754, 18405.36515776696, 65062.597699475016, -0.08, 0.988, 0.262, 192.0, 0.0, 0.0, 0.0, 0.0, 0.0, 0.0, 0.0, 0.0, 0.0, 1.652790673782686E9, 0.0, 2022-05-17 14:31:13.782
30.0, 81810.3574884364, 61349.25768962595, 26778.48509293617, 13135.986105917229, 81173.9586203049, 19129.338160674353, 18503.534019414667, 65246.39609413101, -0.08, 0.988, 0.262, 192.0, 0.0, 0.0, 0.0, 0.0, 0.0, 0.0, 0.0, 0.0, 0.0, 1.6527906737826943E9, 0.0, 2022-05-17 14:31:13.782
31.0, 81791.78318879404, 61324.827232936295, 26742.588191340947, 13080.799648857075, 82041.09454644854, 19021.088662277303, 18473.381516144458, 65309.3162547727, -0.08, 0.988, 0.262, 192.0, 0.0, 0.0, 0.0, 0.0, 0.0, 0.0, 0.0, 0.0, 0.0, 1.6527906737827022E9, 0.0, 2022-05-17 14:31:13.782
32.0, 81788.58688933693, 61336.13721563068, 26743.77283379708, 13091.416727473346, 81710.02050757653, 18928.306571043322, 18350.24575594017, 65164.00756406875, -0.08, 0.988, 0.262, 192.0, 0.0, 0.0, 0.0, 0.0, 0.0, 0.0, 0.0, 0.0, 0.0, 1.6527906737827177E9, 0.0, 2022-05-17 14:31:13.782
33.0, 81811.69859310372, 61366.64734681218, 26779.49092143666, 13152.012306691684, 80645.65278835926, 18988.991557239482, 18304.37997631788, 65026.20905950178, -0.08, 0.988, 0.262, 192.0, 0.0, 0.0, 0.0, 0.0, 0.0, 0.0, 0.0, 0.0, 0.0, 1.6527906737827265E9, 0.0, 2022-05-17 14:31:13.782
34.0, 81833.17861952528, 61378.225550440024, 26800.479209480192, 13176.643929081432, 80305.48158949395, 19118.296398913433, 18394.21163728376, 65077.79688570463, -0.08, 0.988, 0.262, 192.0, 0.0, 0.0, 0.0, 0.0, 0.0, 0.0, 0.0, 0.0, 0.0, 1.6527906737827363E9, 0.0, 2022-05-17 14:31:13.782
35.0, 81822.11450601989, 61350.35292510426, 26776.071104534996, 13141.104655397494, 81159.98878002033, 19144.246774226045, 18499.734222857263, 65258.130759970045, -0.08, 0.988, 0.262, 192.0, 0.0, 0.0, 0.0, 0.0, 0.0, 0.0, 0.0, 0.0, 0.0, 1.6527906737827463E9, 0.0, 2022-05-17 14:31:13.782
36.0, 81798.7569330641, 61317.67467471059, 26740.688293062245, 13099.463355477257, 82042.6144650715, 19042.076950320836, 18478.812990047096, 65328.0693683707, -0.08, 0.988, 0.262, 192.0, 0.0, 0.0, 0.0, 0.0, 0.0, 0.0, 0.0, 0.0, 0.0, 1.652790673782757E9, 0.0, 2022-05-17 14:31:13.782
37.0, 81799.98627900914, 61331.91273592863, 26744.599848341924, 13109.83456490452, 81731.25466480908, 18949.4736730425, 18348.77054080612, 65190.69554694838, -0.08, 0.988, 0.262, 192.0, 0.0, 0.0, 0.0, 0.0, 0.0, 0.0, 0.0, 0.0, 0.0, 1.6527906737827656E9, 0.0, 2022-05-17 14:31:13.782
38.0, 81823.96970080968, 61366.066201456335, 26777.099284779943, 13162.69644054132, 80645.89865754827, 18996.90407477666, 18297.607397747925, 65031.752292126694, -0.076, 0.992, 0.258, 192.0, 253.0, 160.0, 31.0, 0.0, 8.0, 16.0, 0.0, 0.0, 0.0, 1.6527906737827733E9, 0.0, 2022-05-17 14:31:13.782
39.0, 81838.565389939, 61376.16918995014, 26791.82908437599, 13181.360147161502, 80298.57490045726, 19124.912515272204, 18389.204846525772, 65085.798810219625, -0.076, 0.992, 0.258, 192.0, 0.0, 0.0, 0.0, 0.0, 0.0, 0.0, 0.0, 0.0, 0.0, 1.6527906737827816E9, 0.0, 2022-05-17 14:31:13.782
40.0, 81825.53432292157, 61349.97294544851, 26776.87576733539, 13147.921937456364, 81133.88194249653, 19149.387675450766, 18502.885818825464, 65252.40871338949, -0.076, 0.992, 0.258, 192.0, 0.0, 0.0, 0.0, 0.0, 0.0, 0.0, 0.0, 0.0, 0.0, 1.652790673782792E9, 0.0, 2022-05-17 14:31:13.782
41.0, 81796.40999989629, 61320.200421834044, 26741.314141906994, 13097.362291498459, 82004.81766519758, 19043.038075332413, 18479.32708016957, 65301.15786804651, -0.076, 0.992, 0.258, 192.0, 0.0, 0.0, 0.0, 0.0, 0.0, 0.0, 0.0, 0.0, 0.0, 1.6527906737828052E9, 0.0, 2022-05-17 14:31:13.782
42.0, 81800.72388657616, 61337.053637153345, 26754.166394968797, 13113.902582395385, 81711.65218492177, 18954.480463800486, 18361.332221190005, 65164.05226755766, -0.076, 0.992, 0.258, 192.0, 0.0, 0.0, 0.0, 0.0, 0.0, 0.0, 0.0, 0.0, 0.0, 1.6527906737828147E9, 0.0, 2022-05-17 14:31:13.782
43.0, 81819.96873855218, 61370.134218947205, 26784.184787772276, 13164.641042308933, 80655.53225940852, 19008.90696154916, 18313.879467711387, 65029.807690359085, -0.076, 0.992, 0.258, 192.0, 0.0, 0.0, 0.0, 0.0, 0.0, 0.0, 0.0, 0.0, 0.0, 1.65279067378284E9, 0.0, 2022-05-17 14:31:13.782
44.0, 81830.20583751272, 61376.2362451835, 26794.69010766627, 13177.873275026473, 80317.12684835517, 19121.87267802628, 18403.06292808806, 65104.618979050996, -0.076, 0.992, 0.258, 192.0, 0.0, 0.0, 0.0, 0.0, 0.0, 0.0, 0.0, 0.0, 0.0, 1.6527906737828484E9, 0.0, 2022-05-17 14:31:13.782
45.0, 81817.063011773, 61347.111922158234, 26770.505520165625, 13134.421483805358, 81160.61462886508, 19143.620925381296, 18504.986882804264, 65288.57383591817, -0.076, 0.992, 0.258, 192.0, 0.0, 0.0, 0.0, 0.0, 0.0, 0.0, 0.0, 0.0, 0.0, 1.652790673782858E9, 0.0, 2022-05-17 14:31:13.782
46.0, 81794.82302603997, 61317.94289564406, 26738.408415127804, 13091.506134451169, 82048.62708432997, 19036.645476418194, 18476.242539434737, 65350.823444226204, -0.076, 0.992, 0.258, 192.0, 0.0, 0.0, 0.0, 0.0, 0.0, 0.0, 0.0, 0.0, 0.0, 1.652790673782866E9, 0.0, 2022-05-17 14:31:13.782
47.0, 81798.19813945272, 61338.439445309574, 26750.34424666694, 13107.442928247801, 81740.75415620257, 18945.919745674106, 18352.324468174516, 65191.790782426695, -0.076, 0.992, 0.258, 192.0, 0.0, 0.0, 0.0, 0.0, 0.0, 0.0, 0.0, 0.0, 0.0, 1.652790673782876E9, 0.0, 2022-05-17 14:31:13.782
48.0, 81820.81810484148, 61378.314957417846, 26789.280985508085, 13162.919957985874, 80672.29606775, 19004.615426613742, 18310.99609267665, 65047.06323707858, -0.07200000000000001, 0.996, 0.262, 192.0, 253.0, 192.0, 31.0, 32.0, 8.0, 48.0, 0.0, 0.0, 0.0, 1.652790673782884E9, 0.0, 2022-05-17 14:31:13.782
49.0, 81828.32829097848, 61381.71242257505, 26801.73090716969, 13180.555484361112, 80306.06273484978, 19126.767710061995, 18403.152335065883, 65103.635502294965, -0.07200000000000001, 0.996, 0.262, 192.0, 0.0, 0.0, 0.0, 0.0, 0.0, 0.0, 0.0, 0.0, 0.0, 1.6527906737828944E9, 0.0, 2022-05-17 14:31:13.782
50.0, 81806.3565261789, 61337.52302378691, 26766.079874763476, 13134.98027741674, 81142.86734376758, 19147.97951555008, 18495.97912978877, 65288.462077195894, -0.07200000000000001, 0.996, 0.262, 192.0, 0.0, 0.0, 0.0, 0.0, 0.0, 0.0, 0.0, 0.0, 0.0, 1.652790673782904E9, 0.0, 2022-05-17 14:31:13.782
51.0, 81790.01740098208, 61312.28790429687, 26740.375368639874, 13094.434212974813, 82022.92257820637, 19035.706703151074, 18469.13468469795, 65335.60190625214, -0.07200000000000001, 0.996, 0.262, 192.0, 0.0, 0.0, 0.0, 0.0, 0.0, 0.0, 0.0, 0.0, 0.0, 1.6527906737829137E9, 0.0, 2022-05-17 14:31:13.782
52.0, 81790.03975272653, 61327.08475912628, 26748.466700132692, 13113.254381806182, 81757.92029594425, 18946.724408474496, 18356.906575787852, 65205.067718633145, -0.07200000000000001, 0.996, 0.262, 192.0, 0.0, 0.0, 0.0, 0.0, 0.0, 0.0, 0.0, 0.0, 0.0, 1.6527906737829204E9, 0.0, 2022-05-17 14:31:13.782
53.0, 81818.69468911823, 61369.03898346889, 26782.262537749117, 13165.780981276153, 80693.41846626025, 19000.05567074486, 18296.758031458623, 65058.66379245088, -0.07200000000000001, 0.996, 0.262, 192.0, 0.0, 0.0, 0.0, 0.0, 0.0, 0.0, 0.0, 0.0, 0.0, 1.65279067378293E9, 0.0, 2022-05-17 14:31:13.782
54.0, 81840.33117775097, 61384.48403888751, 26808.45878225074, 13197.18518223586, 80314.08701110924, 19126.857117039814, 18386.969672080242, 65109.156383175425, -0.07200000000000001, 0.996, 0.262, 192.0, 0.0, 0.0, 0.0, 0.0, 0.0, 0.0, 0.0, 0.0, 0.0, 1.6527906737829375E9, 0.0, 2022-05-17 14:31:13.782
55.0, 81814.85018907192, 61343.46858781202, 26774.35002021194, 13142.289297853626, 81149.41640489298, 19144.02325678149, 18493.676900109876, 65300.576722690676, -0.07200000000000001, 0.996, 0.262, 192.0, 0.0, 0.0, 0.0, 0.0, 0.0, 0.0, 0.0, 0.0, 0.0, 1.6527906737829475E9, 0.0, 2022-05-17 14:31:13.782
56.0, 81797.5499388635, 61319.932200900585, 26745.58332509796, 13103.844297390497, 82057.34426466755, 19032.778624627426, 18476.868388279487, 65372.147008436565, -0.07200000000000001, 0.996, 0.262, 192.0, 0.0, 0.0, 0.0, 0.0, 0.0, 0.0, 0.0, 0.0, 0.0, 1.6527906737829564E9, 0.0, 2022-05-17 14:31:13.782
57.0, 81805.75302907861, 61338.90883194314, 26756.580383369972, 13118.21646907526, 81783.73656079013, 18933.98391413497, 18351.229232696205, 65222.43502407492, -0.07200000000000001, 0.996, 0.262, 192.0, 0.0, 0.0, 0.0, 0.0, 0.0, 0.0, 0.0, 0.0, 0.0, 1.652790673782964E9, 0.0, 2022-05-17 14:31:13.782
58.0, 81825.06493628799, 61375.856265527764, 26791.918491353812, 13179.169676204881, 80701.21922507515, 18989.438592128587, 18301.116621627407, 65055.71336218278, -0.076, 0.992, 0.264, 192.0, 253.0, 160.0, 31.0, 0.0, 8.0, 64.0, 0.0, 0.0, 0.0, 1.6527906737829716E9, 0.0, 2022-05-17 14:31:13.782
59.0, 81833.87152360339, 61385.020480754436, 26800.747430413656, 13191.865467055497, 80303.96167087098, 19102.20314290561, 18381.87347434443, 65099.83570573756, -0.076, 0.992, 0.264, 192.0, 0.0, 0.0, 0.0, 0.0, 0.0, 0.0, 0.0, 0.0, 0.0, 1.6527906737829802E9, 0.0, 2022-05-17 14:31:13.782
60.0, 81818.20295074022, 61352.54339606088, 26768.739732353657, 13146.558481044589, 81124.87418948105, 19140.31286720191, 18489.65358610792, 65285.891626583536, -0.076, 0.992, 0.264, 192.0, 0.0, 0.0, 0.0, 0.0, 0.0, 0.0, 0.0, 0.0, 0.0, 1.6527906737829888E9, 0.0, 2022-05-17 14:31:13.782
61.0, 81790.82206378247, 61318.63579972218, 26731.52407783557, 13097.652864176378, 82034.54548532313, 19042.121653809747, 18466.296013152125, 65354.824406483705, -0.076, 0.992, 0.264, 192.0, 0.0, 0.0, 0.0, 0.0, 0.0, 0.0, 0.0, 0.0, 0.0, 1.652790673782998E9, 0.0, 2022-05-17 14:31:13.782
62.0, 81794.84537778443, 61339.73584648799, 26735.636798815347, 13113.746120184198, 81768.33620886043, 18942.723446216994, 18343.696694814767, 65199.412727285955, -0.076, 0.992, 0.264, 192.0, 0.0, 0.0, 0.0, 0.0, 0.0, 0.0, 0.0, 0.0, 0.0, 1.6527906737830076E9, 0.0, 2022-05-17 14:31:13.783
63.0, 81813.01734602658, 61373.822256782325, 26769.410284687317, 13165.51276034269, 80718.13949562782, 19000.726223078516, 18300.446069293746, 65062.19536807483, -0.076, 0.992, 0.264, 192.0, 0.0, 0.0, 0.0, 0.0, 0.0, 0.0, 0.0, 0.0, 0.0, 1.6527906737830172E9, 0.0, 2022-05-17 14:31:13.783
64.0, 81823.52266592058, 61375.90096901667, 26779.021534803098, 13178.879103526962, 80323.18417110255, 19126.477137384074, 18383.39339296739, 65119.05820596912, -0.076, 0.992, 0.264, 192.0, 0.0, 0.0, 0.0, 0.0, 0.0, 0.0, 0.0, 0.0, 0.0, 1.6527906737830398E9, 0.0, 2022-05-17 14:31:13.783
65.0, 81809.17284598027, 61341.05459941085, 26749.62899084437, 13132.275716337648, 81130.75269827279, 19152.606326652327, 18488.066612251594, 65301.87312386908, -0.076, 0.992, 0.264, 192.0, 0.0, 0.0, 0.0, 0.0, 0.0, 0.0, 0.0, 0.0, 0.0, 1.6527906737830465E9, 0.0, 2022-05-17 14:31:13.783
66.0, 81787.22343292517, 61310.835040907274, 26720.974054452665, 13091.327320495526, 82041.1616016819, 19043.038075332413, 18471.727487054766, 65367.90017699006, -0.076, 0.992, 0.264, 192.0, 0.0, 0.0, 0.0, 0.0, 0.0, 0.0, 0.0, 0.0, 0.0, 1.6527906737830534E9, 0.0, 2022-05-17 14:31:13.783
67.0, 81788.36337189238, 61327.95647716004, 26729.735938279147, 13113.455547506279, 81806.3565261789, 18952.424103310597, 18362.986250279697, 65235.399035858994, -0.076, 0.992, 0.264, 192.0, 0.0, 0.0, 0.0, 0.0, 0.0, 0.0, 0.0, 0.0, 0.0, 1.6527906737830613E9, 0.0, 2022-05-17 14:31:13.783
68.0, 81810.08926750295, 61365.35094563376, 26766.459854419216, 13171.480676112256, 80726.61080677639, 18997.32875792131, 18307.598627519445, 65070.44316177883, -0.076, 0.99, 0.26, 192.0, 253.0, 160.0, 30.0, 240.0, 8.0, 32.0, 0.0, 0.0, 0.0, 1.6527906737830696E9, 0.0, 2022-05-17 14:31:13.783
69.0, 81827.18835201125, 61374.49280911599, 26784.9223953393, 13192.08898450005, 80312.29887155282, 19129.002884507525, 18396.647977429388, 65120.53342110317, -0.076, 0.99, 0.26, 192.0, 0.0, 0.0, 0.0, 0.0, 0.0, 0.0, 0.0, 0.0, 0.0, 1.6527906737830772E9, 0.0, 2022-05-17 14:31:13.783
70.0, 81814.62667162737, 61341.52398604441, 26757.67561884828, 13150.715905513276, 81115.7993812322, 19150.862890584816, 18494.906246054918, 65307.52811521627, -0.076, 0.99, 0.26, 192.0, 0.0, 0.0, 0.0, 0.0, 0.0, 0.0, 0.0, 0.0, 0.0, 1.6527906737830832E9, 0.0, 2022-05-17 14:31:13.783
71.0, 81799.74040982014, 61320.13336660068, 26731.457022602204, 13117.031826619128, 82017.46875255927, 19042.59104044331, 18472.442742877334, 65358.13246466309, -0.076, 0.99, 0.26, 192.0, 0.0, 0.0, 0.0, 0.0, 0.0, 0.0, 0.0, 0.0, 0.0, 1.6527906737830904E9, 0.0, 2022-05-17 14:31:13.783
72.0, 81794.89008127333, 61330.14694811666, 26733.87101100338, 13127.604201746488, 81781.50138634461, 18946.344428818757, 18362.24864271267, 65211.28150359172, -0.076, 0.99, 0.26, 192.0, 0.0, 0.0, 0.0, 0.0, 0.0, 0.0, 0.0, 0.0, 0.0, 1.6527906737830994E9, 0.0, 2022-05-17 14:31:13.783
73.0, 81811.1621512368, 61364.00984096645, 26768.516214909105, 13177.269777926182, 80694.40194301629, 18991.696118318574, 18301.653063494334, 65037.47433870725, -0.076, 0.99, 0.26, 192.0, 0.0, 0.0, 0.0, 0.0, 0.0, 0.0, 0.0, 0.0, 0.0, 1.6527906737831075E9, 0.0, 2022-05-17 14:31:13.783
74.0, 81820.59458739693, 61371.76589629244, 26779.8709010924, 13192.13368798896, 80262.16390873956, 19124.241962938544, 18382.409916211356, 65078.62390024948, -0.076, 0.99, 0.26, 192.0, 0.0, 0.0, 0.0, 0.0, 0.0, 0.0, 0.0, 0.0, 0.0, 1.6527906737831137E9, 0.0, 2022-05-17 14:31:13.783
75.0, 81812.03386927056, 61344.675582012605, 26757.407397914816, 13144.83739672153, 81049.57116241111, 19154.79679760895, 18484.982071516763, 65258.8013123037, -0.076, 0.99, 0.26, 192.0, 0.0, 0.0, 0.0, 0.0, 0.0, 0.0, 0.0, 0.0, 0.0, 1.652790673783126E9, 0.0, 2022-05-17 14:31:13.783
76.0, 81794.91243301779, 61319.35105554474, 26730.741766779636, 13108.806384659576, 81973.7934438936, 19049.251860290988, 18477.5612923576, 65329.857507927125, -0.076, 0.99, 0.26, 192.0, 0.0, 0.0, 0.0, 0.0, 0.0, 0.0, 0.0, 0.0, 0.0, 1.6527906737831347E9, 0.0, 2022-05-17 14:31:13.783
77.0, 81802.33321217695, 61338.79707322086, 26741.269438418083, 13121.233954576726, 81757.92029594425, 18958.973164436004, 18363.96972703573, 65193.4895150053, -0.076, 0.99, 0.26, 192.0, 0.0, 0.0, 0.0, 0.0, 0.0, 0.0, 0.0, 0.0, 0.0, 1.6527906737831404E9, 0.0, 2022-05-17 14:31:13.783
78.0, 81821.98039555317, 61374.09047771579, 26770.751389354635, 13167.949100488318, 80698.13468434033, 19019.300522720878, 18306.548095530045, 65045.72213241126, -0.078, 0.988, 0.26, 192.0, 253.0, 144.0, 30.0, 224.0, 8.0, 32.0, 0.0, 0.0, 0.0, 1.6527906737831774E9, 0.0, 2022-05-17 14:31:13.783
79.0, 81836.4643259602, 61382.494733630985, 26780.49674993715, 13185.450516396824, 80265.8519465747, 19133.294419442944, 18378.16308476485, 65100.618016793494, -0.078, 0.988, 0.26, 192.0, 0.0, 0.0, 0.0, 0.0, 0.0, 0.0, 0.0, 0.0, 0.0, 1.652790673783184E9, 0.0, 2022-05-17 14:31:13.783
80.0, 81826.29428223304, 61353.213948394536, 26757.206232214718, 13149.754780501698, 81051.24754324526, 19153.74626561955, 18482.70219358232, 65287.29978648422, -0.078, 0.988, 0.26, 192.0, 0.0, 0.0, 0.0, 0.0, 0.0, 0.0, 0.0, 0.0, 0.0, 1.6527906737831905E9, 0.0, 2022-05-17 14:31:13.783
81.0, 81809.23990121364, 61329.6775614831, 26730.853525501912, 13106.124175324938, 81975.80510089459, 19039.595906686296, 18469.64877482042, 65353.282136116286, -0.078, 0.988, 0.26, 192.0, 0.0, 0.0, 0.0, 0.0, 0.0, 0.0, 0.0, 0.0, 0.0, 1.652790673783198E9, 0.0, 2022-05-17 14:31:13.783
82.0, 81800.16509296479, 61340.0264191659, 26730.406490612804, 13113.276733550638, 81790.71030506019, 18944.578641006785, 18363.477988657713, 65234.61672480306, -0.078, 0.988, 0.26, 192.0, 0.0, 0.0, 0.0, 0.0, 0.0, 0.0, 0.0, 0.0, 0.0, 1.6527906737832048E9, 0.0, 2022-05-17 14:31:13.783
83.0, 81815.72190710568, 61376.079782972316, 26762.838871817457, 13166.742106287731, 80745.31921688547, 18989.438592128587, 18304.80465946253, 65098.047566181136, -0.078, 0.988, 0.26, 192.0, 0.0, 0.0, 0.0, 0.0, 0.0, 0.0, 0.0, 0.0, 0.0, 1.6527906737832315E9, 0.0, 2022-05-17 14:31:13.783
84.0, 81836.12904979338, 61391.21191396856, 26782.59781391595, 13198.325121203081, 80261.62746687264, 19107.16523017469, 18376.64316614189, 65109.49165934225, -0.078, 0.988, 0.26, 192.0, 0.0, 0.0, 0.0, 0.0, 0.0, 0.0, 0.0, 0.0, 0.0, 1.6527906737832403E9, 0.0, 2022-05-17 14:31:13.783
85.0, 81820.25931123011, 61356.16437866264, 26754.456967646714, 13156.102675927004, 81031.28743544668, 19143.956201548124, 18485.7643825727, 65288.86440859609, -0.078, 0.988, 0.26, 192.0, 0.0, 0.0, 0.0, 0.0, 0.0, 0.0, 0.0, 0.0, 0.0, 1.6527906737832513E9, 0.0, 2022-05-17 14:31:13.783
86.0, 81797.52758711905, 61326.70477947054, 26724.95266496571, 13105.923009624841, 81972.07235957055, 19043.99920034399, 18470.967527743283, 65367.72136303441, -0.078, 0.988, 0.26, 192.0, 0.0, 0.0, 0.0, 0.0, 0.0, 0.0, 0.0, 0.0, 0.0, 1.652790673783264E9, 0.0, 2022-05-17 14:31:13.783
87.0, 81788.02809572556, 61329.923430672105, 26724.036243443043, 13107.286466036614, 81790.71030506019, 18948.490196286464, 18353.889090286386, 65240.71875103936, -0.078, 0.988, 0.26, 192.0, 0.0, 0.0, 0.0, 0.0, 0.0, 0.0, 0.0, 0.0, 0.0, 1.6527906737832718E9, 0.0, 2022-05-17 14:31:13.783
88.0, 81803.58490986645, 61362.489922343484, 26754.233450202162, 13160.394210862425, 80740.20066740521, 18993.886589275193, 18294.09817386844, 65094.80656323511, -0.08, 0.988, 0.256, 192.0, 253.0, 128.0, 30.0, 224.0, 8.0, 0.0, 0.0, 0.0, 0.0, 1.6527906737832818E9, 0.0, 2022-05-17 14:31:13.783
89.0, 81830.20583751272, 61382.20416095307, 26779.759142370123, 13188.155077475916, 80269.18235649852, 19121.73856755955, 18374.318584718538, 65128.714159573814, -0.08, 0.988, 0.256, 192.0, 0.0, 0.0, 0.0, 0.0, 0.0, 0.0, 0.0, 0.0, 0.0, 1.65279067378329E9, 0.0, 2022-05-17 14:31:13.783
90.0, 81817.17477049527, 61350.5317390599, 26754.6134298579, 13153.375763103459, 81030.23690345728, 19153.768617364003, 18487.217245962293, 65306.18701054896, -0.08, 0.988, 0.256, 192.0, 0.0, 0.0, 0.0, 0.0, 0.0, 0.0, 0.0, 0.0, 0.0, 1.6527906737832985E9, 0.0, 2022-05-17 14:31:13.783
91.0, 81788.81040678149, 61317.89819215515, 26715.833153227944, 13102.614951445456, 81975.93921136131, 19042.81455788786, 18471.74983879922, 65381.378278896605, -0.08, 0.988, 0.256, 192.0, 0.0, 0.0, 0.0, 0.0, 0.0, 0.0, 0.0, 0.0, 0.0, 1.6527906737833066E9, 0.0, 2022-05-17 14:31:13.783
92.0, 81789.34684864842, 61334.61729700772, 26721.041109686033, 13112.472070750246, 81795.4041713958, 18937.716655459008, 18349.351686161957, 65243.378608629544, -0.08, 0.988, 0.256, 192.0, 0.0, 0.0, 0.0, 0.0, 0.0, 0.0, 0.0, 0.0, 0.0, 1.652790673783317E9, 0.0, 2022-05-17 14:31:13.783
93.0, 81813.37497393787, 61370.894178258684, 26759.597868871435, 13170.98893773424, 80721.91694044077, 18984.252987414955, 18292.175923845283, 65069.59379548953, -0.08, 0.988, 0.256, 192.0, 0.0, 0.0, 0.0, 0.0, 0.0, 0.0, 0.0, 0.0, 0.0, 1.6527906737833283E9, 0.0, 2022-05-17 14:31:13.783
94.0, 81822.60624439792, 61379.47724812952, 26775.40055220134, 13200.85086832653, 80264.8014145853, 19116.888239012747, 18379.951224321274, 65124.467328127306, -0.08, 0.988, 0.256, 192.0, 0.0, 0.0, 0.0, 0.0, 0.0, 0.0, 0.0, 0.0, 0.0, 1.6527906737833438E9, 0.0, 2022-05-17 14:31:13.783
95.0, 81810.22337796967, 61350.978773949006, 26749.91956352229, 13163.36699287498, 81029.49929589026, 19141.944544547147, 18485.809086061607, 65316.73703393186, -0.08, 0.988, 0.256, 192.0, 0.0, 0.0, 0.0, 0.0, 0.0, 0.0, 0.0, 0.0, 0.0, 1.652790673783352E9, 0.0, 2022-05-17 14:31:13.783
96.0, 81790.48678761563, 61318.85931716673, 26724.43857484324, 13114.908410895874, 81984.96931612126, 19039.640610175207, 18475.32611791207, 65397.404479671066, -0.08, 0.988, 0.256, 192.0, 0.0, 0.0, 0.0, 0.0, 0.0, 0.0, 0.0, 0.0, 0.0, 1.6527906737833588E9, 0.0, 2022-05-17 14:31:13.783
97.0, 81785.14472069082, 61323.933163158086, 26725.80203125501, 13116.964771385763, 81823.18738975374, 18935.973219391493, 18355.520767631624, 65263.49517863932, -0.08, 0.988, 0.256, 192.0, 0.0, 0.0, 0.0, 0.0, 0.0, 0.0, 0.0, 0.0, 0.0, 1.6527906737833686E9, 0.0, 2022-05-17 14:31:13.783
98.0, 81805.61891861189, 61359.360678119745, 26763.934107295765, 13168.351431888514, 80778.77977833507, 18982.28603390289, 18299.551999515534, 65116.06307221211, -0.082, 0.994, 0.258, 192.0, 253.0, 112.0, 31.0, 16.0, 8.0, 16.0, 0.0, 0.0, 0.0, 1.6527906737833748E9, 0.0, 2022-05-17 14:31:13.783
99.0, 81820.92986356377, 61377.57734985082, 26778.23922374716, 13195.79937407963, 80277.38544671363, 19094.78236374645, 18364.707334602754, 65137.16311897792, -0.082, 0.994, 0.258, 192.0, 0.0, 0.0, 0.0, 0.0, 0.0, 0.0, 0.0, 0.0, 0.0, 1.652790673783383E9, 0.0, 2022-05-17 14:31:13.783
100.0, 81810.49159890314, 61356.209082151545, 26758.569688626492, 13156.527359071657, 81016.28941491716, 19131.908611286715, 18478.924748769376, 65307.93044661647, -0.082, 0.994, 0.258, 192.0, 0.0, 0.0, 0.0, 0.0, 0.0, 0.0, 0.0, 0.0, 0.0, 1.6527906737833946E9, 0.0, 2022-05-17 14:31:13.783
101.0, 81782.77543577856, 61319.12753810019, 26714.424993327262, 13105.543029969102, 81987.83033941155, 19040.311162508868, 18469.335850398045, 65399.10321224967, -0.082, 0.994, 0.258, 192.0, 0.0, 0.0, 0.0, 0.0, 0.0, 0.0, 0.0, 0.0, 0.0, 1.6527906737834055E9, 0.0, 2022-05-17 14:31:13.783
102.0, 81784.22829916816, 61336.11486388623, 26719.47648757416, 13115.668370207355, 81855.8209366585, 18943.41635029511, 18355.87839554291, 65282.78473410425, -0.082, 0.994, 0.258, 192.0, 0.0, 0.0, 0.0, 0.0, 0.0, 0.0, 0.0, 0.0, 0.0, 1.652790673783414E9, 0.0, 2022-05-17 14:31:13.783
103.0, 81811.67624135927, 61378.76199230695, 26757.563860126003, 13170.676013311866, 80791.98965930816, 18971.80306575335, 18287.482057509667, 65109.089327942056, -0.082, 0.994, 0.258, 192.0, 0.0, 0.0, 0.0, 0.0, 0.0, 0.0, 0.0, 0.0, 0.0, 1.652790673783424E9, 0.0, 2022-05-17 14:31:13.783
104.0, 81835.52555269309, 61398.498582660985, 26781.34611622645, 13202.728414860776, 80260.50987964986, 19092.837761978837, 18365.82492182552, 65108.57523781958, -0.082, 0.994, 0.258, 192.0, 0.0, 0.0, 0.0, 0.0, 0.0, 0.0, 0.0, 0.0, 0.0, 1.652790673783437E9, 0.0, 2022-05-17 14:31:13.783
105.0, 81816.92890130627, 61364.456875855554, 26750.880688533867, 13157.019097449673, 80993.4682838283, 19134.434358410163, 18480.578777859067, 65286.942158572936, -0.082, 0.994, 0.258, 192.0, 0.0, 0.0, 0.0, 0.0, 0.0, 0.0, 0.0, 0.0, 0.0, 1.65279067426139E9, 0.0, 2022-05-17 14:31:14.261
106.0, 81784.67533405726, 61329.96813416101, 26714.447345071716, 13103.39726250139, 81959.13069953093, 19035.01379907296, 18468.173559686373, 65373.555168337254, -0.082, 0.994, 0.258, 192.0, 0.0, 0.0, 0.0, 0.0, 0.0, 0.0, 0.0, 0.0, 0.0, 1.6527906742615347E9, 0.0, 2022-05-17 14:31:14.261
107.0, 81786.17290093577, 61342.015724422425, 26712.614502026383, 13113.634361461922, 81835.45849745971, 18939.817719437804, 18352.54798561907, 65254.75564655729, -0.08, 0.992, 0.26, 192.0, 253.0, 128.0, 31.0, 0.0, 8.0, 32.0, 0.0, 0.0, 0.0, 1.652790674261552E9, 0.0, 2022-05-17 14:31:14.261
108.0, 81813.12910474886, 61377.91262601765, 26748.0643687325, 13166.65269930991, 80782.19959523673, 18971.959527964536, 18280.28479579506, 65088.48101955427, -0.08, 0.992, 0.26, 192.0, 0.0, 0.0, 0.0, 0.0, 0.0, 0.0, 0.0, 0.0, 0.0, 1.652790674261558E9, 0.0, 2022-05-17 14:31:14.261
109.0, 81828.39534621184, 61393.11181224726, 26772.67363937779, 13194.011234523206, 80250.69746383399, 19091.653119522707, 18358.024163010617, 65095.49946731323, -0.08, 0.992, 0.26, 192.0, 0.0, 0.0, 0.0, 0.0, 0.0, 0.0, 0.0, 0.0, 0.0, 1.6527906742615638E9, 0.0, 2022-05-17 14:31:14.261
110.0, 81815.1631134943, 61368.36843113523, 26746.320932664985, 13160.662431795889, 80969.7083794723, 19128.712311829604, 18469.671126564877, 65266.669126351975, -0.08, 0.992, 0.26, 192.0, 0.0, 0.0, 0.0, 0.0, 0.0, 0.0, 0.0, 0.0, 0.0, 1.6527906742615697E9, 0.0, 2022-05-17 14:31:14.261
111.0, 81786.53052884704, 61331.1751283616, 26706.735993234637, 13103.531372968124, 81949.22887673722, 19033.203307772077, 18463.457341606303, 65362.848682743155, -0.08, 0.992, 0.26, 192.0, 0.0, 0.0, 0.0, 0.0, 0.0, 0.0, 0.0, 0.0, 0.0, 1.6527906742615757E9, 0.0, 2022-05-17 14:31:14.261
112.0, 81774.81821475246, 61333.16443361813, 26700.119876875866, 13107.509983481168, 81843.01338708561, 18939.84007118226, 18347.272973927615, 65252.542823856216, -0.08, 0.992, 0.26, 192.0, 0.0, 0.0, 0.0, 0.0, 0.0, 0.0, 0.0, 0.0, 0.0, 1.6527906742615814E9, 0.0, 2022-05-17 14:31:14.261
113.0, 81793.92895626175, 61370.93888174759, 26732.306388891506, 13161.623556807466, 80800.6174326679, 18975.42404835511, 18283.414040018804, 65098.65106328143, -0.08, 0.992, 0.26, 192.0, 0.0, 0.0, 0.0, 0.0, 0.0, 0.0, 0.0, 0.0, 0.0, 1.6527906742615871E9, 0.0, 2022-05-17 14:31:14.261
114.0, 81814.33609894945, 61389.78140232342, 26756.44627290324, 13192.04428101114, 80272.62452514464, 19104.147744673224, 18355.543119376078, 65123.617961838005, -0.08, 0.992, 0.26, 192.0, 0.0, 0.0, 0.0, 0.0, 0.0, 0.0, 0.0, 0.0, 0.0, 1.652790674261593E9, 0.0, 2022-05-17 14:31:14.261
115.0, 81805.12718023386, 61367.742582290484, 26737.849621516423, 13150.805312491097, 80973.0611411406, 19147.241907983054, 18472.956832999807, 65289.9596440744, -0.08, 0.992, 0.26, 192.0, 0.0, 0.0, 0.0, 0.0, 0.0, 0.0, 0.0, 0.0, 0.0, 1.6527906742615988E9, 0.0, 2022-05-17 14:31:14.261
116.0, 81783.96007823468, 61337.36656157572, 26704.925501933754, 13115.534259740623, 81943.37271968994, 19052.045828347902, 18470.386382387445, 65373.689278803984, -0.08, 0.992, 0.26, 192.0, 0.0, 0.0, 0.0, 0.0, 0.0, 0.0, 0.0, 0.0, 0.0, 1.6527906742616045E9, 0.0, 2022-05-17 14:31:14.261
117.0, 81775.84639499741, 61340.8757854552, 26704.545522278015, 13123.513832511167, 81839.6159219284, 18948.154920119636, 18359.141750233382, 65252.185195944934, -0.082, 0.994, 0.256, 192.0, 253.0, 112.0, 31.0, 16.0, 8.0, 0.0, 0.0, 0.0, 0.0, 1.6527906742616105E9, 0.0, 2022-05-17 14:31:14.261
118.0, 81790.62089808237, 61370.760067791954, 26739.81657502849, 13181.583664606056, 80808.3734879939, 18987.67280431662, 18297.7191564702, 65105.33423487357, -0.082, 0.994, 0.256, 192.0, 0.0, 0.0, 0.0, 0.0, 0.0, 0.0, 0.0, 0.0, 0.0, 1.6527906742616165E9, 0.0, 2022-05-17 14:31:14.261
119.0, 81798.19813945272, 61379.45489638507, 26757.139176981353, 13207.958723063317, 80276.42432170204, 19113.624884322275, 18368.909462560354, 65135.62084861051, -0.082, 0.994, 0.256, 192.0, 0.0, 0.0, 0.0, 0.0, 0.0, 0.0, 0.0, 0.0, 0.0, 1.652790674261622E9, 0.0, 2022-05-17 14:31:14.261
120.0, 81788.45277887021, 61353.77274200592, 26738.073138960975, 13176.331004659058, 80980.99601042224, 19152.449864441143, 18476.019021990185, 65314.85948739761, -0.082, 0.994, 0.256, 192.0, 0.0, 0.0, 0.0, 0.0, 0.0, 0.0, 0.0, 0.0, 0.0, 1.6527906742616282E9, 0.0, 2022-05-17 14:31:14.261
121.0, 81765.78810999253, 61325.117805614216, 26712.882722959846, 13131.515757026167, 81958.57190591954, 19058.01374411747, 18476.309594668102, 65404.46763091894, -0.082, 0.994, 0.256, 192.0, 0.0, 0.0, 0.0, 0.0, 0.0, 0.0, 0.0, 0.0, 0.0, 1.652790674261634E9, 0.0, 2022-05-17 14:31:14.261
122.0, 81757.51796454407, 61333.58911676278, 26703.18206586624, 13124.363198800469, 81864.00167512914, 18939.728312459985, 18354.738456575687, 65283.76821086028, -0.082, 0.994, 0.256, 192.0, 0.0, 0.0, 0.0, 0.0, 0.0, 0.0, 0.0, 0.0, 0.0, 1.6527906742616396E9, 0.0, 2022-05-17 14:31:14.261
123.0, 81788.07279921447, 61381.935940019604, 26747.25970593211, 13180.913112272396, 80818.76704916562, 18966.863330228727, 18288.845513921442, 65121.114566459015, -0.082, 0.994, 0.256, 192.0, 0.0, 0.0, 0.0, 0.0, 0.0, 0.0, 0.0, 0.0, 0.0, 1.6527906742616456E9, 0.0, 2022-05-17 14:31:14.261
124.0, 81808.39053492434, 61398.87856231673, 26767.800959086533, 13204.404795694923, 80263.5944203847, 19082.64536650722, 18364.103837502462, 65137.76661607822, -0.082, 0.994, 0.256, 192.0, 0.0, 0.0, 0.0, 0.0, 0.0, 0.0, 0.0, 0.0, 0.0, 1.6527906742616515E9, 0.0, 2022-05-17 14:31:14.261
125.0, 81805.95419477871, 61377.82321903983, 26751.48418563416, 13179.437897138347, 80943.89211462643, 19137.429492167175, 18473.89560626693, 65302.54367620274, -0.082, 0.994, 0.256, 192.0, 0.0, 0.0, 0.0, 0.0, 0.0, 0.0, 0.0, 0.0, 0.0, 1.6527906742616606E9, 0.0, 2022-05-17 14:31:14.261
126.0, 81782.35075263391, 61343.1780151341, 26720.594074796925, 13122.753873199686, 81930.60987360595, 19039.394740986198, 18478.254196435715, 65396.488058148396, -0.082, 0.994, 0.256, 192.0, 0.0, 0.0, 0.0, 0.0, 0.0, 0.0, 0.0, 0.0, 0.0, 1.6527906742616663E9, 0.0, 2022-05-17 14:31:14.261
127.0, 81783.13306368983, 61353.63863153919, 26725.109127176896, 13125.83841393452, 81845.62854118687, 18924.015036107903, 18367.72482010422, 65273.82168457767, -0.078, 1.0, 0.258, 192.0, 253.0, 144.0, 31.0, 64.0, 8.0, 16.0, 0.0, 0.0, 0.0, 1.6527906742616725E9, 0.0, 2022-05-17 14:31:14.261
128.0, 81803.1602267218, 61389.15555347867, 26756.53567988106, 13167.256196410204, 80821.96334862272, 18956.916803946115, 18304.938769929264, 65129.25060144074, -0.078, 1.0, 0.258, 192.0, 0.0, 0.0, 0.0, 0.0, 0.0, 0.0, 0.0, 0.0, 0.0, 1.6527906742616963E9, 0.0, 2022-05-17 14:31:14.261
129.0, 81831.05520380203, 61413.96598982406, 26782.664869149314, 13202.99663579424, 80258.81114707126, 19073.503503024996, 18365.82492182552, 65147.98136329429, -0.078, 1.0, 0.258, 192.0, 0.0, 0.0, 0.0, 0.0, 0.0, 0.0, 0.0, 0.0, 0.0, 1.6527906742617047E9, 0.0, 2022-05-17 14:31:14.261
130.0, 81826.47309618868, 61390.02727151242, 26761.497767150136, 13179.124972715972, 80924.75902137268, 19112.931980244157, 18471.99570798823, 65307.483411727364, -0.078, 1.0, 0.258, 192.0, 0.0, 0.0, 0.0, 0.0, 0.0, 0.0, 0.0, 0.0, 0.0, 1.652790674261711E9, 0.0, 2022-05-17 14:31:14.261
131.0, 81803.4060959108, 61354.51034957294, 26729.735938279147, 13122.73152145523, 81913.51078909765, 19025.938990824103, 18469.000574231217, 65396.80098257077, -0.078, 1.0, 0.258, 192.0, 0.0, 0.0, 0.0, 0.0, 0.0, 0.0, 0.0, 0.0, 0.0, 1.6527906742617166E9, 0.0, 2022-05-17 14:31:14.261
132.0, 81800.54507262053, 61357.52783507441, 26729.266551645585, 13121.613934232466, 81852.89285813486, 18930.49704199994, 18355.990154265186, 65284.03643179375, -0.078, 1.0, 0.258, 192.0, 0.0, 0.0, 0.0, 0.0, 0.0, 0.0, 0.0, 0.0, 0.0, 1.6527906742617223E9, 0.0, 2022-05-17 14:31:14.261
133.0, 81827.74714562263, 61394.89995180368, 26771.6678108773, 13182.209513450804, 80812.01682234011, 18963.84584472726, 18283.03406036306, 65115.101947200536, -0.078, 1.0, 0.258, 192.0, 0.0, 0.0, 0.0, 0.0, 0.0, 0.0, 0.0, 0.0, 0.0, 1.6527906742617283E9, 0.0, 2022-05-17 14:31:14.261
134.0, 81850.09889007793, 61408.13218452122, 26795.003032088644, 13210.149194019938, 80235.61003632666, 19087.2051223761, 18347.429436138802, 65125.49550837225, -0.078, 1.0, 0.258, 192.0, 0.0, 0.0, 0.0, 0.0, 0.0, 0.0, 0.0, 0.0, 0.0, 1.6527906742617345E9, 0.0, 2022-05-17 14:31:14.261
135.0, 81847.55079121003, 61387.814448811354, 26783.223662760694, 13182.969472762285, 80908.08462000903, 19139.687018357163, 18462.451513105814, 65298.341548245146, -0.078, 1.0, 0.258, 192.0, 0.0, 0.0, 0.0, 0.0, 0.0, 0.0, 0.0, 0.0, 0.0, 1.65279067426174E9, 0.0, 2022-05-17 14:31:14.261
136.0, 81827.83655260045, 61354.77857050641, 26748.734921066156, 13134.801463461097, 81908.39223961739, 19047.329610267832, 18468.374725386468, 65397.20331397097, -0.078, 1.0, 0.258, 192.0, 0.0, 0.0, 0.0, 0.0, 0.0, 0.0, 0.0, 0.0, 0.0, 1.652790674261746E9, 0.0, 2022-05-17 14:31:14.261
137.0, 81824.52849442107, 61361.79701826537, 26745.58332509796, 13150.17946364635, 81854.23396280217, 18950.099521887245, 18359.991116522684, 65280.30369046971, -0.078, 0.99, 0.262, 192.0, 253.0, 144.0, 30.0, 240.0, 8.0, 48.0, 0.0, 0.0, 0.0, 1.6527906742617517E9, 0.0, 2022-05-17 14:31:14.261
138.0, 81837.76072713861, 61391.033100012915, 26773.25478473363, 13203.600132894533, 80832.33455804999, 18983.76124903694, 18291.460668022715, 65126.344874661554, -0.078, 0.99, 0.262, 192.0, 0.0, 0.0, 0.0, 0.0, 0.0, 0.0, 0.0, 0.0, 0.0, 1.6527906742617574E9, 0.0, 2022-05-17 14:31:14.261
139.0, 81854.85981164692, 61409.47328918854, 26798.86988387941, 13237.284211788681, 80255.10075749169, 19107.232285408056, 18359.365267677935, 65145.45561617084, -0.078, 0.99, 0.262, 192.0, 0.0, 0.0, 0.0, 0.0, 0.0, 0.0, 0.0, 0.0, 0.0, 1.652790674261763E9, 0.0, 2022-05-17 14:31:14.261
140.0, 81848.78013715507, 61388.932036034115, 26785.794113373056, 13207.221115496293, 80926.59186441802, 19160.31767848941, 18479.908225525407, 65329.3210660602, -0.078, 0.99, 0.262, 192.0, 0.0, 0.0, 0.0, 0.0, 0.0, 0.0, 0.0, 0.0, 0.0, 1.6527906742617693E9, 0.0, 2022-05-17 14:31:14.261
141.0, 81823.00857579811, 61350.64349778218, 26750.321894922483, 13151.967603202773, 81919.03166997811, 19058.1478545842, 18480.98110925926, 65419.219782259446, -0.078, 0.99, 0.262, 192.0, 0.0, 0.0, 0.0, 0.0, 0.0, 0.0, 0.0, 0.0, 0.0, 1.6527906742617748E9, 0.0, 2022-05-17 14:31:14.261
142.0, 81819.29818621853, 61358.91364323064, 26751.32772342297, 13157.89081548343, 81874.21642234521, 18943.393998550655, 18371.59167189499, 65300.64377792404, -0.078, 0.99, 0.262, 192.0, 0.0, 0.0, 0.0, 0.0, 0.0, 0.0, 0.0, 0.0, 0.0, 1.6527906742617807E9, 0.0, 2022-05-17 14:31:14.261
143.0, 81844.10862256392, 61399.30324546138, 26788.051639563044, 13228.343514006558, 80842.10227037696, 18971.04310644187, 18309.34206358696, 65132.06692124211, -0.078, 0.99, 0.262, 192.0, 0.0, 0.0, 0.0, 0.0, 0.0, 0.0, 0.0, 0.0, 0.0, 1.6527906742617865E9, 0.0, 2022-05-17 14:31:14.261
144.0, 81868.13674785338, 61419.44216721561, 26807.63176770589, 13262.698145234364, 80244.30486491977, 19097.553980058907, 18381.046459799585, 65140.11354924602, -0.078, 0.99, 0.262, 192.0, 0.0, 0.0, 0.0, 0.0, 0.0, 0.0, 0.0, 0.0, 0.0, 1.652790674261792E9, 0.0, 2022-05-17 14:31:14.261
145.0, 81859.71014019373, 61389.64729185669, 26788.766895385612, 13233.305601275635, 80911.9514717998, 19148.806530094927, 18502.014100791705, 65327.80114743724, -0.078, 0.99, 0.262, 192.0, 0.0, 0.0, 0.0, 0.0, 0.0, 0.0, 0.0, 0.0, 0.0, 1.652790674261798E9, 0.0, 2022-05-17 14:31:14.261
146.0, 81836.97841608268, 61354.93503271759, 26755.663961847302, 13182.142458217439, 81920.90921651236, 19050.794130658403, 18502.975225803286, 65428.428700975026, -0.078, 0.99, 0.262, 192.0, 0.0, 0.0, 0.0, 0.0, 0.0, 0.0, 0.0, 0.0, 0.0, 1.6527906742618036E9, 0.0, 2022-05-17 14:31:14.261
147.0, 81831.18931426875, 61360.16534092014, 26750.165432711296, 13179.28143492716, 81911.74500128567, 18929.69237919955, 18392.982291338718, 65328.15877534852, -0.076, 0.992, 0.262, 192.0, 253.0, 160.0, 31.0, 0.0, 8.0, 48.0, 0.0, 0.0, 0.0, 1.6527906742618096E9, 0.0, 2022-05-17 14:31:14.261
148.0, 81859.97836112719, 61403.34891120779, 26786.822293618, 13235.00433385424, 80872.70180853628, 18948.221975353, 18312.33719734397, 65145.008581281734, -0.076, 0.992, 0.262, 192.0, 0.0, 0.0, 0.0, 0.0, 0.0, 0.0, 0.0, 0.0, 0.0, 1.6527906742618153E9, 0.0, 2022-05-17 14:31:14.261
149.0, 81883.29123059407, 61424.71717890706, 26814.471401509214, 13267.86139820354, 80265.42726343004, 19092.949520701113, 18389.92010234834, 65150.03772378418, -0.076, 0.992, 0.262, 192.0, 0.0, 0.0, 0.0, 0.0, 0.0, 0.0, 0.0, 0.0, 0.0, 1.6527906742618213E9, 0.0, 2022-05-17 14:31:14.261
150.0, 81870.70719846574, 61396.86690531575, 26790.44327621976, 13220.81097612512, 80927.01654756267, 19137.250678211534, 18506.775022360685, 65341.01102841032, -0.076, 0.992, 0.262, 192.0, 0.0, 0.0, 0.0, 0.0, 0.0, 0.0, 0.0, 0.0, 0.0, 1.6527906742618291E9, 0.0, 2022-05-17 14:31:14.261
151.0, 81852.82580290148, 61370.80477128086, 26766.72807535268, 13174.296995913624, 81920.97627174572, 19044.133310810725, 18511.42418520739, 65426.23823001841, -0.076, 0.992, 0.262, 192.0, 0.0, 0.0, 0.0, 0.0, 0.0, 0.0, 0.0, 0.0, 0.0, 1.652790674261835E9, 0.0, 2022-05-17 14:31:14.261
152.0, 81843.2145527857, 61376.16918995014, 26767.890366064355, 13170.564254589588, 81904.12305642641, 18930.877021655684, 18404.962826366762, 65309.60682745062, -0.076, 0.992, 0.262, 192.0, 0.0, 0.0, 0.0, 0.0, 0.0, 0.0, 0.0, 0.0, 0.0, 1.6527906742618408E9, 0.0, 2022-05-17 14:31:14.261
153.0, 81861.96766638372, 61405.561733908864, 26796.277081522596, 13217.122938289993, 80869.55021256808, 18948.534899775375, 18328.273991140602, 65123.193278693354, -0.076, 0.992, 0.262, 192.0, 0.0, 0.0, 0.0, 0.0, 0.0, 0.0, 0.0, 0.0, 0.0, 1.6527906742618463E9, 0.0, 2022-05-17 14:31:14.261
154.0, 81878.329143325, 61420.112719549266, 26814.381994531395, 13240.61462171252, 80265.11433900766, 19082.01951766247, 18393.675195416832, 65138.727741089795, -0.076, 0.992, 0.262, 192.0, 0.0, 0.0, 0.0, 0.0, 0.0, 0.0, 0.0, 0.0, 0.0, 1.6527906742618525E9, 0.0, 2022-05-17 14:31:14.261
155.0, 81868.4273205313, 61396.621036126744, 26789.415095974815, 13215.111281289015, 80910.81153283257, 19136.110739244312, 18505.299807226635, 65326.30358055873, -0.076, 0.992, 0.262, 192.0, 0.0, 0.0, 0.0, 0.0, 0.0, 0.0, 0.0, 0.0, 0.0, 1.652790674261858E9, 0.0, 2022-05-17 14:31:14.261
156.0, 81843.572180697, 61361.43939035409, 26755.798072314035, 13163.456399852801, 81938.88001905443, 19044.602697444287, 18515.492202698257, 65444.99134361641, -0.076, 0.992, 0.262, 192.0, 0.0, 0.0, 0.0, 0.0, 0.0, 0.0, 0.0, 0.0, 0.0, 1.6527906742618637E9, 0.0, 2022-05-17 14:31:14.261
157.0, 81834.07268930349, 61364.30041364437, 26749.159604210807, 13154.381591603946, 81939.28235045461, 18922.1151378292, 18397.98908209671, 65334.3725603071, -0.08, 0.988, 0.262, 192.0, 253.0, 128.0, 30.0, 224.0, 8.0, 48.0, 0.0, 0.0, 0.0, 1.6527906742618697E9, 0.0, 2022-05-17 14:31:14.261
