%OpenBCI Raw EEG Data
%Number of channels = 8
%Sample Rate = 250 Hz
%Board = OpenBCI_GUI$BoardCytonSerial
Sample Index, EXG Channel 0, EXG Channel 1, EXG Channel 2, EXG Channel 3, EXG Channel 4, EXG Channel 5, EXG Channel 6, EXG Channel 7, Accel Channel 0, Accel Channel 1, Accel Channel 2, Other, Other, Other, Other, Other, Other, Other, Analog Channel 0, Analog Channel 1, Analog Channel 2, Timestamp, Other, Timestamp (Formatted)
0.0, 0.0, 0.0, 0.0, 0.0, 0.0, 0.0, 0.0, 0.0, 0.018000000000000002, 0.778, 0.642, 192.0, 0.0, 144.0, 24.0, 80.0, 20.0, 16.0, 0.0, 0.0, 0.0, 1.654156625006517E9, 0.0, 2022-06-02 09:57:05.006
1.0, 24132.23971512791, 265.2257997066736, -74115.85886667477, -54306.87121234789, -39072.65979917763, -40348.45266919764, -8962.401325988929, -46768.76774654004, 0.018000000000000002, 0.778, 0.642, 192.0, 0.0, 0.0, 0.0, 0.0, 0.0, 0.0, 0.0, 0.0, 0.0, 1.6541566254843612E9, 0.0, 2022-06-02 09:57:05.484
2.0, 24124.036624912816, 262.83416304995575, -74109.93565439411, -54307.184136770265, -39071.87748812169, -40354.15236403375, -8968.592759203048, -46770.71234830766, 0.018000000000000002, 0.778, 0.642, 192.0, 0.0, 0.0, 0.0, 0.0, 0.0, 0.0, 0.0, 0.0, 0.0, 1.654156625484565E9, 0.0, 2022-06-02 09:57:05.484
3.0, 24127.67995925903, 272.2218957211847, -74088.81325588386, -54290.688549362254, -39053.906685579626, -40342.84238133936, -8946.688049636847, -46729.8310076989, 0.018000000000000002, 0.778, 0.642, 192.0, 0.0, 0.0, 0.0, 0.0, 0.0, 0.0, 0.0, 0.0, 0.0, 1.6541566254845707E9, 0.0, 2022-06-02 09:57:05.484
4.0, 24143.77321526685, 289.1868697627628, -74069.05431378535, -54269.67790957426, -39032.001976013424, -40316.512026371005, -8913.786281798635, -46694.04586482595, 0.018000000000000002, 0.778, 0.642, 192.0, 0.0, 0.0, 0.0, 0.0, 0.0, 0.0, 0.0, 0.0, 0.0, 1.654156625484576E9, 0.0, 2022-06-02 09:57:05.484
5.0, 24150.232869414434, 286.52701217258124, -74087.00276458297, -54281.99372076914, -39050.08453727776, -40314.65683158122, -8939.446084433328, -46747.24301662958, 0.018000000000000002, 0.778, 0.642, 192.0, 0.0, 0.0, 0.0, 0.0, 0.0, 0.0, 0.0, 0.0, 0.0, 1.6541566254845812E9, 0.0, 2022-06-02 09:57:05.484
6.0, 24146.991866468416, 268.82443056397807, -74114.8977416632, -54307.85468910393, -39083.12041558271, -40340.11546851581, -8971.073802837587, -46764.36445288235, 0.018000000000000002, 0.778, 0.642, 192.0, 0.0, 0.0, 0.0, 0.0, 0.0, 0.0, 0.0, 0.0, 0.0, 1.6541566254845865E9, 0.0, 2022-06-02 09:57:05.484
7.0, 24154.144424694114, 277.72042485719027, -74098.24569204399, -54293.92955230827, -39072.43628173307, -40335.91334055822, -8948.543244426637, -46743.64438577228, 0.018000000000000002, 0.778, 0.642, 192.0, 0.0, 0.0, 0.0, 0.0, 0.0, 0.0, 0.0, 0.0, 0.0, 1.6541566254845915E9, 0.0, 2022-06-02 09:57:05.484
8.0, 24155.396122383612, 283.2636574821064, -74078.9337848346, -54283.156011480816, -39056.79006061436, -40331.26417771151, -8942.731790868258, -46741.610377026846, 0.014, 0.778, 0.644, 192.0, 0.0, 112.0, 24.0, 80.0, 20.0, 32.0, 0.0, 0.0, 0.0, 1.6541566254845967E9, 0.0, 2022-06-02 09:57:05.484
9.0, 24160.179395697047, 294.08190179847503, -74065.29922071687, -54272.33776716444, -39046.30709246482, -40320.55769211742, -8938.57436639957, -46732.781437967, 0.014, 0.778, 0.644, 192.0, 0.0, 0.0, 0.0, 0.0, 0.0, 0.0, 0.0, 0.0, 0.0, 1.654156625484602E9, 0.0, 2022-06-02 09:57:05.484
10.0, 24164.090950976726, 300.8321286239778, -74068.00378179595, -54274.34942416542, -39046.37414769818, -40320.6694508397, -8942.754142612714, -46753.568560310436, 0.014, 0.778, 0.644, 192.0, 0.0, 0.0, 0.0, 0.0, 0.0, 0.0, 0.0, 0.0, 0.0, 1.6541566254846072E9, 0.0, 2022-06-02 09:57:05.484
11.0, 24158.79358754082, 289.276276740584, -74088.63444192821, -54296.83527908746, -39056.745357125445, -40346.21749475211, -8944.251709491218, -46776.36733965485, 0.014, 0.778, 0.644, 192.0, 0.0, 0.0, 0.0, 0.0, 0.0, 0.0, 0.0, 0.0, 0.0, 1.6541566254846125E9, 0.0, 2022-06-02 09:57:05.484
12.0, 24168.851872545707, 295.19948902124037, -74074.2846219879, -54283.1113079919, -39047.49173492095, -40340.003709793535, -8938.95434605531, -46745.25371137306, 0.014, 0.778, 0.644, 192.0, 0.0, 0.0, 0.0, 0.0, 0.0, 0.0, 0.0, 0.0, 0.0, 1.6541566254846177E9, 0.0, 2022-06-02 09:57:05.484
13.0, 24154.613811327676, 293.0760732979862, -74070.66363938614, -54279.69149109024, -39041.27794996237, -40338.30497721493, -8944.855206591512, -46740.559845037445, 0.014, 0.778, 0.644, 192.0, 0.0, 0.0, 0.0, 0.0, 0.0, 0.0, 0.0, 0.0, 0.0, 1.654156625484624E9, 0.0, 2022-06-02 09:57:05.484
14.0, 24141.627447799143, 292.5172796866035, -74069.0766655298, -54274.52823812106, -39039.758031339414, -40331.130067244776, -8934.193424486331, -46724.53364426299, 0.014, 0.778, 0.644, 192.0, 0.0, 0.0, 0.0, 0.0, 0.0, 0.0, 0.0, 0.0, 0.0, 1.654156625484629E9, 0.0, 2022-06-02 09:57:05.484
15.0, 24154.099721205203, 292.7184453867013, -74077.27975574491, -54273.433002642756, -39045.860057575715, -40329.945424788646, -8935.869805320479, -46746.706574762655, 0.014, 0.778, 0.644, 192.0, 0.0, 0.0, 0.0, 0.0, 0.0, 0.0, 0.0, 0.0, 0.0, 1.6541566254846342E9, 0.0, 2022-06-02 09:57:05.484
16.0, 24148.668247302565, 270.14318348684117, -74111.70144220609, -54302.69143613475, -39076.14667131265, -40357.1251460463, -8973.130163327476, -46791.521822395545, 0.014, 0.778, 0.644, 192.0, 0.0, 0.0, 0.0, 0.0, 0.0, 0.0, 0.0, 0.0, 0.0, 1.6541566254846394E9, 0.0, 2022-06-02 09:57:05.484
17.0, 24142.72268327745, 267.7738985745786, -74105.62176771424, -54302.914953579304, -39077.48777597997, -40365.06001532794, -8977.622863962992, -46786.760900826564, 0.014, 0.788, 0.646, 192.0, 0.0, 112.0, 24.0, 160.0, 20.0, 48.0, 0.0, 0.0, 0.0, 1.6541566254846447E9, 0.0, 2022-06-02 09:57:05.484
18.0, 24151.30575314829, 283.5318784155701, -74079.47022670152, -54270.50492411911, -39050.08453727776, -40330.727735844586, -8945.481055436261, -46723.639574484776, 0.014, 0.788, 0.646, 192.0, 0.0, 0.0, 0.0, 0.0, 0.0, 0.0, 0.0, 0.0, 0.0, 1.65415662548465E9, 0.0, 2022-06-02 09:57:05.484
19.0, 24154.658514816587, 298.64165766735766, -74058.72780784701, -54250.12013317587, -39011.661888559094, -40306.76666578849, -8866.84761844249, -46681.59594316434, 0.014, 0.788, 0.646, 192.0, 0.0, 0.0, 0.0, 0.0, 0.0, 0.0, 0.0, 0.0, 0.0, 1.654156625484655E9, 0.0, 2022-06-02 09:57:05.484
20.0, 24145.896630990104, 293.45605295372644, -74068.45081668506, -54261.29600540352, -39017.898025262126, -40304.8667675098, -8879.029319170633, -46698.538565461466, 0.014, 0.788, 0.646, 192.0, 0.0, 0.0, 0.0, 0.0, 0.0, 0.0, 0.0, 0.0, 0.0, 1.6541566254846601E9, 0.0, 2022-06-02 09:57:05.484
21.0, 24133.938447706518, 273.94298004424337, -74105.62176771424, -54291.26969471809, -39056.94652282554, -40332.82879982338, -8939.870767577979, -46745.656042773255, 0.014, 0.788, 0.646, 192.0, 0.0, 0.0, 0.0, 0.0, 0.0, 0.0, 0.0, 0.0, 0.0, 1.6541566254846654E9, 0.0, 2022-06-02 09:57:05.484
22.0, 24129.311636604267, 270.07612825347525, -74112.32729105084, -54299.58454365547, -39078.270087035904, -40350.12905003179, -8975.387689517462, -46732.60262401136, 0.014, 0.788, 0.646, 192.0, 0.0, 0.0, 0.0, 0.0, 0.0, 0.0, 0.0, 0.0, 0.0, 1.654156625484678E9, 0.0, 2022-06-02 09:57:05.484
23.0, 24140.420453598555, 289.36568371840525, -74080.02902031291, -54271.801325297514, -39056.07480479179, -40322.50229388503, -8947.939747326345, -46726.00885939704, 0.014, 0.788, 0.646, 192.0, 0.0, 0.0, 0.0, 0.0, 0.0, 0.0, 0.0, 0.0, 0.0, 1.6541566254846833E9, 0.0, 2022-06-02 09:57:05.484
24.0, 24151.57397408175, 301.212108279718, -74061.14179624818, -54253.45054309971, -39037.23228421596, -40298.898851740225, -8930.43833141784, -46727.685240231185, 0.014, 0.788, 0.646, 192.0, 0.0, 0.0, 0.0, 0.0, 0.0, 0.0, 0.0, 0.0, 0.0, 1.6541566254846883E9, 0.0, 2022-06-02 09:57:05.484
25.0, 24147.573011824254, 287.9798755621762, -74088.00859308346, -54273.81298229849, -39056.477136191985, -40314.768590303494, -8958.266253264697, -46773.21574368665, 0.014, 0.788, 0.646, 192.0, 0.0, 0.0, 0.0, 0.0, 0.0, 0.0, 0.0, 0.0, 0.0, 1.6541566254846935E9, 0.0, 2022-06-02 09:57:05.484
26.0, 24155.10554970569, 283.17425050428517, -74107.5887212263, -54284.78768882605, -39076.68311317958, -40326.100924742335, -8975.924131384389, -46783.56460136946, 0.014, 0.788, 0.646, 192.0, 0.0, 0.0, 0.0, 0.0, 0.0, 0.0, 0.0, 0.0, 0.0, 1.6541566254846988E9, 0.0, 2022-06-02 09:57:05.484
27.0, 24167.22019520047, 288.53866917355884, -74092.32247976333, -54273.45535438721, -39064.3225984958, -40322.85992179631, -8948.409133959905, -46750.81929574243, 0.014, 0.786, 0.65, 192.0, 0.0, 112.0, 24.0, 144.0, 20.0, 80.0, 0.0, 0.0, 0.0, 1.654156625484704E9, 0.0, 2022-06-02 09:57:05.484
28.0, 24174.506863892897, 294.5736401764918, -74074.21756675454, -54258.47968560216, -39038.59574062774, -40311.16995944619, -8917.273153933664, -46718.05163837095, 0.014, 0.786, 0.65, 192.0, 0.0, 0.0, 0.0, 0.0, 0.0, 0.0, 0.0, 0.0, 0.0, 1.6541566254847093E9, 0.0, 2022-06-02 09:57:05.484
29.0, 24159.01710498537, 301.01094257962023, -74066.2826974729, -54251.304775632, -39029.8115050568, -40299.83762500735, -8907.550145095605, -46701.93603061867, 0.014, 0.786, 0.65, 192.0, 0.0, 0.0, 0.0, 0.0, 0.0, 0.0, 0.0, 0.0, 0.0, 1.6541566254847145E9, 0.0, 2022-06-02 09:57:05.484
30.0, 24129.445747071, 281.6990353702349, -74094.95998560906, -54280.74202307964, -39061.506278694425, -40325.475075897586, -8946.106904281009, -46753.85913298835, 0.014, 0.786, 0.65, 192.0, 0.0, 0.0, 0.0, 0.0, 0.0, 0.0, 0.0, 0.0, 0.0, 1.6541566254847195E9, 0.0, 2022-06-02 09:57:05.484
31.0, 24119.990959166404, 257.9167792697882, -74131.19216337112, -54320.46107297672, -39094.0280668769, -40370.782061908496, -8985.356567544528, -46801.513052167065, 0.014, 0.786, 0.65, 192.0, 0.0, 0.0, 0.0, 0.0, 0.0, 0.0, 0.0, 0.0, 0.0, 1.6541566254847248E9, 0.0, 2022-06-02 09:57:05.484
32.0, 24154.814977027774, 290.66208489681304, -74092.54599720788, -54287.335787693955, -39055.62776990268, -40344.630520895786, -8943.424694946372, -46743.711441005646, 0.014, 0.786, 0.65, 192.0, 0.0, 0.0, 0.0, 0.0, 0.0, 0.0, 0.0, 0.0, 0.0, 1.65415662548473E9, 0.0, 2022-06-02 09:57:05.484
33.0, 24155.820805528263, 298.4404919672599, -74077.61503191174, -54276.65165384432, -39034.34890918123, -40333.70051785714, -8930.14775873992, -46738.21291186964, 0.014, 0.786, 0.65, 192.0, 0.0, 0.0, 0.0, 0.0, 0.0, 0.0, 0.0, 0.0, 0.0, 1.6541566254847353E9, 0.0, 2022-06-02 09:57:05.484
34.0, 24147.394197868613, 292.4725761976929, -74066.1262352617, -54270.281406674556, -39028.42569690057, -40324.759820075014, -8924.29160169263, -46723.79603669597, 0.014, 0.786, 0.65, 192.0, 0.0, 0.0, 0.0, 0.0, 0.0, 0.0, 0.0, 0.0, 0.0, 1.6541566254847405E9, 0.0, 2022-06-02 09:57:05.484
35.0, 24141.29217163231, 279.64267488034665, -74081.70540114706, -54280.25028470162, -39038.52868539437, -40321.49646538454, -8922.86109004749, -46715.19061508067, 0.014, 0.786, 0.65, 192.0, 0.0, 0.0, 0.0, 0.0, 0.0, 0.0, 0.0, 0.0, 0.0, 1.6541566254847455E9, 0.0, 2022-06-02 09:57:05.484
36.0, 24141.560392565774, 267.63978810784675, -74103.43129675763, -54301.663255889805, -39059.58402867127, -40337.500314414545, -8939.982526300255, -46737.94469093617, 0.014, 0.786, 0.65, 192.0, 0.0, 0.0, 0.0, 0.0, 0.0, 0.0, 0.0, 0.0, 0.0, 1.6541566254847507E9, 0.0, 2022-06-02 09:57:05.484
37.0, 24129.602209282188, 259.2578839371066, -74106.8958171482, -54305.932439080774, -39071.989246843965, -40353.146535533255, -8962.20016028883, -46762.39749937028, 0.016, 0.782, 0.65, 192.0, 0.0, 128.0, 24.0, 112.0, 20.0, 80.0, 0.0, 0.0, 0.0, 1.654156625484756E9, 0.0, 2022-06-02 09:57:05.484
38.0, 24128.77519473734, 266.4104421628049, -74092.81421814134, -54294.823622086486, -39055.51601118041, -40350.30786398743, -8949.236148504753, -46758.70946153515, 0.016, 0.782, 0.65, 192.0, 0.0, 0.0, 0.0, 0.0, 0.0, 0.0, 0.0, 0.0, 0.0, 1.6541566254847612E9, 0.0, 2022-06-02 09:57:05.484
39.0, 24127.568200536753, 275.6864161117573, -74079.91726159064, -54276.76341256659, -39041.926150551575, -40331.912378300716, -8938.350848955019, -46741.49861830457, 0.016, 0.782, 0.65, 192.0, 0.0, 0.0, 0.0, 0.0, 0.0, 0.0, 0.0, 0.0, 0.0, 1.6541566254847665E9, 0.0, 2022-06-02 09:57:05.484
40.0, 24128.77519473734, 276.0216922785869, -74088.36622099474, -54276.80811605551, -39043.5131244079, -40325.16215147521, -8939.982526300255, -46753.81442949944, 0.016, 0.782, 0.65, 192.0, 0.0, 0.0, 0.0, 0.0, 0.0, 0.0, 0.0, 0.0, 0.0, 1.6541566254847715E9, 0.0, 2022-06-02 09:57:05.484
41.0, 24129.62456102664, 266.7457183296345, -74118.47402077605, -54300.903296578326, -39063.65204616213, -40346.64217789676, -8959.696764909837, -46778.78132805602, 0.016, 0.782, 0.65, 192.0, 0.0, 0.0, 0.0, 0.0, 0.0, 0.0, 0.0, 0.0, 0.0, 1.6541566254847767E9, 0.0, 2022-06-02 09:57:05.484
42.0, 24127.1435173921, 263.7505845726233, -74119.993939399, -54304.72544488018, -39072.548040455345, -40359.11445130283, -8979.388651774962, -46739.82223747042, 0.016, 0.782, 0.65, 192.0, 0.0, 0.0, 0.0, 0.0, 0.0, 0.0, 0.0, 0.0, 0.0, 1.6541566254847817E9, 0.0, 2022-06-02 09:57:05.484
43.0, 24122.24848535639, 261.82833454946694, -74099.02800309993, -54290.50973540661, -39060.07576704929, -40336.00274753603, -8938.95434605531, -46718.14104534877, 0.016, 0.782, 0.65, 192.0, 0.0, 0.0, 0.0, 0.0, 0.0, 0.0, 0.0, 0.0, 0.0, 1.6541566254847894E9, 0.0, 2022-06-02 09:57:05.484
44.0, 24140.398101854098, 282.16842200379637, -74069.8813283302, -54265.47578161667, -39035.511199892906, -40306.096113454834, -8904.443252616316, -46705.109978331326, 0.016, 0.782, 0.65, 192.0, 0.0, 0.0, 0.0, 0.0, 0.0, 0.0, 0.0, 0.0, 0.0, 1.6541566254847946E9, 0.0, 2022-06-02 09:57:05.484
45.0, 24148.78000602484, 276.22285797868466, -74082.53241569191, -54278.21627595619, -39042.61905462969, -40314.47801762557, -8924.626877859459, -46734.36841182333, 0.016, 0.782, 0.65, 192.0, 0.0, 0.0, 0.0, 0.0, 0.0, 0.0, 0.0, 0.0, 0.0, 1.6541566254847999E9, 0.0, 2022-06-02 09:57:05.484
46.0, 24148.377674624644, 264.0411572505423, -74111.992014884, -54307.78763387056, -39071.788081143866, -40346.75393661904, -8971.25261679323, -46780.770633312546, 0.016, 0.782, 0.65, 192.0, 0.0, 0.0, 0.0, 0.0, 0.0, 0.0, 0.0, 0.0, 0.0, 1.654156625484805E9, 0.0, 2022-06-02 09:57:05.484
47.0, 24143.16971816656, 262.7000525832239, -74109.08628810481, -54310.76041588312, -39075.006732345435, -40360.56731469242, -8977.242884307252, -46786.80560431547, 0.014, 0.786, 0.652, 192.0, 0.0, 112.0, 24.0, 144.0, 20.0, 96.0, 0.0, 0.0, 0.0, 1.65415662548481E9, 0.0, 2022-06-02 09:57:05.484
48.0, 24129.62456102664, 260.4872298821485, -74094.73646816451, -54301.864421589904, -39060.746319382946, -40348.69853838665, -8948.587947915548, -46758.82122025743, 0.014, 0.786, 0.652, 192.0, 0.0, 0.0, 0.0, 0.0, 0.0, 0.0, 0.0, 0.0, 0.0, 1.6541566254848154E9, 0.0, 2022-06-02 09:57:05.484
49.0, 24127.5458487923, 271.12666024287466, -74079.40317146816, -54289.79447958404, -39044.094269763744, -40330.280700955474, -8931.175938984865, -46740.93982469319, 0.014, 0.786, 0.652, 192.0, 0.0, 0.0, 0.0, 0.0, 0.0, 0.0, 0.0, 0.0, 0.0, 1.6541566254848204E9, 0.0, 2022-06-02 09:57:05.484
50.0, 24144.44376760051, 280.5590964030142, -74078.19617726757, -54287.29108420505, -39035.04181325934, -40322.85992179631, -8921.162357468887, -46748.11473466334, 0.014, 0.786, 0.652, 192.0, 0.0, 0.0, 0.0, 0.0, 0.0, 0.0, 0.0, 0.0, 0.0, 1.6541566254848256E9, 0.0, 2022-06-02 09:57:05.484
51.0, 24152.378636882146, 277.8545353239221, -74096.52460772093, -54295.49417442014, -39056.119508280695, -40337.38855569226, -8962.960119600311, -46780.770633312546, 0.014, 0.786, 0.652, 192.0, 0.0, 0.0, 0.0, 0.0, 0.0, 0.0, 0.0, 0.0, 0.0, 1.6541566254848309E9, 0.0, 2022-06-02 09:57:05.484
52.0, 24143.527346077844, 267.0809944964641, -74103.43129675763, -54304.21135475771, -39072.57039219981, -40351.8724860993, -8976.237055806763, -46773.416909386746, 0.014, 0.786, 0.652, 192.0, 0.0, 0.0, 0.0, 0.0, 0.0, 0.0, 0.0, 0.0, 0.0, 1.654156625484836E9, 0.0, 2022-06-02 09:57:05.484
53.0, 24164.649744588107, 287.1305092728745, -74071.24478474198, -54276.718709077686, -39051.15742101162, -40334.30401495743, -8948.34207872654, -46751.333385864906, 0.014, 0.786, 0.652, 192.0, 0.0, 0.0, 0.0, 0.0, 0.0, 0.0, 0.0, 0.0, 0.0, 1.654156625484841E9, 0.0, 2022-06-02 09:57:05.484
54.0, 24153.49622410491, 282.3248842149835, -74067.62380214022, -54274.93056952126, -39044.58600814176, -40330.10188699984, -8938.082628021553, -46750.70753702016, 0.014, 0.786, 0.652, 192.0, 0.0, 0.0, 0.0, 0.0, 0.0, 0.0, 0.0, 0.0, 0.0, 1.6541566254848464E9, 0.0, 2022-06-02 09:57:05.484
55.0, 24143.706160033486, 275.3511399449277, -74084.5887761818, -54283.93832253675, -39048.1175837657, -40329.07370675489, -8951.024288061177, -46747.04185092948, 0.014, 0.786, 0.652, 192.0, 0.0, 0.0, 0.0, 0.0, 0.0, 0.0, 0.0, 0.0, 0.0, 1.6541566254848516E9, 0.0, 2022-06-02 09:57:05.484
56.0, 24130.02689242684, 256.8885990248441, -74121.67032023316, -54314.71667465171, -39083.12041558271, -40358.01921582451, -8988.68697746837, -46783.29638043599, 0.014, 0.786, 0.652, 192.0, 0.0, 0.0, 0.0, 0.0, 0.0, 0.0, 0.0, 0.0, 0.0, 1.6541566254848568E9, 0.0, 2022-06-02 09:57:05.484
57.0, 24127.52349704784, 254.49696236812622, -74110.5391514944, -54312.61561067291, -39072.86096487772, -40371.45261424215, -8970.738526670757, -46792.25942996257, 0.006, 0.782, 0.648, 192.0, 0.0, 48.0, 24.0, 112.0, 20.0, 64.0, 0.0, 0.0, 0.0, 1.654156625484862E9, 0.0, 2022-06-02 09:57:05.484
58.0, 24135.279552373835, 272.06543350999755, -74080.3419447353, -54282.9101422918, -39048.00582504342, -40338.327328959385, -8940.943651311833, -46744.56080729495, 0.006, 0.782, 0.648, 192.0, 0.0, 0.0, 0.0, 0.0, 0.0, 0.0, 0.0, 0.0, 0.0, 1.654156625484867E9, 0.0, 2022-06-02 09:57:05.484
59.0, 24133.893744217607, 276.7816515900674, -74066.70738061755, -54270.482572374654, -39034.2147987145, -40319.6189188503, -8913.76393005418, -46716.576423236904, 0.006, 0.782, 0.648, 192.0, 0.0, 0.0, 0.0, 0.0, 0.0, 0.0, 0.0, 0.0, 0.0, 1.6541566254848723E9, 0.0, 2022-06-02 09:57:05.484
60.0, 24131.479755816432, 272.2218957211847, -74080.40899996865, -54279.66913934579, -39040.13801099516, -40321.965852018104, -8929.656020361903, -46721.15853085024, 0.006, 0.782, 0.648, 192.0, 0.0, 0.0, 0.0, 0.0, 0.0, 0.0, 0.0, 0.0, 0.0, 1.6541566254848773E9, 0.0, 2022-06-02 09:57:05.484
61.0, 24123.097851645693, 253.08880246744187, -74117.69170972011, -54315.61074442992, -39081.48873823747, -40361.66255017073, -8986.228285578285, -46764.25269416007, 0.006, 0.782, 0.648, 192.0, 0.0, 0.0, 0.0, 0.0, 0.0, 0.0, 0.0, 0.0, 0.0, 1.6541566254848826E9, 0.0, 2022-06-02 09:57:05.484
62.0, 24136.1959738965, 263.81763980598924, -74104.50418049148, -54306.71475013671, -39081.77931091539, -40356.789869879474, -8979.813334919612, -46771.15938319676, 0.006, 0.782, 0.648, 192.0, 0.0, 0.0, 0.0, 0.0, 0.0, 0.0, 0.0, 0.0, 0.0, 1.6541566254848878E9, 0.0, 2022-06-02 09:57:05.484
63.0, 24145.226078656447, 272.2889509545506, -74080.87838660221, -54285.4135376708, -39054.42077570209, -40333.63346262377, -8926.81734881608, -46725.047734385465, 0.006, 0.782, 0.648, 192.0, 0.0, 0.0, 0.0, 0.0, 0.0, 0.0, 0.0, 0.0, 0.0, 1.654156625484893E9, 0.0, 2022-06-02 09:57:05.484
64.0, 24147.550660079796, 284.5153551716036, -74063.10874976024, -54263.285310660045, -39039.73567959496, -40317.1155234713, -8929.052523261611, -46732.15558912225, 0.006, 0.782, 0.648, 192.0, 0.0, 0.0, 0.0, 0.0, 0.0, 0.0, 0.0, 0.0, 0.0, 1.6541566254849005E9, 0.0, 2022-06-02 09:57:05.484
65.0, 24145.963686223473, 277.1616312458076, -74079.5372819349, -54269.4096886408, -39050.26335123341, -40321.25059619553, -8945.570462414082, -46753.6356155438, 0.006, 0.782, 0.648, 192.0, 0.0, 0.0, 0.0, 0.0, 0.0, 0.0, 0.0, 0.0, 0.0, 1.6541566254849055E9, 0.0, 2022-06-02 09:57:05.484
66.0, 24151.73043629294, 275.1276225003746, -74091.92014836313, -54277.00928175561, -39059.58402867127, -40327.442029409656, -8947.000974059221, -46752.093345176385, 0.006, 0.782, 0.648, 192.0, 0.0, 0.0, 0.0, 0.0, 0.0, 0.0, 0.0, 0.0, 0.0, 1.6541566254849107E9, 0.0, 2022-06-02 09:57:05.484
67.0, 24148.15415718009, 276.8934103123439, -74084.74523839298, -54278.730366078664, -39053.54905766834, -40339.91430281571, -8941.681258878858, -46763.24686565958, 0.006, 0.788, 0.648, 192.0, 0.0, 48.0, 24.0, 160.0, 20.0, 64.0, 0.0, 0.0, 0.0, 1.654156625484916E9, 0.0, 2022-06-02 09:57:05.484
68.0, 24143.415587355565, 282.9060295708215, -74069.72486611901, -54266.146333950324, -39039.713327850506, -40329.74425908855, -8937.032096032155, -46746.59481604038, 0.006, 0.788, 0.648, 192.0, 0.0, 0.0, 0.0, 0.0, 0.0, 0.0, 0.0, 0.0, 0.0, 1.6541566254849212E9, 0.0, 2022-06-02 09:57:05.484
69.0, 24158.033628229336, 304.81073913702244, -74046.61316235222, -54243.90634821729, -39012.89123450413, -40298.764741273495, -8911.23818293073, -46701.37723700729, 0.006, 0.788, 0.648, 192.0, 0.0, 0.0, 0.0, 0.0, 0.0, 0.0, 0.0, 0.0, 0.0, 1.6541566254849265E9, 0.0, 2022-06-02 09:57:05.484
70.0, 24157.005447984393, 298.7534163896342, -74061.58883113728, -54257.38445012384, -39020.82610378577, -40304.777360531974, -8911.349941653007, -46718.185748837685, 0.006, 0.788, 0.648, 192.0, 0.0, 0.0, 0.0, 0.0, 0.0, 0.0, 0.0, 0.0, 0.0, 1.6541566254849315E9, 0.0, 2022-06-02 09:57:05.484
71.0, 24147.327142635244, 273.18302073276294, -74102.7383926795, -54296.03061628707, -39059.87460134919, -40346.53041917449, -8950.733715383258, -46776.07676697693, 0.006, 0.788, 0.648, 192.0, 0.0, 0.0, 0.0, 0.0, 0.0, 0.0, 0.0, 0.0, 0.0, 1.6541566254849367E9, 0.0, 2022-06-02 09:57:05.484
72.0, 24154.032665971838, 273.49594515513724, -74095.87640713173, -54294.77891859757, -39064.5684676848, -40353.906494844734, -8960.881407365967, -46761.794002269984, 0.006, 0.788, 0.648, 192.0, 0.0, 0.0, 0.0, 0.0, 0.0, 0.0, 0.0, 0.0, 0.0, 1.6541566254849417E9, 0.0, 2022-06-02 09:57:05.484
73.0, 24156.848985773206, 285.0741487829863, -74072.31766847584, -54277.23279920016, -39041.166191240096, -40336.516837658506, -8936.473302420773, -46726.00885939704, 0.006, 0.788, 0.648, 192.0, 0.0, 0.0, 0.0, 0.0, 0.0, 0.0, 0.0, 0.0, 0.0, 1.654156625484947E9, 0.0, 2022-06-02 09:57:05.484
74.0, 24162.906308520593, 307.9176316163101, -74049.0271507534, -54249.31547037548, -39017.07101071728, -40308.890081511745, -8915.328552166051, -46701.15371956274, 0.006, 0.788, 0.648, 192.0, 0.0, 0.0, 0.0, 0.0, 0.0, 0.0, 0.0, 0.0, 0.0, 1.6541566254849522E9, 0.0, 2022-06-02 09:57:05.484
75.0, 24156.625468328653, 301.65914316882413, -74064.5839648943, -54262.100668203915, -39037.00876677141, -40320.781209561974, -8956.098134052532, -46757.480115590115, 0.006, 0.788, 0.648, 192.0, 0.0, 0.0, 0.0, 0.0, 0.0, 0.0, 0.0, 0.0, 0.0, 1.6541566254849572E9, 0.0, 2022-06-02 09:57:05.484
76.0, 24146.276610645844, 274.56882888899196, -74097.84336064379, -54292.096709262936, -39063.38382522867, -40349.79377386496, -8968.145724313943, -46786.87265954884, 0.006, 0.788, 0.648, 192.0, 0.0, 0.0, 0.0, 0.0, 0.0, 0.0, 0.0, 0.0, 0.0, 1.6541566254849625E9, 0.0, 2022-06-02 09:57:05.484
77.0, 24136.374787852146, 262.0071485051094, -74103.07366884634, -54297.617590143396, -39071.855136377235, -40352.43127971068, -8949.370258971485, -46740.984528182096, 0.014, 0.788, 0.646, 192.0, 0.0, 112.0, 24.0, 160.0, 20.0, 48.0, 0.0, 0.0, 0.0, 1.6541566254849677E9, 0.0, 2022-06-02 09:57:05.484
78.0, 24135.883049474127, 264.8234683064781, -74089.12618030622, -54285.45824115971, -39065.26137176292, -40338.46143942612, -8943.9611368133, -46726.12061811932, 0.014, 0.788, 0.646, 192.0, 0.0, 0.0, 0.0, 0.0, 0.0, 0.0, 0.0, 0.0, 0.0, 1.6541566254849727E9, 0.0, 2022-06-02 09:57:05.484
79.0, 24139.43697684252, 283.6659888823019, -74064.89688931667, -54264.760525794096, -39037.14287723814, -40315.17092170369, -8925.520947637671, -46718.14104534877, 0.014, 0.788, 0.646, 192.0, 0.0, 0.0, 0.0, 0.0, 0.0, 0.0, 0.0, 0.0, 0.0, 1.654156625484978E9, 0.0, 2022-06-02 09:57:05.484
80.0, 24128.3952150816, 275.373491689383, -74086.57808143832, -54286.151145237825, -39044.5636563973, -40325.09509624184, -8940.63072688946, -46716.777588936995, 0.014, 0.788, 0.646, 192.0, 0.0, 0.0, 0.0, 0.0, 0.0, 0.0, 0.0, 0.0, 0.0, 1.6541566254849832E9, 0.0, 2022-06-02 09:57:05.484
81.0, 24122.427299312032, 254.4522588792156, -74120.86565743276, -54319.924631109796, -39074.11266256722, -40350.911361087725, -8966.670509179892, -46742.6832607607, 0.014, 0.788, 0.646, 192.0, 0.0, 0.0, 0.0, 0.0, 0.0, 0.0, 0.0, 0.0, 0.0, 1.6541566254849885E9, 0.0, 2022-06-02 09:57:05.484
82.0, 24138.364093108667, 259.8166775484893, -74107.92399739314, -54310.24632576064, -39071.20693578803, -40354.621750667306, -8959.450895720827, -46754.172057410724, 0.014, 0.788, 0.646, 192.0, 0.0, 0.0, 0.0, 0.0, 0.0, 0.0, 0.0, 0.0, 0.0, 1.6541566254849937E9, 0.0, 2022-06-02 09:57:05.484
83.0, 24155.93256425054, 280.4249859362824, -74074.64224989919, -54286.620531871384, -39046.79883084283, -40337.433259181176, -8947.738581626247, -46741.72213574912, 0.014, 0.788, 0.646, 192.0, 0.0, 0.0, 0.0, 0.0, 0.0, 0.0, 0.0, 0.0, 0.0, 1.6541566254849987E9, 0.0, 2022-06-02 09:57:05.484
84.0, 24148.891764747117, 283.06249178200864, -74073.39055220969, -54287.38049118286, -39044.943636053045, -40336.11450625831, -8955.025250318677, -46752.652138787766, 0.014, 0.788, 0.646, 192.0, 0.0, 0.0, 0.0, 0.0, 0.0, 0.0, 0.0, 0.0, 0.0, 1.654156625485004E9, 0.0, 2022-06-02 09:57:05.485
85.0, 24140.73337802093, 270.1878869757518, -74093.99886059748, -54302.8702500904, -39063.2720665064, -40339.668433626706, -8975.924131384389, -46761.88340924781, 0.014, 0.788, 0.646, 192.0, 0.0, 0.0, 0.0, 0.0, 0.0, 0.0, 0.0, 0.0, 0.0, 1.65415662548501E9, 0.0, 2022-06-02 09:57:05.485
86.0, 24143.482642588933, 267.5056776411149, -74106.9405206371, -54319.008209587126, -39078.001866102444, -40359.092099558366, -8984.417794277406, -46797.534441654025, 0.014, 0.788, 0.646, 192.0, 0.0, 0.0, 0.0, 0.0, 0.0, 0.0, 0.0, 0.0, 0.0, 1.654156625485017E9, 0.0, 2022-06-02 09:57:05.485
87.0, 24152.244526415412, 274.52412540008135, -74097.17280831013, -54313.71084615122, -39068.144746797654, -40366.781099650994, -8968.570407458594, -46783.72106358064, 0.016, 0.78, 0.65, 192.0, 0.0, 128.0, 24.0, 96.0, 20.0, 80.0, 0.0, 0.0, 0.0, 1.6541566254850223E9, 0.0, 2022-06-02 09:57:05.485
88.0, 24149.33879963622, 277.7427766016456, -74078.82202611232, -54294.86832557539, -39046.95529305402, -40339.0202330375, -8921.497633635716, -46704.417074253215, 0.016, 0.78, 0.65, 192.0, 0.0, 0.0, 0.0, 0.0, 0.0, 0.0, 0.0, 0.0, 0.0, 1.6541566254850273E9, 0.0, 2022-06-02 09:57:05.485
89.0, 24156.647820073107, 291.9361343307655, -74060.04656076987, -54280.60791261291, -39030.03502250135, -40327.03969800946, -8907.147813695408, -46710.25087955605, 0.016, 0.78, 0.65, 192.0, 0.0, 0.0, 0.0, 0.0, 0.0, 0.0, 0.0, 0.0, 0.0, 1.6541566254850328E9, 0.0, 2022-06-02 09:57:05.485
90.0, 24151.26104965938, 287.6669511398019, -74076.989183067, -54291.09088076245, -39040.20506622852, -40337.65677662573, -8921.274116191164, -46745.25371137306, 0.016, 0.78, 0.65, 192.0, 0.0, 0.0, 0.0, 0.0, 0.0, 0.0, 0.0, 0.0, 0.0, 1.654156625485038E9, 0.0, 2022-06-02 09:57:05.485
91.0, 24145.091968189714, 270.5231631425814, -74107.90164564869, -54313.196756028745, -39069.552906698336, -40361.93077110419, -8968.123372569487, -46787.69967409369, 0.016, 0.78, 0.65, 192.0, 0.0, 0.0, 0.0, 0.0, 0.0, 0.0, 0.0, 0.0, 0.0, 1.6541566254850433E9, 0.0, 2022-06-02 09:57:05.485
92.0, 24143.59440131121, 262.7000525832239, -74115.0989073633, -54320.63988693236, -39077.800700402346, -40383.835480670394, -8976.505276740227, -46801.15542425578, 0.016, 0.78, 0.65, 192.0, 0.0, 0.0, 0.0, 0.0, 0.0, 0.0, 0.0, 0.0, 0.0, 1.654156625485051E9, 0.0, 2022-06-02 09:57:05.485
93.0, 24149.472910102955, 270.6125701204026, -74090.80256114037, -54296.83527908746, -39059.87460134919, -40353.10183204435, -8942.552976912615, -46732.71438273363, 0.016, 0.78, 0.65, 192.0, 0.0, 0.0, 0.0, 0.0, 0.0, 0.0, 0.0, 0.0, 0.0, 1.6541566254850562E9, 0.0, 2022-06-02 09:57:05.485
94.0, 24147.327142635244, 275.46289866720423, -74081.59364242478, -54289.95094179523, -39054.89016233566, -40338.90847431523, -8953.237110762253, -46731.954423422154, 0.016, 0.78, 0.65, 192.0, 0.0, 0.0, 0.0, 0.0, 0.0, 0.0, 0.0, 0.0, 0.0, 1.6541566254850612E9, 0.0, 2022-06-02 09:57:05.485
95.0, 24150.434035114533, 283.598933648936, -74090.93667160711, -54295.427119186774, -39064.92609559609, -40341.70244237214, -8982.16026808742, -46772.27697041952, 0.016, 0.78, 0.65, 192.0, 0.0, 0.0, 0.0, 0.0, 0.0, 0.0, 0.0, 0.0, 0.0, 1.6541566254850667E9, 0.0, 2022-06-02 09:57:05.485
96.0, 24135.97245645195, 265.8516485514222, -74117.244674831, -54321.55630845503, -39087.43430226258, -40361.394329237264, -8984.820125677601, -46780.30124667898, 0.01, 0.778, 0.644, 192.0, 0.0, 80.0, 24.0, 80.0, 20.0, 32.0, 0.0, 0.0, 0.0, 1.654156625485072E9, 0.0, 2022-06-02 09:57:05.485
97.0, 24140.643971043108, 265.471668895682, -74106.38172702571, -54321.98099159968, -39080.661723692625, -40364.680035672194, -8956.053430563621, -46755.87078998933, 0.01, 0.778, 0.644, 192.0, 0.0, 0.0, 0.0, 0.0, 0.0, 0.0, 0.0, 0.0, 0.0, 1.654156625485077E9, 0.0, 2022-06-02 09:57:05.485
98.0, 24143.750863522397, 270.9478462872322, -74094.95998560906, -54309.97810482718, -39065.06020606282, -40349.95023607615, -8948.319726982085, -46716.39760928126, 0.01, 0.778, 0.644, 192.0, 0.0, 0.0, 0.0, 0.0, 0.0, 0.0, 0.0, 0.0, 0.0, 1.6541566254850821E9, 0.0, 2022-06-02 09:57:05.485
99.0, 24140.44280534301, 272.87009631038865, -74080.65486915766, -54303.7196163797, -39056.745357125445, -40344.831686595884, -8950.57725317207, -46752.96506321014, 0.01, 0.778, 0.644, 192.0, 0.0, 0.0, 0.0, 0.0, 0.0, 0.0, 0.0, 0.0, 0.0, 1.6541566254850874E9, 0.0, 2022-06-02 09:57:05.485
100.0, 24144.689636789517, 277.69807311273496, -74084.45466571506, -54307.58646817046, -39056.58889491426, -40341.63538713878, -8959.450895720827, -46782.916400780254, 0.01, 0.778, 0.644, 192.0, 0.0, 0.0, 0.0, 0.0, 0.0, 0.0, 0.0, 0.0, 0.0, 1.6541566254850926E9, 0.0, 2022-06-02 09:57:05.485
101.0, 24153.518575849364, 274.7699945890897, -74094.84822688678, -54316.28129676358, -39062.82503161729, -40338.23792198156, -8956.947500341834, -46756.54134232299, 0.01, 0.778, 0.644, 192.0, 0.0, 0.0, 0.0, 0.0, 0.0, 0.0, 0.0, 0.0, 0.0, 1.654156625485098E9, 0.0, 2022-06-02 09:57:05.485
102.0, 24164.35917191019, 279.1956399912405, -74083.24767151447, -54310.51454669411, -39062.467403706, -40343.021195295005, -8951.560729928104, -46755.40140335577, 0.01, 0.778, 0.644, 192.0, 0.0, 0.0, 0.0, 0.0, 0.0, 0.0, 0.0, 0.0, 0.0, 1.654156625485103E9, 0.0, 2022-06-02 09:57:05.485
103.0, 24169.07538999026, 290.5056226856259, -74062.32643870432, -54294.08601451946, -39043.893104063645, -40337.61207313682, -8926.95145928281, -46751.78042075401, 0.01, 0.778, 0.644, 192.0, 0.0, 0.0, 0.0, 0.0, 0.0, 0.0, 0.0, 0.0, 0.0, 1.6541566254851081E9, 0.0, 2022-06-02 09:57:05.485
104.0, 24183.335802952744, 306.19654729325146, -74034.9232000021, -54267.42038338428, -39014.50056010492, -40314.09803796984, -8890.495764076206, -46722.231414584094, 0.01, 0.778, 0.644, 192.0, 0.0, 0.0, 0.0, 0.0, 0.0, 0.0, 0.0, 0.0, 0.0, 1.6541566254851136E9, 0.0, 2022-06-02 09:57:05.485
105.0, 24175.915023793583, 296.87586985538843, -74053.13987173318, -54277.32220617798, -39025.67643233257, -40306.63255532176, -8899.27999964714, -46699.656152684234, 0.01, 0.778, 0.644, 192.0, 0.0, 0.0, 0.0, 0.0, 0.0, 0.0, 0.0, 0.0, 0.0, 1.6541566254851189E9, 0.0, 2022-06-02 09:57:05.485
106.0, 24158.570070096266, 274.23355272216236, -74090.66845067363, -54309.59812517144, -39060.27693274939, -40341.1212970163, -8939.423732688872, -46746.05837417345, 0.014, 0.776, 0.644, 192.0, 0.0, 112.0, 24.0, 64.0, 20.0, 32.0, 0.0, 0.0, 0.0, 1.654156625485124E9, 0.0, 2022-06-02 09:57:05.485
107.0, 24161.744017808916, 273.6300556218691, -74085.21462502655, -54305.016017558104, -39061.707444394524, -40354.42058496721, -8955.047602063132, -46759.849400502375, 0.014, 0.776, 0.644, 192.0, 0.0, 0.0, 0.0, 0.0, 0.0, 0.0, 0.0, 0.0, 0.0, 1.6541566254851315E9, 0.0, 2022-06-02 09:57:05.485
108.0, 24162.034590486837, 280.7155586142014, -74060.24772646997, -54285.68175860426, -39038.372223183185, -40338.08145977038, -8936.965040798788, -46733.273176345014, 0.014, 0.776, 0.644, 192.0, 0.0, 0.0, 0.0, 0.0, 0.0, 0.0, 0.0, 0.0, 0.0, 1.6541566254851365E9, 0.0, 2022-06-02 09:57:05.485
109.0, 24146.656590301587, 273.0489102660311, -74060.91827880363, -54282.440755658245, -39034.81829581479, -40331.59945387834, -8942.307107723607, -46730.61331875483, 0.014, 0.776, 0.644, 192.0, 0.0, 0.0, 0.0, 0.0, 0.0, 0.0, 0.0, 0.0, 0.0, 1.6541566254851418E9, 0.0, 2022-06-02 09:57:05.485
110.0, 24146.88010774614, 269.3385206864501, -74072.36237196474, -54283.84891555893, -39043.267255218896, -40332.29235795645, -8949.504369438217, -46748.71823176363, 0.014, 0.776, 0.644, 192.0, 0.0, 0.0, 0.0, 0.0, 0.0, 0.0, 0.0, 0.0, 0.0, 1.654156625485147E9, 0.0, 2022-06-02 09:57:05.485
111.0, 24149.15998568058, 254.8098867905005, -74094.78117165342, -54304.099596035434, -39059.561676926816, -40343.781154606484, -8943.402343201917, -46758.105964434864, 0.014, 0.776, 0.644, 192.0, 0.0, 0.0, 0.0, 0.0, 0.0, 0.0, 0.0, 0.0, 0.0, 1.6541566254851525E9, 0.0, 2022-06-02 09:57:05.485
112.0, 24157.094854962215, 261.6495205938245, -74083.3370784923, -54303.272581490586, -39052.92320882359, -40346.39630870776, -8933.969907041777, -46746.080725917906, 0.014, 0.776, 0.644, 192.0, 0.0, 0.0, 0.0, 0.0, 0.0, 0.0, 0.0, 0.0, 0.0, 1.6541566254851575E9, 0.0, 2022-06-02 09:57:05.485
113.0, 24169.008334756894, 282.3025324705282, -74054.79390082287, -54279.89265679034, -39028.515103878395, -40326.70442184263, -8927.756122083203, -46718.744542449065, 0.014, 0.776, 0.644, 192.0, 0.0, 0.0, 0.0, 0.0, 0.0, 0.0, 0.0, 0.0, 0.0, 1.6541566254851627E9, 0.0, 2022-06-02 09:57:05.485
114.0, 24163.532157365342, 288.58337266246946, -74048.35659841975, -54269.6108543409, -39017.07101071728, -40317.87548278278, -8923.799863314613, -46718.92335640471, 0.014, 0.776, 0.644, 192.0, 0.0, 0.0, 0.0, 0.0, 0.0, 0.0, 0.0, 0.0, 0.0, 1.6541566254851685E9, 0.0, 2022-06-02 09:57:05.485
115.0, 24140.956895465482, 271.14901198732997, -74071.87063358673, -54294.465994175196, -39038.640444116645, -40335.17573299119, -8940.29545072263, -46743.10794390535, 0.014, 0.776, 0.644, 192.0, 0.0, 0.0, 0.0, 0.0, 0.0, 0.0, 0.0, 0.0, 0.0, 1.6541566254851737E9, 0.0, 2022-06-02 09:57:05.485
116.0, 24142.745035021908, 260.66604383779094, -74099.69855543358, -54316.66127641932, -39067.98828458646, -40354.88997160077, -8969.956215614822, -46759.715290035645, 0.012, 0.788, 0.644, 192.0, 0.0, 96.0, 24.0, 160.0, 20.0, 32.0, 0.0, 0.0, 0.0, 1.6541566254851787E9, 0.0, 2022-06-02 09:57:05.485
117.0, 24159.285325918834, 271.01490152059813, -74081.41482846915, -54303.38434021287, -39048.34110121025, -40347.066861041414, -8931.9582500408, -46716.26349881453, 0.012, 0.788, 0.644, 192.0, 0.0, 0.0, 0.0, 0.0, 0.0, 0.0, 0.0, 0.0, 0.0, 1.654156625485184E9, 0.0, 2022-06-02 09:57:05.485
118.0, 24162.07929397575, 283.5765819044807, -74057.63257236869, -54283.491287647645, -39029.18565621205, -40341.74714586105, -8937.34502045453, -46693.8223473814, 0.012, 0.788, 0.644, 192.0, 0.0, 0.0, 0.0, 0.0, 0.0, 0.0, 0.0, 0.0, 0.0, 1.6541566254851892E9, 0.0, 2022-06-02 09:57:05.485
119.0, 24156.826634028752, 285.52118367209243, -74048.53541237538, -54273.32124392048, -39026.74931606642, -40336.65094812524, -8944.207006002309, -46728.69106873168, 0.012, 0.788, 0.644, 192.0, 0.0, 0.0, 0.0, 0.0, 0.0, 0.0, 0.0, 0.0, 0.0, 1.6541566254851944E9, 0.0, 2022-06-02 09:57:05.485
120.0, 24158.435959629533, 291.33263723047224, -74051.84347055477, -54270.4602206302, -39023.39655439813, -40325.944462531144, -8925.05156100411, -46749.47819107511, 0.012, 0.788, 0.644, 192.0, 0.0, 0.0, 0.0, 0.0, 0.0, 0.0, 0.0, 0.0, 0.0, 1.6541566254851997E9, 0.0, 2022-06-02 09:57:05.485
121.0, 24152.22217467096, 277.00516903462045, -74084.43231397061, -54298.77988085507, -39046.77647909838, -40358.957989091636, -8943.067067035088, -46797.15446199828, 0.012, 0.788, 0.644, 192.0, 0.0, 0.0, 0.0, 0.0, 0.0, 0.0, 0.0, 0.0, 0.0, 1.6541566259645734E9, 0.0, 2022-06-02 09:57:05.964
122.0, 24148.847061258206, 262.7000525832239, -74102.31370953485, -54317.398883986345, -39075.49847072345, -40378.739282934584, -8986.720023956303, -46789.6442758613, 0.012, 0.788, 0.644, 192.0, 0.0, 0.0, 0.0, 0.0, 0.0, 0.0, 0.0, 0.0, 0.0, 1.6541566259648674E9, 0.0, 2022-06-02 09:57:05.964
123.0, 24153.339761893723, 279.97795104717625, -74072.47413068701, -54284.49711614813, -39049.481040177474, -40345.27872148499, -8951.24780550573, -46726.858225686345, 0.012, 0.788, 0.644, 192.0, 0.0, 0.0, 0.0, 0.0, 0.0, 0.0, 0.0, 0.0, 0.0, 1.6541566259648733E9, 0.0, 2022-06-02 09:57:05.964
124.0, 24139.839308242717, 278.7486051021344, -74058.32547644681, -54267.15216245082, -39031.376127168674, -40320.781209561974, -8924.805691815101, -46701.131367818285, 0.012, 0.788, 0.644, 192.0, 0.0, 0.0, 0.0, 0.0, 0.0, 0.0, 0.0, 0.0, 0.0, 1.6541566259648788E9, 0.0, 2022-06-02 09:57:05.964
125.0, 24137.715892519464, 276.9157620567992, -74065.61214513924, -54272.62833984236, -39030.90674053511, -40317.18257870467, -8920.603563857505, -46708.14981557725, 0.012, 0.788, 0.644, 192.0, 0.0, 0.0, 0.0, 0.0, 0.0, 0.0, 0.0, 0.0, 0.0, 1.6541566259648843E9, 0.0, 2022-06-02 09:57:05.964
126.0, 24134.92192446255, 260.2413606931401, -74102.04548860139, -54311.69918915024, -39068.74824389795, -40355.06878555641, -8975.410041261917, -46781.55294436848, 0.016, 0.778, 0.636, 192.0, 0.0, 128.0, 24.0, 80.0, 19.0, 224.0, 0.0, 0.0, 0.0, 1.65415662596489E9, 0.0, 2022-06-02 09:57:05.964
127.0, 24153.63033457164, 269.8526108089222, -74092.09896231878, -54307.63117165938, -39064.41200547362, -40364.277704272, -8971.67729993788, -46781.88822053531, 0.016, 0.778, 0.636, 192.0, 0.0, 0.0, 0.0, 0.0, 0.0, 0.0, 0.0, 0.0, 0.0, 1.6541566259648952E9, 0.0, 2022-06-02 09:57:05.964
128.0, 24151.417511870564, 274.23355272216236, -74078.44204645659, -54296.81292734301, -39046.329444209274, -40355.71698614561, -8945.168131013887, -46765.41498487175, 0.016, 0.778, 0.636, 192.0, 0.0, 0.0, 0.0, 0.0, 0.0, 0.0, 0.0, 0.0, 0.0, 1.6541566259649112E9, 0.0, 2022-06-02 09:57:05.964
129.0, 24152.803320026796, 283.82245109348906, -74058.61604912473, -54287.69341560524, -39032.560769624804, -40340.361337704824, -8940.451912933817, -46747.31007186295, 0.016, 0.778, 0.636, 192.0, 0.0, 0.0, 0.0, 0.0, 0.0, 0.0, 0.0, 0.0, 0.0, 1.6541566259649167E9, 0.0, 2022-06-02 09:57:05.964
130.0, 24148.44472985801, 279.37445394688297, -74069.16607250764, -54293.88484881936, -39035.46649640399, -40332.31470970091, -8945.793979858636, -46738.43642931419, 0.016, 0.778, 0.636, 192.0, 0.0, 0.0, 0.0, 0.0, 0.0, 0.0, 0.0, 0.0, 0.0, 1.6541566259649456E9, 0.0, 2022-06-02 09:57:05.964
131.0, 24153.518575849364, 273.22772422167355, -74087.71802040553, -54298.17638375478, -39049.63750238866, -40335.73452660257, -8931.9582500408, -46727.707591975646, 0.016, 0.778, 0.636, 192.0, 0.0, 0.0, 0.0, 0.0, 0.0, 0.0, 0.0, 0.0, 0.0, 1.6541566259649885E9, 0.0, 2022-06-02 09:57:05.964
132.0, 24156.848985773206, 278.8156603355003, -74085.34873549327, -54295.82945058697, -39055.40425245813, -40342.596512150354, -8945.078724036066, -46732.446161800166, 0.016, 0.778, 0.636, 192.0, 0.0, 0.0, 0.0, 0.0, 0.0, 0.0, 0.0, 0.0, 0.0, 1.6541566259650316E9, 0.0, 2022-06-02 09:57:05.965
133.0, 24147.97534322445, 277.8321835794668, -74074.75400862146, -54289.07922376147, -39052.006787300925, -40341.63538713878, -8954.309994496107, -46731.954423422154, 0.016, 0.778, 0.636, 192.0, 0.0, 0.0, 0.0, 0.0, 0.0, 0.0, 0.0, 0.0, 0.0, 1.6541566259650633E9, 0.0, 2022-06-02 09:57:05.965
134.0, 24140.800433254295, 274.9935120336428, -74068.07083702933, -54279.5126771346, -39044.943636053045, -40335.30984345792, -8933.232299474752, -46720.53268200549, 0.016, 0.778, 0.636, 192.0, 0.0, 0.0, 0.0, 0.0, 0.0, 0.0, 0.0, 0.0, 0.0, 1.654156625965089E9, 0.0, 2022-06-02 09:57:05.965
135.0, 24132.753805250384, 265.60577936241384, -74085.16992153763, -54289.12392725038, -39054.91251408011, -40346.10573602984, -8943.223529246276, -46748.651176530264, 0.016, 0.778, 0.636, 192.0, 0.0, 0.0, 0.0, 0.0, 0.0, 0.0, 0.0, 0.0, 0.0, 1.6541566259650965E9, 0.0, 2022-06-02 09:57:05.965
136.0, 24123.29901734579, 247.34440414242795, -74122.85496268928, -54320.23755553217, -39087.03197086239, -40375.252410799556, -8997.046529894655, -46805.35755221338, 0.012, 0.782, 0.64, 192.0, 0.0, 96.0, 24.0, 112.0, 20.0, 0.0, 0.0, 0.0, 0.0, 1.6541566259651022E9, 0.0, 2022-06-02 09:57:05.965
137.0, 24132.82086048375, 253.08880246744187, -74120.53038126593, -54322.24921253315, -39097.31377331183, -40392.150329607764, -9040.855949027056, -46834.63833744983, 0.012, 0.782, 0.64, 192.0, 0.0, 0.0, 0.0, 0.0, 0.0, 0.0, 0.0, 0.0, 0.0, 1.6541566259651077E9, 0.0, 2022-06-02 09:57:05.965
138.0, 24140.86748848766, 267.3715671743831, -74092.21072104106, -54297.0140930431, -39075.49847072345, -40372.726663676105, -9010.636390523481, -46789.59957237239, 0.012, 0.782, 0.64, 192.0, 0.0, 0.0, 0.0, 0.0, 0.0, 0.0, 0.0, 0.0, 0.0, 1.6541566259651127E9, 0.0, 2022-06-02 09:57:05.965
139.0, 24144.689636789517, 276.9157620567992, -74077.27975574491, -54279.24445620114, -39050.799793100334, -40345.59164590736, -8952.790075873147, -46710.228527811596, 0.012, 0.782, 0.64, 192.0, 0.0, 0.0, 0.0, 0.0, 0.0, 0.0, 0.0, 0.0, 0.0, 1.6541566259651184E9, 0.0, 2022-06-02 09:57:05.965
140.0, 24153.295058404812, 285.52118367209243, -74077.39151446719, -54278.17157246728, -39042.551999396324, -40338.12616325929, -8940.921299567379, -46723.214891340125, 0.012, 0.782, 0.64, 192.0, 0.0, 0.0, 0.0, 0.0, 0.0, 0.0, 0.0, 0.0, 0.0, 1.6541566259651484E9, 0.0, 2022-06-02 09:57:05.965
141.0, 24164.649744588107, 282.8836778263662, -74093.59652919728, -54291.64967437383, -39061.72979613898, -40349.83847735387, -8970.447953992838, -46795.098101508396, 0.012, 0.782, 0.64, 192.0, 0.0, 0.0, 0.0, 0.0, 0.0, 0.0, 0.0, 0.0, 0.0, 1.6541566259652057E9, 0.0, 2022-06-02 09:57:05.965
142.0, 24152.132767693136, 266.92453228527694, -74108.66160496016, -54309.86634610491, -39077.28661027987, -40371.13968981978, -8980.819163420101, -46793.37701718533, 0.012, 0.782, 0.64, 192.0, 0.0, 0.0, 0.0, 0.0, 0.0, 0.0, 0.0, 0.0, 0.0, 1.6541566259652643E9, 0.0, 2022-06-02 09:57:05.965
143.0, 24162.146349209113, 291.5785064194806, -74072.71999987603, -54281.45727890221, -39041.27794996237, -40343.579988906386, -8933.791093086134, -46755.04377544449, 0.012, 0.782, 0.64, 192.0, 0.0, 0.0, 0.0, 0.0, 0.0, 0.0, 0.0, 0.0, 0.0, 1.6541566259652956E9, 0.0, 2022-06-02 09:57:05.965
144.0, 24148.35532288019, 287.86811683989964, -74068.51787191843, -54282.48545914715, -39044.34013895275, -40342.238884239065, -8951.314860739096, -46762.62101681483, 0.012, 0.782, 0.64, 192.0, 0.0, 0.0, 0.0, 0.0, 0.0, 0.0, 0.0, 0.0, 0.0, 1.6541566259653008E9, 0.0, 2022-06-02 09:57:05.965
145.0, 24146.790700768317, 278.9050673133215, -74079.87255810172, -54289.52625865058, -39050.24099948895, -40333.141724245754, -8949.8619973495, -46751.26633063154, 0.012, 0.782, 0.64, 192.0, 0.0, 0.0, 0.0, 0.0, 0.0, 0.0, 0.0, 0.0, 0.0, 1.6541566259653063E9, 0.0, 2022-06-02 09:57:05.965
146.0, 24147.908287991082, 272.2665992100953, -74100.8384944008, -54306.066549547504, -39063.0709008063, -40339.98135804908, -8960.546131199138, -46769.147726195784, 0.012, 0.784, 0.648, 192.0, 0.0, 96.0, 24.0, 128.0, 20.0, 64.0, 0.0, 0.0, 0.0, 1.6541566259653115E9, 0.0, 2022-06-02 09:57:05.965
147.0, 24148.511785091378, 272.42306142128245, -74096.41284899865, -54305.865383847406, -39066.267200263406, -40354.66645415622, -8967.788096402657, -46788.5937438719, 0.012, 0.784, 0.648, 192.0, 0.0, 0.0, 0.0, 0.0, 0.0, 0.0, 0.0, 0.0, 0.0, 1.654156625965317E9, 0.0, 2022-06-02 09:57:05.965
148.0, 24152.132767693136, 280.8720208253886, -74076.31863073334, -54290.84501157344, -39045.68124362007, -40340.160172004726, -8948.990279315743, -46757.72598477912, 0.012, 0.784, 0.648, 192.0, 0.0, 0.0, 0.0, 0.0, 0.0, 0.0, 0.0, 0.0, 0.0, 1.6541566259653225E9, 0.0, 2022-06-02 09:57:05.965
149.0, 24141.53804082132, 278.502735913126, -74069.14372076318, -54283.58069462547, -39032.53841788035, -40320.714154328605, -8934.081665764053, -46714.05067611345, 0.012, 0.784, 0.648, 192.0, 0.0, 0.0, 0.0, 0.0, 0.0, 0.0, 0.0, 0.0, 0.0, 1.6541566259653275E9, 0.0, 2022-06-02 09:57:05.965
150.0, 24143.706160033486, 280.33557895846116, -74067.7355608625, -54279.33386317896, -39031.443182402036, -40310.76762804599, -8927.264383705186, -46705.467606242615, 0.012, 0.784, 0.648, 192.0, 0.0, 0.0, 0.0, 0.0, 0.0, 0.0, 0.0, 0.0, 0.0, 1.654156625965336E9, 0.0, 2022-06-02 09:57:05.965
151.0, 24141.649799543597, 262.52123862758145, -74101.8890263902, -54310.35808448292, -39066.6695316636, -40340.18252374918, -8958.467418964794, -46751.22162714263, 0.012, 0.784, 0.648, 192.0, 0.0, 0.0, 0.0, 0.0, 0.0, 0.0, 0.0, 0.0, 0.0, 1.6541566259653413E9, 0.0, 2022-06-02 09:57:05.965
152.0, 24144.689636789517, 262.7000525832239, -74098.80448565538, -54308.21231701521, -39066.893049108156, -40350.53138143199, -8962.311919011107, -46754.93201672221, 0.012, 0.784, 0.648, 192.0, 0.0, 0.0, 0.0, 0.0, 0.0, 0.0, 0.0, 0.0, 0.0, 1.6541566259653468E9, 0.0, 2022-06-02 09:57:05.965
153.0, 24136.933581463527, 265.8292968069669, -74083.20296802557, -54297.394072698844, -39052.92320882359, -40346.1727912632, -8936.987392543244, -46742.795019482975, 0.012, 0.784, 0.648, 192.0, 0.0, 0.0, 0.0, 0.0, 0.0, 0.0, 0.0, 0.0, 0.0, 1.654156625965352E9, 0.0, 2022-06-02 09:57:05.965
154.0, 24131.50210756089, 267.68449159675737, -74070.10484577475, -54288.31926444999, -39037.92518829408, -40335.48865741357, -8915.708531821792, -46727.43937104218, 0.012, 0.784, 0.648, 192.0, 0.0, 0.0, 0.0, 0.0, 0.0, 0.0, 0.0, 0.0, 0.0, 1.6541566259653573E9, 0.0, 2022-06-02 09:57:05.965
155.0, 24141.001598954394, 276.22285797868466, -74065.34392420578, -54275.534066621556, -39036.02529001538, -40326.74912533154, -8938.730828610758, -46741.20804562665, 0.012, 0.784, 0.648, 192.0, 0.0, 0.0, 0.0, 0.0, 0.0, 0.0, 0.0, 0.0, 0.0, 1.6541566259653628E9, 0.0, 2022-06-02 09:57:05.965
156.0, 24136.888877974616, 259.72727057066805, -74098.84918914428, -54303.67491289078, -39068.54707819785, -40353.41475646672, -8992.911457170423, -46781.955275768676, 0.014, 0.782, 0.65, 192.0, 0.0, 112.0, 24.0, 112.0, 20.0, 80.0, 0.0, 0.0, 0.0, 1.6541566259653683E9, 0.0, 2022-06-02 09:57:05.965
157.0, 24140.82278499875, 258.2967589255284, -74098.02217459943, -54307.36295072591, -39064.81433687381, -40366.53523046199, -8978.20400931883, -46772.500487864076, 0.014, 0.782, 0.65, 192.0, 0.0, 0.0, 0.0, 0.0, 0.0, 0.0, 0.0, 0.0, 0.0, 1.6541566259653735E9, 0.0, 2022-06-02 09:57:05.965
158.0, 24144.77904376734, 274.6805876112685, -74070.1271975192, -54287.42519467178, -39033.1642667251, -40356.52164894601, -8941.793017601136, -46762.75512728156, 0.014, 0.782, 0.65, 192.0, 0.0, 0.0, 0.0, 0.0, 0.0, 0.0, 0.0, 0.0, 0.0, 1.6541566259653788E9, 0.0, 2022-06-02 09:57:05.965
159.0, 24155.373770639155, 291.69026514175715, -74037.13602270318, -54257.45150535721, -39004.732847777945, -40328.93959628816, -8908.846546274013, -46716.06233311443, 0.014, 0.782, 0.65, 192.0, 0.0, 0.0, 0.0, 0.0, 0.0, 0.0, 0.0, 0.0, 0.0, 1.6541566259653845E9, 0.0, 2022-06-02 09:57:05.965
160.0, 24157.810110784783, 287.6893028842572, -74050.36825542072, -54259.709031547194, -39011.01368796989, -40313.248671680536, -8922.48111039175, -46702.450120741145, 0.014, 0.782, 0.65, 192.0, 0.0, 0.0, 0.0, 0.0, 0.0, 0.0, 0.0, 0.0, 0.0, 1.6541566259653895E9, 0.0, 2022-06-02 09:57:05.965
161.0, 24143.192069911012, 266.1645729737965, -74089.93084310662, -54294.98008429767, -39043.28960696335, -40335.376898691284, -8956.67927940837, -46766.711386050156, 0.014, 0.782, 0.65, 192.0, 0.0, 0.0, 0.0, 0.0, 0.0, 0.0, 0.0, 0.0, 0.0, 1.654156625965395E9, 0.0, 2022-06-02 09:57:05.965
162.0, 24149.517613591866, 280.35793070291646, -74078.84437785677, -54287.98398828316, -39037.85813306071, -40337.477962670084, -8951.337212483551, -46748.89704571928, 0.014, 0.782, 0.65, 192.0, 0.0, 0.0, 0.0, 0.0, 0.0, 0.0, 0.0, 0.0, 0.0, 1.6541566259654005E9, 0.0, 2022-06-02 09:57:05.965
163.0, 24154.63616307213, 294.372474476394, -74057.67727585761, -54266.61572058388, -39015.95342349451, -40329.252520710535, -8931.846491318523, -46739.95634793715, 0.014, 0.782, 0.65, 192.0, 0.0, 0.0, 0.0, 0.0, 0.0, 0.0, 0.0, 0.0, 0.0, 1.6541566259654057E9, 0.0, 2022-06-02 09:57:05.965
164.0, 24150.948125237006, 293.567811676003, -74042.76866230591, -54259.48551410264, -39003.414094855085, -40321.518817129, -8901.738691537224, -46727.23820534208, 0.014, 0.782, 0.65, 192.0, 0.0, 0.0, 0.0, 0.0, 0.0, 0.0, 0.0, 0.0, 0.0, 1.6541566259654112E9, 0.0, 2022-06-02 09:57:05.965
165.0, 24146.522479834854, 288.98570406266504, -74047.03784549687, -54264.1570286938, -39011.14779843662, -40319.06012523891, -8908.600677085004, -46727.57348150891, 0.014, 0.782, 0.65, 192.0, 0.0, 0.0, 0.0, 0.0, 0.0, 0.0, 0.0, 0.0, 0.0, 1.6541566259654164E9, 0.0, 2022-06-02 09:57:05.965
166.0, 24146.366017623666, 276.17815448977404, -74079.80550286836, -54291.314398207, -39043.334310452265, -40338.88612257077, -8955.069953807588, -46764.185638926705, 0.022, 0.782, 0.654, 192.0, 0.0, 176.0, 24.0, 112.0, 20.0, 112.0, 0.0, 0.0, 0.0, 1.654156625965422E9, 0.0, 2022-06-02 09:57:05.965
167.0, 24142.990904210914, 265.5163723845926, -74087.56155819436, -54299.137508766355, -39050.68803437806, -40346.08338428538, -8943.357639713007, -46738.883464203296, 0.022, 0.782, 0.654, 192.0, 0.0, 0.0, 0.0, 0.0, 0.0, 0.0, 0.0, 0.0, 0.0, 1.6541566259654274E9, 0.0, 2022-06-02 09:57:05.965
168.0, 24142.11918617716, 269.986721275654, -74066.43915968409, -54281.6137411134, -39028.91743527859, -40331.063012011415, -8907.661903817881, -46713.31306854643, 0.022, 0.782, 0.654, 192.0, 0.0, 0.0, 0.0, 0.0, 0.0, 0.0, 0.0, 0.0, 0.0, 1.654156625965433E9, 0.0, 2022-06-02 09:57:05.965
169.0, 24150.79166302582, 290.39386396334936, -74040.19821169355, -54260.625453069864, -39008.39853386862, -40315.55090135943, -8900.218772914264, -46713.60364122435, 0.022, 0.782, 0.654, 192.0, 0.0, 0.0, 0.0, 0.0, 0.0, 0.0, 0.0, 0.0, 0.0, 1.6541566259654381E9, 0.0, 2022-06-02 09:57:05.965
170.0, 24161.11816896417, 299.4910239566593, -74039.86293552673, -54256.222159412166, -39005.96219372299, -40306.72196229958, -8901.202249670298, -46721.31499306142, 0.022, 0.782, 0.654, 192.0, 0.0, 0.0, 0.0, 0.0, 0.0, 0.0, 0.0, 0.0, 0.0, 1.6541566259654436E9, 0.0, 2022-06-02 09:57:05.965
171.0, 24153.563279338276, 278.4803841686707, -74080.85603485776, -54289.34744469493, -39041.14383949564, -40334.08049751288, -8940.541319911637, -46771.517011108044, 0.022, 0.782, 0.654, 192.0, 0.0, 0.0, 0.0, 0.0, 0.0, 0.0, 0.0, 0.0, 0.0, 1.6541566259654512E9, 0.0, 2022-06-02 09:57:05.965
172.0, 24157.49718636241, 279.32975045797235, -74083.35943023676, -54292.588447640956, -39050.330406466775, -40344.898741829245, -8963.474209722783, -46766.979606983616, 0.022, 0.782, 0.654, 192.0, 0.0, 0.0, 0.0, 0.0, 0.0, 0.0, 0.0, 0.0, 0.0, 1.6541566259654565E9, 0.0, 2022-06-02 09:57:05.965
173.0, 24159.531195107844, 284.6718173827908, -74067.66850562913, -54277.053985244514, -39040.182714484064, -40328.38080267677, -8954.958195085312, -46733.16141762274, 0.022, 0.782, 0.654, 192.0, 0.0, 0.0, 0.0, 0.0, 0.0, 0.0, 0.0, 0.0, 0.0, 1.654156625965462E9, 0.0, 2022-06-02 09:57:05.965
174.0, 24133.15613665058, 266.4551456517155, -74077.99501156747, -54289.74977609513, -39051.40329020063, -40342.14947726124, -8953.974718329277, -46748.22649338561, 0.022, 0.782, 0.654, 192.0, 0.0, 0.0, 0.0, 0.0, 0.0, 0.0, 0.0, 0.0, 0.0, 1.6541566259654672E9, 0.0, 2022-06-02 09:57:05.965
175.0, 24133.15613665058, 276.66989286779085, -74078.86672960124, -54288.29691270553, -39047.42467968758, -40337.65677662573, -8950.48784619425, -46746.416002084734, 0.012, 0.78, 0.656, 192.0, 0.0, 96.0, 24.0, 96.0, 20.0, 128.0, 0.0, 0.0, 0.0, 1.6541566259654727E9, 0.0, 2022-06-02 09:57:05.965
176.0, 24131.971494194448, 265.7845933180563, -74109.488619505, -54313.08499730647, -39071.83278463278, -40356.94633209066, -8986.340044300561, -46785.91153453726, 0.012, 0.78, 0.656, 192.0, 0.0, 0.0, 0.0, 0.0, 0.0, 0.0, 0.0, 0.0, 0.0, 1.654156625965478E9, 0.0, 2022-06-02 09:57:05.965
177.0, 24140.196936154003, 265.65048285132445, -74106.5381892369, -54317.06360781952, -39069.552906698336, -40375.07359684391, -8977.846381407546, -46795.50043290859, 0.012, 0.78, 0.656, 192.0, 0.0, 0.0, 0.0, 0.0, 0.0, 0.0, 0.0, 0.0, 0.0, 1.6541566259654834E9, 0.0, 2022-06-02 09:57:05.965
178.0, 24145.337837378724, 274.23355272216236, -74081.95127033607, -54302.06558729, -39053.616112901705, -40358.80152688045, -8949.683183393858, -46761.68224354771, 0.012, 0.78, 0.656, 192.0, 0.0, 0.0, 0.0, 0.0, 0.0, 0.0, 0.0, 0.0, 0.0, 1.654156625965489E9, 0.0, 2022-06-02 09:57:05.965
179.0, 24145.62841005664, 284.6047621494248, -74064.60631663875, -54281.97136902468, -39038.0145952719, -40341.00953829403, -8937.792055343634, -46754.4849818331, 0.012, 0.78, 0.656, 192.0, 0.0, 0.0, 0.0, 0.0, 0.0, 0.0, 0.0, 0.0, 0.0, 1.6541566259654942E9, 0.0, 2022-06-02 09:57:05.965
180.0, 24145.337837378724, 283.2189539931958, -74072.07179928683, -54278.797421312025, -39039.10983075021, -40331.0183085225, -8950.756067127713, -46747.891217218785, 0.012, 0.78, 0.656, 192.0, 0.0, 0.0, 0.0, 0.0, 0.0, 0.0, 0.0, 0.0, 0.0, 1.6541566259655008E9, 0.0, 2022-06-02 09:57:05.965
181.0, 24160.2017474415, 281.83314583696676, -74080.81133136885, -54284.98885452615, -39048.564618654804, -40327.26321545401, -8974.091288339054, -46714.76593193602, 0.012, 0.78, 0.656, 192.0, 0.0, 0.0, 0.0, 0.0, 0.0, 0.0, 0.0, 0.0, 0.0, 1.6541566259655063E9, 0.0, 2022-06-02 09:57:05.965
182.0, 24150.38933162562, 263.3706049168831, -74099.40798275567, -54306.066549547504, -39063.96497058451, -40355.98520707908, -8970.850285393035, -46761.77165052553, 0.012, 0.78, 0.656, 192.0, 0.0, 0.0, 0.0, 0.0, 0.0, 0.0, 0.0, 0.0, 0.0, 1.6541566259655116E9, 0.0, 2022-06-02 09:57:05.965
183.0, 24159.754712552396, 283.9118580713103, -74071.62476439771, -54280.563209124, -39037.47815340497, -40338.617901637306, -8926.9067557939, -46748.98645269709, 0.012, 0.78, 0.656, 192.0, 0.0, 0.0, 0.0, 0.0, 0.0, 0.0, 0.0, 0.0, 0.0, 1.6541566259655173E9, 0.0, 2022-06-02 09:57:05.965
184.0, 24162.63808758713, 297.1440907888521, -74044.95913326254, -54259.66432805829, -39015.28287116085, -40315.55090135943, -8907.930124751345, -46734.30135658996, 0.012, 0.78, 0.656, 192.0, 0.0, 0.0, 0.0, 0.0, 0.0, 0.0, 0.0, 0.0, 0.0, 1.6541566259655223E9, 0.0, 2022-06-02 09:57:05.965
185.0, 24143.929677478038, 277.29574171253944, -74065.94742130607, -54275.109383476905, -39029.140952723144, -40324.44689565264, -8921.519985380171, -46747.22066488513, 0.012, 0.784, 0.648, 192.0, 0.0, 96.0, 24.0, 128.0, 20.0, 64.0, 0.0, 0.0, 0.0, 1.6541566259655278E9, 0.0, 2022-06-02 09:57:05.965
186.0, 24136.173622152048, 251.8594565224, -74108.86277066026, -54310.76041588312, -39068.34591249775, -40350.19610526515, -8968.950387114333, -46781.4411856462, 0.012, 0.784, 0.648, 192.0, 0.0, 0.0, 0.0, 0.0, 0.0, 0.0, 0.0, 0.0, 0.0, 1.6541566259655333E9, 0.0, 2022-06-02 09:57:05.965
187.0, 24147.908287991082, 261.7165758271904, -74105.2864915474, -54308.569944926494, -39070.44697647655, -40357.907457102236, -8975.946483128844, -46780.614171101355, 0.012, 0.784, 0.648, 192.0, 0.0, 0.0, 0.0, 0.0, 0.0, 0.0, 0.0, 0.0, 0.0, 1.6541566259655385E9, 0.0, 2022-06-02 09:57:05.965
188.0, 24155.530232850342, 281.83314583696676, -74075.1339882772, -54278.97623526767, -39042.19437148504, -40339.95900630463, -8946.308069981107, -46755.58021731141, 0.012, 0.784, 0.648, 192.0, 0.0, 0.0, 0.0, 0.0, 0.0, 0.0, 0.0, 0.0, 0.0, 1.6541566259655437E9, 0.0, 2022-06-02 09:57:05.965
189.0, 24142.745035021908, 274.792346333545, -74075.04458129939, -54280.831430057464, -39044.653063375124, -40341.56833190541, -8950.554901427615, -46758.35183362387, 0.012, 0.784, 0.648, 192.0, 0.0, 0.0, 0.0, 0.0, 0.0, 0.0, 0.0, 0.0, 0.0, 1.6541566259655492E9, 0.0, 2022-06-02 09:57:05.965
190.0, 24137.559430308276, 271.1713637317853, -74082.0406773139, -54288.65454061682, -39049.413984944105, -40341.72479411659, -8962.133105055465, -46763.67154880423, 0.012, 0.784, 0.648, 192.0, 0.0, 0.0, 0.0, 0.0, 0.0, 0.0, 0.0, 0.0, 0.0, 1.6541566259655547E9, 0.0, 2022-06-02 09:57:05.965
191.0, 24129.356340093178, 258.78849730354517, -74114.96479689656, -54315.47663396319, -39072.65979917763, -40359.49443095856, -8986.87648616749, -46787.02912176003, 0.012, 0.784, 0.648, 192.0, 0.0, 0.0, 0.0, 0.0, 0.0, 0.0, 0.0, 0.0, 0.0, 1.654156625965561E9, 0.0, 2022-06-02 09:57:05.965
192.0, 24151.864546759673, 265.5163723845926, -74110.91913115015, -54314.64961941834, -39069.8211276318, -40372.436090998184, -8979.835686664068, -46792.3935404293, 0.012, 0.784, 0.648, 192.0, 0.0, 0.0, 0.0, 0.0, 0.0, 0.0, 0.0, 0.0, 0.0, 1.6541566259655683E9, 0.0, 2022-06-02 09:57:05.965
193.0, 24157.74305555142, 275.0382155225534, -74078.39734296767, -54293.66133137481, -39046.217685487, -40357.08044255739, -8951.91835783939, -46759.38001386882, 0.012, 0.784, 0.648, 192.0, 0.0, 0.0, 0.0, 0.0, 0.0, 0.0, 0.0, 0.0, 0.0, 1.654156625965574E9, 0.0, 2022-06-02 09:57:05.965
194.0, 24158.078331718247, 289.8797738408773, -74047.86486004172, -54268.046232229026, -39022.502484619916, -40323.91045378571, -8921.743502824726, -46716.084684858884, 0.012, 0.784, 0.648, 192.0, 0.0, 0.0, 0.0, 0.0, 0.0, 0.0, 0.0, 0.0, 0.0, 1.6541566259655793E9, 0.0, 2022-06-02 09:57:05.965
195.0, 24152.959782237984, 288.49396568464823, -74050.59177286527, -54271.3095869195, -39023.30714742031, -40315.70736357062, -8919.597735357016, -46720.39857153876, 0.012, 0.788, 0.648, 192.0, 0.0, 96.0, 24.0, 160.0, 20.0, 64.0, 0.0, 0.0, 0.0, 1.6541566259655845E9, 0.0, 2022-06-02 09:57:05.965
196.0, 24137.045340185803, 259.03436649255354, -74099.36327926675, -54316.66127641932, -39053.14672626814, -40356.164021034725, -8946.822160103578, -46777.86490653335, 0.012, 0.788, 0.648, 192.0, 0.0, 0.0, 0.0, 0.0, 0.0, 0.0, 0.0, 0.0, 0.0, 1.6541566259655907E9, 0.0, 2022-06-02 09:57:05.965
197.0, 24152.915078749073, 262.9906252611429, -74098.58096821082, -54312.19092752826, -39058.77936587088, -40364.545925205464, -8981.847343665046, -46783.72106358064, 0.012, 0.788, 0.648, 192.0, 0.0, 0.0, 0.0, 0.0, 0.0, 0.0, 0.0, 0.0, 0.0, 1.654156625965596E9, 0.0, 2022-06-02 09:57:05.965
198.0, 24170.103570235202, 282.81662259300026, -74069.61310739674, -54279.80324981252, -39035.086516748255, -40336.82976208088, -8956.142837541442, -46742.90677820525, 0.012, 0.788, 0.648, 192.0, 0.0, 0.0, 0.0, 0.0, 0.0, 0.0, 0.0, 0.0, 0.0, 1.6541566259656017E9, 0.0, 2022-06-02 09:57:05.965
199.0, 24162.25810793139, 284.2918377270505, -74055.17388047861, -54265.56518859449, -39019.82027528528, -40321.78703806246, -8913.518060865172, -46720.82325468341, 0.012, 0.788, 0.648, 192.0, 0.0, 0.0, 0.0, 0.0, 0.0, 0.0, 0.0, 0.0, 0.0, 1.6541566259656067E9, 0.0, 2022-06-02 09:57:05.965
200.0, 24151.909250248584, 281.050834781031, -74068.74138936299, -54276.718709077686, -39036.271159204385, -40333.141724245754, -8947.805636859614, -46759.69293829119, 0.012, 0.788, 0.648, 192.0, 0.0, 0.0, 0.0, 0.0, 0.0, 0.0, 0.0, 0.0, 0.0, 1.6541566259656122E9, 0.0, 2022-06-02 09:57:05.965
201.0, 24161.006410241895, 275.7311196006679, -74095.20585479807, -54296.09767152044, -39052.833801845765, -40337.61207313682, -8970.604416204025, -46755.7366795226, 0.012, 0.788, 0.648, 192.0, 0.0, 0.0, 0.0, 0.0, 0.0, 0.0, 0.0, 0.0, 0.0, 1.6541566259656177E9, 0.0, 2022-06-02 09:57:05.965
202.0, 24159.620602085663, 265.1587444733077, -74099.7879624114, -54305.19483151375, -39057.34885422574, -40350.620788409804, -8951.784247372658, -46717.850472670856, 0.012, 0.788, 0.648, 192.0, 0.0, 0.0, 0.0, 0.0, 0.0, 0.0, 0.0, 0.0, 0.0, 1.654156625965623E9, 0.0, 2022-06-02 09:57:05.965
203.0, 24150.76931128136, 265.7845933180563, -74085.46049421556, -54295.67298837579, -39047.87171457669, -40347.04450929696, -8933.142892496931, -46743.82319972792, 0.012, 0.788, 0.648, 192.0, 0.0, 0.0, 0.0, 0.0, 0.0, 0.0, 0.0, 0.0, 0.0, 1.6541566259656284E9, 0.0, 2022-06-02 09:57:05.965
204.0, 24140.263991387368, 280.0673580249975, -74069.90368007465, -54283.491287647645, -39039.57921738377, -40339.579026648884, -8932.807616330101, -46757.748336523575, 0.012, 0.788, 0.648, 192.0, 0.0, 0.0, 0.0, 0.0, 0.0, 0.0, 0.0, 0.0, 0.0, 1.6541566259656336E9, 0.0, 2022-06-02 09:57:05.965
205.0, 24149.137633936123, 292.6066866644248, -74060.87357531472, -54275.15408696581, -39032.60547311371, -40326.391497420256, -8933.902851808412, -46750.975757953616, 0.01, 0.786, 0.644, 192.0, 0.0, 80.0, 24.0, 144.0, 20.0, 32.0, 0.0, 0.0, 0.0, 1.654156625965639E9, 0.0, 2022-06-02 09:57:05.965
206.0, 24142.92384897755, 270.70197709822384, -74095.38466875372, -54298.668122132796, -39058.82406935979, -40344.45170694014, -8963.362451000507, -46766.64433081679, 0.01, 0.786, 0.644, 192.0, 0.0, 0.0, 0.0, 0.0, 0.0, 0.0, 0.0, 0.0, 0.0, 1.6541566259656444E9, 0.0, 2022-06-02 09:57:05.965
207.0, 24149.11528219167, 270.45610790921546, -74098.84918914428, -54303.473747190685, -39073.196241044556, -40364.277704272, -8988.239942579263, -46782.46936589115, 0.01, 0.786, 0.644, 192.0, 0.0, 0.0, 0.0, 0.0, 0.0, 0.0, 0.0, 0.0, 0.0, 1.65415662596565E9, 0.0, 2022-06-02 09:57:05.965
208.0, 24174.03747725934, 300.6086111794247, -74050.16708972062, -54263.46412461569, -39032.20314171352, -40333.40994517922, -8934.998087286722, -46737.38589732479, 0.01, 0.786, 0.644, 192.0, 0.0, 0.0, 0.0, 0.0, 0.0, 0.0, 0.0, 0.0, 0.0, 1.654156625965655E9, 0.0, 2022-06-02 09:57:05.965
209.0, 24168.06956148977, 300.31803850150567, -74038.29831341485, -54250.768333765074, -39012.06421995929, -40312.71222981361, -8898.497688591206, -46702.450120741145, 0.01, 0.786, 0.644, 192.0, 0.0, 0.0, 0.0, 0.0, 0.0, 0.0, 0.0, 0.0, 0.0, 1.6541566259656608E9, 0.0, 2022-06-02 09:57:05.965
210.0, 24169.92475627956, 298.52989894508113, -74048.02132225291, -54257.22798791266, -39016.24399617243, -40320.6694508397, -8925.588002871038, -46729.6298419988, 0.01, 0.786, 0.644, 192.0, 0.0, 0.0, 0.0, 0.0, 0.0, 0.0, 0.0, 0.0, 0.0, 1.654156625965666E9, 0.0, 2022-06-02 09:57:05.965
211.0, 24174.328049937256, 288.0916342844527, -74070.30601147485, -54277.43396490026, -39035.44414465954, -40337.99205279256, -8953.818256118091, -46763.78330752651, 0.01, 0.786, 0.644, 192.0, 0.0, 0.0, 0.0, 0.0, 0.0, 0.0, 0.0, 0.0, 0.0, 1.6541566259656713E9, 0.0, 2022-06-02 09:57:05.965
212.0, 24167.421360900567, 278.4580324242154, -74083.27002325893, -54290.53208715106, -39042.79786858534, -40354.822916367404, -8952.96888982879, -46759.11179293535, 0.01, 0.786, 0.644, 192.0, 0.0, 0.0, 0.0, 0.0, 0.0, 0.0, 0.0, 0.0, 0.0, 1.6541566259656768E9, 0.0, 2022-06-02 09:57:05.965
213.0, 24154.68086656104, 275.2840847115618, -74076.02805805541, -54290.912066806806, -39048.20699074352, -40359.60618968084, -8958.445067220338, -46772.25461867507, 0.01, 0.786, 0.644, 192.0, 0.0, 0.0, 0.0, 0.0, 0.0, 0.0, 0.0, 0.0, 0.0, 1.6541566259656823E9, 0.0, 2022-06-02 09:57:05.965
214.0, 24135.1454419071, 273.1383172438523, -74070.57423240831, -54282.68662484725, -39046.620016887195, -40347.80446860844, -8952.588910173048, -46751.936882965194, 0.01, 0.786, 0.644, 192.0, 0.0, 0.0, 0.0, 0.0, 0.0, 0.0, 0.0, 0.0, 0.0, 1.6541566259656897E9, 0.0, 2022-06-02 09:57:05.965
215.0, 24131.524459305343, 274.88175331136625, -74074.66460164364, -54283.26777020309, -39045.12245000869, -40338.08145977038, -8955.137009040953, -46748.025327685515, 0.01, 0.784, 0.646, 192.0, 0.0, 80.0, 24.0, 128.0, 20.0, 48.0, 0.0, 0.0, 0.0, 1.654156625965695E9, 0.0, 2022-06-02 09:57:05.965
216.0, 24132.91026746157, 266.34338692943896, -74102.31370953485, -54305.39599721385, -39070.29051426536, -40345.45753544063, -8984.149573343942, -46777.86490653335, 0.01, 0.784, 0.646, 192.0, 0.0, 0.0, 0.0, 0.0, 0.0, 0.0, 0.0, 0.0, 0.0, 1.6541566259657001E9, 0.0, 2022-06-02 09:57:05.965
217.0, 24124.662473757562, 244.9304157412548, -74119.03281438742, -54327.43481724678, -39078.60536320274, -40372.41373925373, -8964.927073112378, -46788.03495026052, 0.01, 0.784, 0.646, 192.0, 0.0, 0.0, 0.0, 0.0, 0.0, 0.0, 0.0, 0.0, 0.0, 1.6541566259657056E9, 0.0, 2022-06-02 09:57:05.965
218.0, 24128.797546481794, 248.86432276538883, -74105.06297410285, -54316.46011071922, -39068.59178168676, -40362.64602692676, -8968.637462691959, -46775.1379937098, 0.01, 0.784, 0.646, 192.0, 0.0, 0.0, 0.0, 0.0, 0.0, 0.0, 0.0, 0.0, 0.0, 1.6541566259657109E9, 0.0, 2022-06-02 09:57:05.965
219.0, 24136.82182274125, 265.65048285132445, -74076.29627898887, -54288.22985747217, -39044.13897325265, -40342.3729947058, -8949.482017693761, -46748.71823176363, 0.01, 0.784, 0.646, 192.0, 0.0, 0.0, 0.0, 0.0, 0.0, 0.0, 0.0, 0.0, 0.0, 1.6541566259657173E9, 0.0, 2022-06-02 09:57:05.965
220.0, 24150.34462813671, 280.469689425193, -74064.27104047193, -54271.13077296386, -39034.460667903506, -40323.4187154077, -8938.507311166204, -46711.16730107872, 0.01, 0.784, 0.646, 192.0, 0.0, 0.0, 0.0, 0.0, 0.0, 0.0, 0.0, 0.0, 0.0, 1.6541566259657247E9, 0.0, 2022-06-02 09:57:05.965
221.0, 24142.96855246646, 262.14125897184124, -74100.36910776724, -54298.51165992161, -39059.22640075999, -40349.95023607615, -8962.982471344767, -46774.333330909416, 0.01, 0.784, 0.646, 192.0, 0.0, 0.0, 0.0, 0.0, 0.0, 0.0, 0.0, 0.0, 0.0, 1.6541566259657302E9, 0.0, 2022-06-02 09:57:05.965
222.0, 24132.26206687237, 251.07714546646423, -74114.2942445629, -54313.2191077732, -39077.39836900215, -40369.1280328188, -8974.806544161624, -46787.14088048231, 0.01, 0.784, 0.646, 192.0, 0.0, 0.0, 0.0, 0.0, 0.0, 0.0, 0.0, 0.0, 0.0, 1.6541566259657357E9, 0.0, 2022-06-02 09:57:05.965
223.0, 24134.16196515107, 268.1762299747741, -74086.39926748267, -54291.98495054066, -39064.523764195896, -40352.587741921874, -8964.547093456638, -46749.18761839719, 0.01, 0.784, 0.646, 192.0, 0.0, 0.0, 0.0, 0.0, 0.0, 0.0, 0.0, 0.0, 0.0, 1.654156625965741E9, 0.0, 2022-06-02 09:57:05.965
224.0, 24131.479755816432, 274.27825621107297, -74069.16607250764, -54279.69149109024, -39049.548095410835, -40345.54694241845, -8942.731790868258, -46741.72213574912, 0.01, 0.784, 0.646, 192.0, 0.0, 0.0, 0.0, 0.0, 0.0, 0.0, 0.0, 0.0, 0.0, 1.6541566259657464E9, 0.0, 2022-06-02 09:57:05.965
225.0, 24143.840270500215, 289.4550906962265, -74060.65005787017, -54270.59433109693, -39037.031118515864, -40340.22722723809, -8934.416941930884, -46762.375147625826, 0.01, 0.786, 0.644, 192.0, 0.0, 80.0, 24.0, 144.0, 20.0, 32.0, 0.0, 0.0, 0.0, 1.654156625965752E9, 0.0, 2022-06-02 09:57:05.965
226.0, 24133.91609596206, 272.9818550326652, -74095.31761352034, -54303.87607859088, -39065.50724095193, -40367.205782795645, -8969.553884214627, -46805.983401058125, 0.01, 0.786, 0.644, 192.0, 0.0, 0.0, 0.0, 0.0, 0.0, 0.0, 0.0, 0.0, 0.0, 1.6541566259657571E9, 0.0, 2022-06-02 09:57:05.965
227.0, 24127.232924369924, 255.36868040188318, -74114.0483753739, -54321.80217764404, -39088.03779936288, -40384.70719870415, -8983.076689610087, -46783.07286299144, 0.01, 0.786, 0.644, 192.0, 0.0, 0.0, 0.0, 0.0, 0.0, 0.0, 0.0, 0.0, 0.0, 1.6541566259657624E9, 0.0, 2022-06-02 09:57:05.965
228.0, 24139.906363476082, 269.8749625533775, -74085.6393081712, -54297.528183165574, -39061.68509265007, -40368.59159095187, -8965.798791146135, -46763.51508659305, 0.01, 0.786, 0.644, 192.0, 0.0, 0.0, 0.0, 0.0, 0.0, 0.0, 0.0, 0.0, 0.0, 1.6541566259657683E9, 0.0, 2022-06-02 09:57:05.965
229.0, 24147.617715313165, 289.4774424406818, -74057.11848224622, -54273.25418868711, -39032.80663881381, -40350.03964305397, -8957.528645697672, -46764.69972904918, 0.01, 0.786, 0.644, 192.0, 0.0, 0.0, 0.0, 0.0, 0.0, 0.0, 0.0, 0.0, 0.0, 1.6541566259657738E9, 0.0, 2022-06-02 09:57:05.965
230.0, 24140.77808150984, 278.4803841686707, -74071.60241265326, -54280.11617423489, -39047.62584538768, -40348.251503497544, -8968.615110947503, -46772.075804719425, 0.01, 0.786, 0.644, 192.0, 0.0, 0.0, 0.0, 0.0, 0.0, 0.0, 0.0, 0.0, 0.0, 1.6541566259657793E9, 0.0, 2022-06-02 09:57:05.965
231.0, 24132.48558431692, 251.56888384448098, -74109.55567473837, -54309.709883893716, -39077.800700402346, -40367.38459675129, -8987.658797223425, -46794.20403173018, 0.01, 0.786, 0.644, 192.0, 0.0, 0.0, 0.0, 0.0, 0.0, 0.0, 0.0, 0.0, 0.0, 1.6541566259657845E9, 0.0, 2022-06-02 09:57:05.965
232.0, 24130.87625871614, 249.80309603251175, -74108.95217763809, -54314.42610197379, -39072.10100556624, -40377.88991664528, -8976.259407551219, -46795.61219163087, 0.01, 0.786, 0.644, 192.0, 0.0, 0.0, 0.0, 0.0, 0.0, 0.0, 0.0, 0.0, 0.0, 1.65415662596579E9, 0.0, 2022-06-02 09:57:05.965
233.0, 24139.72754952044, 270.03142476456463, -74081.99597382497, -54284.92179929278, -39044.07191801929, -40346.932750574684, -8946.308069981107, -46755.647272544775, 0.01, 0.786, 0.644, 192.0, 0.0, 0.0, 0.0, 0.0, 0.0, 0.0, 0.0, 0.0, 0.0, 1.6541566259657953E9, 0.0, 2022-06-02 09:57:05.965
234.0, 24140.800433254295, 272.7583375881121, -74068.5849271518, -54273.65652008731, -39037.187580727055, -40333.40994517922, -8945.034020547155, -46747.466534074134, 0.01, 0.786, 0.644, 192.0, 0.0, 0.0, 0.0, 0.0, 0.0, 0.0, 0.0, 0.0, 0.0, 1.6541566259658008E9, 0.0, 2022-06-02 09:57:05.965
235.0, 24136.464194829965, 268.0421195080423, -74076.7880173669, -54280.809078313, -39046.50825816492, -40334.75104984654, -8971.096154582043, -46775.786194299006, 0.01, 0.782, 0.644, 192.0, 0.0, 80.0, 24.0, 112.0, 20.0, 32.0, 0.0, 0.0, 0.0, 1.6541566259658084E9, 0.0, 2022-06-02 09:57:05.965
236.0, 24128.126994148137, 259.9060845263105, -74105.33119503633, -54301.48444193417, -39063.89791535115, -40342.954140061636, -8988.664625723914, -46799.45669167718, 0.01, 0.782, 0.644, 192.0, 0.0, 0.0, 0.0, 0.0, 0.0, 0.0, 0.0, 0.0, 0.0, 1.654156625965814E9, 0.0, 2022-06-02 09:57:05.965
237.0, 24125.377729580134, 256.8215437914782, -74111.90260790619, -54309.4193112158, -39070.98341834348, -40356.83457336838, -8981.959102387322, -46788.81726131645, 0.01, 0.782, 0.644, 192.0, 0.0, 0.0, 0.0, 0.0, 0.0, 0.0, 0.0, 0.0, 0.0, 1.6541566259658191E9, 0.0, 2022-06-02 09:57:05.965
238.0, 24132.753805250384, 269.47263115318196, -74089.39440123968, -54293.92955230827, -39062.04272056135, -40346.709233130125, -8962.691898666848, -46755.91549347824, 0.01, 0.782, 0.644, 192.0, 0.0, 0.0, 0.0, 0.0, 0.0, 0.0, 0.0, 0.0, 0.0, 1.6541566259658246E9, 0.0, 2022-06-02 09:57:05.965
239.0, 24141.53804082132, 280.82731733647796, -74068.07083702933, -54273.18713345375, -39039.08747900576, -40326.235035209065, -8915.663828332881, -46714.05067611345, 0.01, 0.782, 0.644, 192.0, 0.0, 0.0, 0.0, 0.0, 0.0, 0.0, 0.0, 0.0, 0.0, 1.65415662596583E9, 0.0, 2022-06-02 09:57:05.965
240.0, 24141.53804082132, 277.36279694590536, -74065.05335152785, -54268.29210141803, -39028.805676556316, -40322.90462528523, -8907.371331139962, -46718.29750755996, 0.01, 0.782, 0.644, 192.0, 0.0, 0.0, 0.0, 0.0, 0.0, 0.0, 0.0, 0.0, 0.0, 1.654156625965835E9, 0.0, 2022-06-02 09:57:05.965
241.0, 24142.54386932181, 269.5396863865479, -74089.95319485107, -54285.726462093175, -39049.23517098846, -40340.96483480511, -8950.823122361078, -46745.231359628604, 0.01, 0.782, 0.644, 192.0, 0.0, 0.0, 0.0, 0.0, 0.0, 0.0, 0.0, 0.0, 0.0, 1.6541566264450324E9, 0.0, 2022-06-02 09:57:06.445
242.0, 24148.042398457816, 273.58535213295846, -74088.03094482791, -54289.302741206026, -39059.09229029325, -40359.40502398074, -8962.982471344767, -46794.8969358083, 0.01, 0.782, 0.644, 192.0, 0.0, 0.0, 0.0, 0.0, 0.0, 0.0, 0.0, 0.0, 0.0, 1.6541566264451668E9, 0.0, 2022-06-02 09:57:06.445
243.0, 24148.73530253593, 279.4862126691595, -74071.35654346425, -54274.93056952126, -39045.97181629799, -40346.95510231914, -8935.91450880939, -46763.269217404035, 0.01, 0.782, 0.644, 192.0, 0.0, 0.0, 0.0, 0.0, 0.0, 0.0, 0.0, 0.0, 0.0, 1.6541566264451742E9, 0.0, 2022-06-02 09:57:06.445
244.0, 24144.6002298117, 282.2801807260729, -74060.53829914788, -54263.06179321549, -39030.34794692373, -40337.142686503255, -8924.313953437086, -46740.60454852635, 0.01, 0.782, 0.644, 192.0, 0.0, 0.0, 0.0, 0.0, 0.0, 0.0, 0.0, 0.0, 0.0, 1.6541566264451823E9, 0.0, 2022-06-02 09:57:06.445
245.0, 24147.193032168514, 280.4026341918271, -74062.01351428193, -54264.31349090499, -39025.40821139911, -40335.57806439138, -8933.612279130493, -46751.55690330946, 0.012, 0.784, 0.648, 192.0, 0.0, 96.0, 24.0, 128.0, 20.0, 64.0, 0.0, 0.0, 0.0, 1.6541566264451983E9, 0.0, 2022-06-02 09:57:06.445
246.0, 24148.958819980482, 275.7311196006679, -74082.66652615865, -54278.19392421174, -39038.48398190546, -40328.93959628816, -8947.425657203872, -46741.6327287713, 0.012, 0.784, 0.648, 192.0, 0.0, 0.0, 0.0, 0.0, 0.0, 0.0, 0.0, 0.0, 0.0, 1.6541566264452107E9, 0.0, 2022-06-02 09:57:06.445
247.0, 24148.087101946727, 271.8642678098998, -74091.13783730721, -54288.00634002761, -39057.43826120356, -40348.29620698645, -8978.092250596554, -46752.786249254495, 0.012, 0.784, 0.648, 192.0, 0.0, 0.0, 0.0, 0.0, 0.0, 0.0, 0.0, 0.0, 0.0, 1.6541566264452171E9, 0.0, 2022-06-02 09:57:06.445
248.0, 24137.894706475105, 267.3939189188384, -74081.8842151027, -54281.74785158013, -39047.02234828739, -40355.47111695661, -8952.43244796186, -46753.68031903271, 0.012, 0.784, 0.648, 192.0, 0.0, 0.0, 0.0, 0.0, 0.0, 0.0, 0.0, 0.0, 0.0, 1.654156626445225E9, 0.0, 2022-06-02 09:57:06.445
249.0, 24135.72658726294, 270.81373582050037, -74069.25547948545, -54268.64972932932, -39033.09721149173, -40346.32925347439, -8933.902851808412, -46749.05350793046, 0.012, 0.784, 0.648, 192.0, 0.0, 0.0, 0.0, 0.0, 0.0, 0.0, 0.0, 0.0, 0.0, 1.6541566264452333E9, 0.0, 2022-06-02 09:57:06.445
250.0, 24151.953953737495, 288.3822069623717, -74049.1836129646, -54249.89661573132, -39010.43254261405, -40323.46341889661, -8907.550145095605, -46735.28483334599, 0.012, 0.784, 0.648, 192.0, 0.0, 0.0, 0.0, 0.0, 0.0, 0.0, 0.0, 0.0, 0.0, 1.6541566264452405E9, 0.0, 2022-06-02 09:57:06.445
251.0, 24142.946200722006, 270.9925497761428, -74079.42552321262, -54269.78966829654, -39028.85038004522, -40328.2690439545, -8920.625915601959, -46748.181789896706, 0.012, 0.784, 0.648, 192.0, 0.0, 0.0, 0.0, 0.0, 0.0, 0.0, 0.0, 0.0, 0.0, 1.6541566264452467E9, 0.0, 2022-06-02 09:57:06.445
252.0, 24138.67701753104, 260.9789682601653, -74096.74812516548, -54285.994683026634, -39058.75701412642, -40340.69661387165, -8955.137009040953, -46754.12735392182, 0.012, 0.784, 0.648, 192.0, 0.0, 0.0, 0.0, 0.0, 0.0, 0.0, 0.0, 0.0, 0.0, 1.6541566264452548E9, 0.0, 2022-06-02 09:57:06.445
253.0, 24144.86845074516, 266.4104421628049, -74085.08051455981, -54278.395089911835, -39049.43633668856, -40333.61111087932, -8963.340099256051, -46745.96896719563, 0.012, 0.784, 0.648, 192.0, 0.0, 0.0, 0.0, 0.0, 0.0, 0.0, 0.0, 0.0, 0.0, 1.6541566264452608E9, 0.0, 2022-06-02 09:57:06.445
254.0, 24142.36505536617, 270.07612825347525, -74068.00378179595, -54267.84506652893, -39033.29837719183, -40324.759820075014, -8960.25555852122, -46749.72406026412, 0.012, 0.784, 0.648, 192.0, 0.0, 0.0, 0.0, 0.0, 0.0, 0.0, 0.0, 0.0, 0.0, 1.6541566264452672E9, 0.0, 2022-06-02 09:57:06.445
255.0, 24129.62456102664, 264.599950861925, -74072.6305928982, -54268.78383979605, -39034.99710977043, -40320.64709909524, -8948.900872337923, -46751.78042075401, 0.014, 0.78, 0.65, 192.0, 0.0, 112.0, 24.0, 96.0, 20.0, 80.0, 0.0, 0.0, 0.0, 1.6541566264452739E9, 0.0, 2022-06-02 09:57:06.445
0.0, 24124.72952899093, 250.76422104408994, -74107.87929390423, -54292.52139240759, -39058.26527574841, -40332.64998586774, -8960.412020732407, -46769.706519807165, 0.014, 0.78, 0.65, 192.0, 0.0, 0.0, 0.0, 0.0, 0.0, 0.0, 0.0, 0.0, 0.0, 1.6541566264453244E9, 0.0, 2022-06-02 09:57:06.445
1.0, 24120.795621966794, 238.2919476380286, -74119.90453242118, -54308.77111062659, -39071.87748812169, -40353.302997744446, -8970.447953992838, -46778.20018270018, 0.014, 0.78, 0.65, 192.0, 0.0, 0.0, 0.0, 0.0, 0.0, 0.0, 0.0, 0.0, 0.0, 1.6541566264453304E9, 0.0, 2022-06-02 09:57:06.445
2.0, 24116.213514353458, 240.66123255029115, -74104.7947531694, -54299.38337795537, -39069.463499720514, -40346.731584874586, -8979.411003519417, -46756.02725220052, 0.014, 0.78, 0.65, 192.0, 0.0, 0.0, 0.0, 0.0, 0.0, 0.0, 0.0, 0.0, 0.0, 1.6541566264453363E9, 0.0, 2022-06-02 09:57:06.445
3.0, 24113.59836025219, 249.24430242112905, -74089.43910472859, -54284.29595044803, -39062.981493828476, -40339.444916182154, -8997.940599672866, -46767.02431047253, 0.014, 0.78, 0.65, 192.0, 0.0, 0.0, 0.0, 0.0, 0.0, 0.0, 0.0, 0.0, 0.0, 1.654156626445342E9, 0.0, 2022-06-02 09:57:06.445
4.0, 24108.323348560734, 248.01495647608718, -74095.49642747598, -54285.368834181885, -39055.15838326912, -40344.29524472896, -8956.67927940837, -46763.02334821503, 0.014, 0.78, 0.65, 192.0, 0.0, 0.0, 0.0, 0.0, 0.0, 0.0, 0.0, 0.0, 0.0, 1.6541566264453485E9, 0.0, 2022-06-02 09:57:06.445
5.0, 24116.839363198207, 245.91389249728832, -74107.61107297076, -54291.33674995146, -39057.14768852564, -40343.781154606484, -8934.573404142071, -46720.7785511945, 0.014, 0.78, 0.65, 192.0, 0.0, 0.0, 0.0, 0.0, 0.0, 0.0, 0.0, 0.0, 0.0, 1.654156626445354E9, 0.0, 2022-06-02 09:57:06.445
6.0, 24120.795621966794, 240.214197661185, -74112.66256721766, -54300.813889600504, -39067.451842719536, -40356.54400069046, -8953.706497395813, -46731.954423422154, 0.014, 0.78, 0.65, 192.0, 0.0, 0.0, 0.0, 0.0, 0.0, 0.0, 0.0, 0.0, 0.0, 1.65415662644536E9, 0.0, 2022-06-02 09:57:06.445
7.0, 24126.182392380524, 247.41145937579387, -74098.62567169973, -54291.40380518482, -39055.11367978021, -40354.197067522655, -8967.072840580087, -46776.81437454395, 0.014, 0.78, 0.65, 192.0, 0.0, 0.0, 0.0, 0.0, 0.0, 0.0, 0.0, 0.0, 0.0, 1.654156626445366E9, 0.0, 2022-06-02 09:57:06.445
8.0, 24117.040528898306, 245.71272679719053, -74098.24569204399, -54292.70020636323, -39060.70161589404, -40364.545925205464, -8989.223419335296, -46791.41006367327, 0.02, 0.78, 0.652, 192.0, 0.0, 160.0, 24.0, 96.0, 20.0, 96.0, 0.0, 0.0, 0.0, 1.6541566264453716E9, 0.0, 2022-06-02 09:57:06.445
9.0, 24113.978339907928, 245.3327471414503, -74089.19323553958, -54284.45241265922, -39055.493659435946, -40354.822916367404, -8966.067012079598, -46766.577275583426, 0.02, 0.78, 0.652, 192.0, 0.0, 0.0, 0.0, 0.0, 0.0, 0.0, 0.0, 0.0, 0.0, 1.654156626445377E9, 0.0, 2022-06-02 09:57:06.445
10.0, 24118.73926147691, 243.83518026294476, -74106.18056132563, -54299.33867446645, -39061.841554861254, -40365.70821591714, -8978.516933741204, -46806.832767347434, 0.02, 0.78, 0.652, 192.0, 0.0, 0.0, 0.0, 0.0, 0.0, 0.0, 0.0, 0.0, 0.0, 1.6541566264453833E9, 0.0, 2022-06-02 09:57:06.445
11.0, 24110.402060795077, 227.38429634383874, -74125.44776504609, -54328.68651493627, -39093.13399709869, -40401.180434367714, -9032.228175667307, -46856.6101022494, 0.02, 0.78, 0.652, 192.0, 0.0, 0.0, 0.0, 0.0, 0.0, 0.0, 0.0, 0.0, 0.0, 1.65415662644539E9, 0.0, 2022-06-02 09:57:06.445
12.0, 24109.30682531677, 232.77106675756775, -74109.80154392739, -54319.58935494297, -39079.58883995877, -40387.836442927895, -9008.78119573369, -46810.78902611602, 0.02, 0.78, 0.652, 192.0, 0.0, 0.0, 0.0, 0.0, 0.0, 0.0, 0.0, 0.0, 0.0, 1.654156626445396E9, 0.0, 2022-06-02 09:57:06.445
13.0, 24117.30874983177, 248.4619913651933, -74080.85603485776, -54292.25317147412, -39049.10106052173, -40347.82682035289, -8954.466456707294, -46728.467551287125, 0.02, 0.78, 0.652, 192.0, 0.0, 0.0, 0.0, 0.0, 0.0, 0.0, 0.0, 0.0, 0.0, 1.6541566264454026E9, 0.0, 2022-06-02 09:57:06.445
14.0, 24137.134747163625, 269.8526108089222, -74059.95715379204, -54272.47187763118, -39025.89994977712, -40328.067878254406, -8925.945630782322, -46721.49380701707, 0.02, 0.78, 0.652, 192.0, 0.0, 0.0, 0.0, 0.0, 0.0, 0.0, 0.0, 0.0, 0.0, 1.6541566264454088E9, 0.0, 2022-06-02 09:57:06.445
15.0, 24143.1473664221, 264.48819213964845, -74083.49354070348, -54289.83918307295, -39040.71915635099, -40344.25054124004, -8956.388706730451, -46775.18269719872, 0.02, 0.78, 0.652, 192.0, 0.0, 0.0, 0.0, 0.0, 0.0, 0.0, 0.0, 0.0, 0.0, 1.6541566264454153E9, 0.0, 2022-06-02 09:57:06.445
16.0, 24132.530287805832, 238.89544473832188, -74109.42156427164, -54313.77790138459, -39071.989246843965, -40372.54784972046, -9001.025140407699, -46795.18750848622, 0.02, 0.78, 0.652, 192.0, 0.0, 0.0, 0.0, 0.0, 0.0, 0.0, 0.0, 0.0, 0.0, 1.6541566264454212E9, 0.0, 2022-06-02 09:57:06.445
17.0, 24132.887915717118, 245.891540752833, -74093.32830826382, -54297.12585176538, -39059.718139138, -40361.48373621509, -8980.39448027545, -46766.35375813887, 0.02, 0.78, 0.652, 192.0, 0.0, 0.0, 0.0, 0.0, 0.0, 0.0, 0.0, 0.0, 0.0, 1.6541566264454267E9, 0.0, 2022-06-02 09:57:06.445
18.0, 24113.10662187417, 244.39397387432743, -74084.94640409308, -54287.73811909415, -39054.46547919101, -40356.231076268086, -8969.889160381455, -46764.5879703269, 0.008, 0.778, 0.646, 192.0, 0.0, 64.0, 24.0, 80.0, 20.0, 48.0, 0.0, 0.0, 0.0, 1.6541566264454324E9, 0.0, 2022-06-02 09:57:06.445
19.0, 24120.460345799966, 257.02270949157594, -74066.55091840636, -54272.226008442165, -39032.33725218025, -40339.0202330375, -8938.931994310857, -46748.15943815225, 0.008, 0.778, 0.646, 192.0, 0.0, 0.0, 0.0, 0.0, 0.0, 0.0, 0.0, 0.0, 0.0, 1.6541566264454384E9, 0.0, 2022-06-02 09:57:06.445
20.0, 24121.689691745007, 251.21125593319607, -74088.58973843929, -54288.721595850184, -39049.65985413311, -40342.90943657273, -8959.473247465283, -46772.74635705309, 0.008, 0.778, 0.646, 192.0, 0.0, 0.0, 0.0, 0.0, 0.0, 0.0, 0.0, 0.0, 0.0, 1.6541566264454448E9, 0.0, 2022-06-02 09:57:06.445
21.0, 24123.58959002371, 242.3823168733498, -74105.37589852524, -54303.98783731316, -39075.23024978999, -40365.3282362614, -9004.422605564905, -46796.23804047562, 0.008, 0.778, 0.646, 192.0, 0.0, 0.0, 0.0, 0.0, 0.0, 0.0, 0.0, 0.0, 0.0, 1.6541566264454513E9, 0.0, 2022-06-02 09:57:06.445
22.0, 24132.574991294743, 253.5581891010033, -74082.13008429171, -54284.7653370816, -39049.25752273292, -40350.3749192208, -8956.321651497085, -46756.36252836735, 0.008, 0.778, 0.646, 192.0, 0.0, 0.0, 0.0, 0.0, 0.0, 0.0, 0.0, 0.0, 0.0, 1.6541566264454627E9, 0.0, 2022-06-02 09:57:06.445
23.0, 24134.430186084533, 267.8633055523998, -74062.88523231569, -54271.5107526196, -39029.140952723144, -40339.802544093436, -8933.679334363858, -46748.07003117443, 0.008, 0.778, 0.646, 192.0, 0.0, 0.0, 0.0, 0.0, 0.0, 0.0, 0.0, 0.0, 0.0, 1.654156626445468E9, 0.0, 2022-06-02 09:57:06.445
24.0, 24126.808241225273, 261.2918926825396, -74074.66460164364, -54282.84308705844, -39036.695842349036, -40348.76559362002, -8956.411058474905, -46778.4907553781, 0.008, 0.778, 0.646, 192.0, 0.0, 0.0, 0.0, 0.0, 0.0, 0.0, 0.0, 0.0, 0.0, 1.6541566264454734E9, 0.0, 2022-06-02 09:57:06.445
25.0, 24130.898610460594, 254.0722792234754, -74091.29429951838, -54295.53887790905, -39044.943636053045, -40349.167925020214, -8957.193369530842, -46784.07869149193, 0.008, 0.778, 0.646, 192.0, 0.0, 0.0, 0.0, 0.0, 0.0, 0.0, 0.0, 0.0, 0.0, 1.6541566264454792E9, 0.0, 2022-06-02 09:57:06.445
26.0, 24127.791717981305, 246.58444483094752, -74099.1844653111, -54301.50679367862, -39058.62290365969, -40364.63533218329, -8965.8658463795, -46762.039871459, 0.008, 0.778, 0.646, 192.0, 0.0, 0.0, 0.0, 0.0, 0.0, 0.0, 0.0, 0.0, 0.0, 1.6541566264454846E9, 0.0, 2022-06-02 09:57:06.445
27.0, 24135.77129075185, 261.47070663818204, -74071.02126729743, -54275.77993581056, -39041.166191240096, -40346.53041917449, -8952.454799706316, -46736.89415894677, 0.008, 0.778, 0.646, 192.0, 0.0, 0.0, 0.0, 0.0, 0.0, 0.0, 0.0, 0.0, 0.0, 1.6541566264454908E9, 0.0, 2022-06-02 09:57:06.445
28.0, 24133.2455436284, 266.8351253074557, -74048.31189493083, -54258.56909257998, -39025.87759803267, -40318.99307000555, -8923.464587147784, -46708.08276034388, 0.01, 0.786, 0.646, 192.0, 0.0, 80.0, 24.0, 144.0, 20.0, 48.0, 0.0, 0.0, 0.0, 1.6541566264454963E9, 0.0, 2022-06-02 09:57:06.445
29.0, 24128.551677292788, 265.69518634023507, -74052.26815369942, -54264.44760137172, -39027.82219980028, -40330.146590488745, -8941.904776323412, -46738.86111245884, 0.01, 0.786, 0.646, 192.0, 0.0, 0.0, 0.0, 0.0, 0.0, 0.0, 0.0, 0.0, 0.0, 1.654156626445502E9, 0.0, 2022-06-02 09:57:06.445
30.0, 24136.73241576343, 264.018805506087, -74074.66460164364, -54281.6137411134, -39048.519915165896, -40347.51389593052, -8973.979529616778, -46779.89891527878, 0.01, 0.786, 0.646, 192.0, 0.0, 0.0, 0.0, 0.0, 0.0, 0.0, 0.0, 0.0, 0.0, 1.6541566264455078E9, 0.0, 2022-06-02 09:57:06.445
31.0, 24149.696427547507, 265.7398898291457, -74076.47509294451, -54285.815869071, -39050.173944255585, -40363.0260065825, -8974.20304706133, -46794.27108696355, 0.01, 0.786, 0.646, 192.0, 0.0, 0.0, 0.0, 0.0, 0.0, 0.0, 0.0, 0.0, 0.0, 1.6541566264455135E9, 0.0, 2022-06-02 09:57:06.445
32.0, 24163.800378298805, 280.2238202361846, -74048.8259850533, -54263.017089726585, -39026.57050211078, -40349.100869786846, -8945.682221136358, -46769.34889189588, 0.01, 0.786, 0.646, 192.0, 0.0, 0.0, 0.0, 0.0, 0.0, 0.0, 0.0, 0.0, 0.0, 1.6541566264455197E9, 0.0, 2022-06-02 09:57:06.445
33.0, 24159.575898596755, 282.7048638707237, -74036.19724943605, -54250.74598202062, -39015.88636826115, -40329.34192768836, -8931.131235495954, -46735.731868235096, 0.01, 0.786, 0.646, 192.0, 0.0, 0.0, 0.0, 0.0, 0.0, 0.0, 0.0, 0.0, 0.0, 1.6541566264455256E9, 0.0, 2022-06-02 09:57:06.445
34.0, 24167.175491711558, 283.889506326855, -74035.63845582468, -54248.24258664162, -39006.0068972119, -40318.23311069407, -8912.24401143122, -46716.68818195918, 0.01, 0.786, 0.646, 192.0, 0.0, 0.0, 0.0, 0.0, 0.0, 0.0, 0.0, 0.0, 0.0, 1.654156626445532E9, 0.0, 2022-06-02 09:57:06.445
35.0, 24160.58172709724, 266.29868344052835, -74072.25061324246, -54280.07147074598, -39035.75706908191, -40340.003709793535, -8947.112732781497, -46768.812450028956, 0.01, 0.786, 0.646, 192.0, 0.0, 0.0, 0.0, 0.0, 0.0, 0.0, 0.0, 0.0, 0.0, 1.654156626445538E9, 0.0, 2022-06-02 09:57:06.445
36.0, 24145.114319934168, 255.1004594684195, -74085.77341863792, -54297.818755843495, -39064.83668861827, -40363.47304147161, -8989.871619924501, -46796.93094455373, 0.01, 0.786, 0.646, 192.0, 0.0, 0.0, 0.0, 0.0, 0.0, 0.0, 0.0, 0.0, 0.0, 1.6541566264455438E9, 0.0, 2022-06-02 09:57:06.445
37.0, 24148.511785091378, 267.34921542992777, -74060.00185728096, -54276.24932244412, -39040.49563890644, -40338.752012104036, -8963.25069227823, -46756.63074930081, 0.01, 0.786, 0.646, 192.0, 0.0, 0.0, 0.0, 0.0, 0.0, 0.0, 0.0, 0.0, 0.0, 1.6541566264455495E9, 0.0, 2022-06-02 09:57:06.445
38.0, 24135.257200629378, 263.81763980598924, -74052.93870603308, -54272.67304333128, -39028.53745562285, -40329.34192768836, -8934.305183208608, -46730.23333909909, 0.016, 0.78, 0.646, 192.0, 0.0, 128.0, 24.0, 96.0, 20.0, 48.0, 0.0, 0.0, 0.0, 1.6541566264455552E9, 0.0, 2022-06-02 09:57:06.445
39.0, 24133.2455436284, 263.12473572787474, -74061.36531369273, -54276.89752303333, -39037.455801660515, -40333.74522134605, -8958.19919803133, -46754.30616787746, 0.016, 0.78, 0.646, 192.0, 0.0, 0.0, 0.0, 0.0, 0.0, 0.0, 0.0, 0.0, 0.0, 1.654156626445561E9, 0.0, 2022-06-02 09:57:06.445
40.0, 24142.2980001328, 259.4590496372044, -74085.28168025991, -54293.057834274514, -39052.140897767655, -40346.150439518744, -8987.927018156888, -46793.6452381188, 0.016, 0.78, 0.646, 192.0, 0.0, 0.0, 0.0, 0.0, 0.0, 0.0, 0.0, 0.0, 0.0, 1.6541566264455664E9, 0.0, 2022-06-02 09:57:06.445
41.0, 24160.87229977516, 267.68449159675737, -74082.30889824736, -54293.10253776342, -39046.95529305402, -40348.385613964274, -8973.353680772028, -46777.462575133155, 0.016, 0.78, 0.646, 192.0, 0.0, 0.0, 0.0, 0.0, 0.0, 0.0, 0.0, 0.0, 0.0, 1.654156626445572E9, 0.0, 2022-06-02 09:57:06.445
42.0, 24154.72557004995, 259.41434614829376, -74082.37595348072, -54297.17055525429, -39049.34692971074, -40356.11931754581, -8977.91343664091, -46770.22060992964, 0.016, 0.78, 0.646, 192.0, 0.0, 0.0, 0.0, 0.0, 0.0, 0.0, 0.0, 0.0, 0.0, 1.6541566264455771E9, 0.0, 2022-06-02 09:57:06.445
43.0, 24155.038494472326, 264.17526771727415, -74067.28852597339, -54282.016072513594, -39044.89893256413, -40347.8715238418, -8966.20112254633, -46758.26242664605, 0.016, 0.78, 0.646, 192.0, 0.0, 0.0, 0.0, 0.0, 0.0, 0.0, 0.0, 0.0, 0.0, 1.654156626445586E9, 0.0, 2022-06-02 09:57:06.445
44.0, 24156.49135786192, 267.1927532187406, -74064.27104047193, -54276.87517128887, -39029.00684225641, -40341.59068364986, -8921.05059874661, -46744.56080729495, 0.016, 0.78, 0.646, 192.0, 0.0, 0.0, 0.0, 0.0, 0.0, 0.0, 0.0, 0.0, 0.0, 1.6541566264455912E9, 0.0, 2022-06-02 09:57:06.445
45.0, 24140.77808150984, 252.5300088560592, -74097.17280831013, -54304.63603790236, -39055.270141991394, -40368.390425251775, -8962.736602155757, -46796.30509570898, 0.016, 0.78, 0.646, 192.0, 0.0, 0.0, 0.0, 0.0, 0.0, 0.0, 0.0, 0.0, 0.0, 1.6541566264455965E9, 0.0, 2022-06-02 09:57:06.445
46.0, 24127.09881390319, 244.05869770749783, -74107.56636948185, -54326.38428525738, -39074.89497362316, -40401.9850971681, -9000.466346796316, -46824.31183151148, 0.016, 0.78, 0.646, 192.0, 0.0, 0.0, 0.0, 0.0, 0.0, 0.0, 0.0, 0.0, 0.0, 1.654156626445602E9, 0.0, 2022-06-02 09:57:06.445
47.0, 24130.786851738318, 248.1267151983637, -74087.56155819436, -54313.77790138459, -39062.422700217096, -40391.725646463114, -8978.226361063285, -46760.54230458049, 0.016, 0.78, 0.646, 192.0, 0.0, 0.0, 0.0, 0.0, 0.0, 0.0, 0.0, 0.0, 0.0, 1.6541566264456074E9, 0.0, 2022-06-02 09:57:06.445
48.0, 24151.64102931512, 272.11013699890816, -74050.480014143, -54278.372738167374, -39036.405269671115, -40357.28160825749, -8958.802695131624, -46760.09526969138, 0.014, 0.786, 0.648, 192.0, 0.0, 112.0, 24.0, 144.0, 20.0, 64.0, 0.0, 0.0, 0.0, 1.654156626445613E9, 0.0, 2022-06-02 09:57:06.445
49.0, 24143.482642588933, 264.44348865073783, -74052.26815369942, -54280.138525979346, -39039.08747900576, -40349.14557327575, -8958.48977070925, -46749.16526665274, 0.014, 0.786, 0.648, 192.0, 0.0, 0.0, 0.0, 0.0, 0.0, 0.0, 0.0, 0.0, 0.0, 1.654156626445618E9, 0.0, 2022-06-02 09:57:06.445
50.0, 24145.136671678625, 254.87694202386643, -74075.7821888664, -54298.55636341052, -39056.96887457, -40357.192201279664, -8968.995090603245, -46760.94463598068, 0.014, 0.786, 0.648, 192.0, 0.0, 0.0, 0.0, 0.0, 0.0, 0.0, 0.0, 0.0, 0.0, 1.6541566264456232E9, 0.0, 2022-06-02 09:57:06.445
51.0, 24140.06282568727, 243.4328488627492, -74095.54113096489, -54321.243384032656, -39083.455691749536, -40385.71302720464, -9011.239887623775, -46793.824052074444, 0.014, 0.786, 0.648, 192.0, 0.0, 0.0, 0.0, 0.0, 0.0, 0.0, 0.0, 0.0, 0.0, 1.6541566264456284E9, 0.0, 2022-06-02 09:57:06.445
52.0, 24142.610924555174, 252.8429332784335, -74075.91629933314, -54304.14429952435, -39068.860002620226, -40383.209631825644, -9011.30694285714, -46798.60732538788, 0.014, 0.786, 0.648, 192.0, 0.0, 0.0, 0.0, 0.0, 0.0, 0.0, 0.0, 0.0, 0.0, 1.6541566264456336E9, 0.0, 2022-06-02 09:57:06.445
53.0, 24142.409758855076, 259.74962231512336, -74056.82790956831, -54288.74394759464, -39042.06026101831, -40370.1785648082, -8972.660776693914, -46783.02815950253, 0.014, 0.786, 0.648, 192.0, 0.0, 0.0, 0.0, 0.0, 0.0, 0.0, 0.0, 0.0, 0.0, 1.6541566264456391E9, 0.0, 2022-06-02 09:57:06.445
54.0, 24144.890802489615, 264.0411572505423, -74054.59273512277, -54283.58069462547, -39027.956310267014, -40354.331177989385, -8950.353735727518, -46767.51604885054, 0.014, 0.786, 0.648, 192.0, 0.0, 0.0, 0.0, 0.0, 0.0, 0.0, 0.0, 0.0, 0.0, 1.6541566264456444E9, 0.0, 2022-06-02 09:57:06.445
55.0, 24146.745997279406, 264.0411572505423, -74071.26713648644, -54292.34257845194, -39039.57921738377, -40353.81708786692, -8956.545168941639, -46781.12826122383, 0.014, 0.786, 0.648, 192.0, 0.0, 0.0, 0.0, 0.0, 0.0, 0.0, 0.0, 0.0, 0.0, 1.65415662644565E9, 0.0, 2022-06-02 09:57:06.445
56.0, 24131.85973547217, 239.5659970719811, -74098.46920948854, -54325.37845675689, -39069.329389253784, -40389.42341678422, -8998.857021195534, -46821.89784311031, 0.014, 0.786, 0.648, 192.0, 0.0, 0.0, 0.0, 0.0, 0.0, 0.0, 0.0, 0.0, 0.0, 1.654156626445655E9, 0.0, 2022-06-02 09:57:06.445
57.0, 24133.424357584045, 242.91875874027716, -74082.66652615865, -54311.878003105885, -39052.9679123125, -40367.71987291812, -8982.115564598509, -46774.959179754165, 0.014, 0.786, 0.648, 192.0, 0.0, 0.0, 0.0, 0.0, 0.0, 0.0, 0.0, 0.0, 0.0, 1.6541566264456615E9, 0.0, 2022-06-02 09:57:06.445
58.0, 24141.649799543597, 258.8779042813664, -74056.53733689038, -54284.87709580387, -39032.47136264698, -40333.007613779024, -8954.332346240562, -46726.18767335268, 0.008, 0.786, 0.644, 192.0, 0.0, 64.0, 24.0, 144.0, 20.0, 32.0, 0.0, 0.0, 0.0, 1.6541566264456675E9, 0.0, 2022-06-02 09:57:06.445
59.0, 24133.022026183848, 251.09949721091954, -74066.05918002834, -54299.137508766355, -39040.83091507327, -40343.647044139754, -8957.886273608956, -46756.139010922794, 0.008, 0.786, 0.644, 192.0, 0.0, 0.0, 0.0, 0.0, 0.0, 0.0, 0.0, 0.0, 0.0, 1.6541566264456728E9, 0.0, 2022-06-02 09:57:06.445
60.0, 24133.53611630632, 240.8176947614783, -74093.39536349718, -54319.67876192078, -39059.472269948994, -40363.80831763844, -8970.246788292741, -46791.9912090291, 0.008, 0.786, 0.644, 192.0, 0.0, 0.0, 0.0, 0.0, 0.0, 0.0, 0.0, 0.0, 0.0, 1.6541566264456782E9, 0.0, 2022-06-02 09:57:06.445
61.0, 24135.257200629378, 236.52615982605934, -74110.27093056095, -54329.13354982538, -39077.867755635714, -40377.28641954499, -8995.727776971791, -46799.12141551035, 0.008, 0.786, 0.644, 192.0, 0.0, 0.0, 0.0, 0.0, 0.0, 0.0, 0.0, 0.0, 0.0, 1.6541566264456837E9, 0.0, 2022-06-02 09:57:06.445
62.0, 24144.488471089422, 253.2005611897184, -74085.37108723773, -54313.15205253984, -39067.653008419635, -40365.95408510615, -8989.782212946679, -46778.244886189095, 0.008, 0.786, 0.644, 192.0, 0.0, 0.0, 0.0, 0.0, 0.0, 0.0, 0.0, 0.0, 0.0, 1.6541566264456894E9, 0.0, 2022-06-02 09:57:06.445
63.0, 24146.00838971238, 264.97993051766525, -74069.25547948545, -54301.529145423076, -39057.795889114845, -40362.869544371315, -8992.35266355904, -46796.66272362027, 0.008, 0.786, 0.644, 192.0, 0.0, 0.0, 0.0, 0.0, 0.0, 0.0, 0.0, 0.0, 0.0, 1.6541566264456947E9, 0.0, 2022-06-02 09:57:06.445
64.0, 24127.38938658111, 251.23360767765138, -74083.65000291467, -54313.59908742894, -39064.38965372916, -40377.062902100435, -8989.581047246582, -46824.714162911674, 0.008, 0.786, 0.644, 192.0, 0.0, 0.0, 0.0, 0.0, 0.0, 0.0, 0.0, 0.0, 0.0, 1.6541566264457033E9, 0.0, 2022-06-02 09:57:06.445
65.0, 24130.16100289357, 251.81475303348938, -74098.62567169973, -54320.326962509986, -39069.84347937626, -40365.55175370595, -8984.194276832852, -46789.95720028367, 0.008, 0.786, 0.644, 192.0, 0.0, 0.0, 0.0, 0.0, 0.0, 0.0, 0.0, 0.0, 0.0, 1.6541566264457085E9, 0.0, 2022-06-02 09:57:06.445
66.0, 24148.4000263691, 262.5882938609474, -74096.30109027638, -54321.19868054375, -39073.84444163376, -40369.82093689692, -9010.25641086774, -46782.11173797986, 0.008, 0.786, 0.644, 192.0, 0.0, 0.0, 0.0, 0.0, 0.0, 0.0, 0.0, 0.0, 0.0, 1.6541566264457135E9, 0.0, 2022-06-02 09:57:06.445
67.0, 24149.07057870276, 265.7845933180563, -74083.60529942576, -54312.637962417364, -39068.435319475575, -40378.42635851221, -9008.535326544683, -46757.68128129021, 0.008, 0.786, 0.644, 192.0, 0.0, 0.0, 0.0, 0.0, 0.0, 0.0, 0.0, 0.0, 0.0, 1.6541566264457188E9, 0.0, 2022-06-02 09:57:06.445
68.0, 24150.63520081463, 273.54064864404785, -74059.84539506977, -54283.46893590319, -39044.87658081968, -40349.03381455348, -8965.083535323565, -46741.34215609338, 0.008, 0.79, 0.64, 192.0, 0.0, 64.0, 24.0, 176.0, 20.0, 0.0, 0.0, 0.0, 0.0, 1.6541566264457245E9, 0.0, 2022-06-02 09:57:06.445
69.0, 24148.467081602466, 275.0158637780981, -74048.06602574182, -54276.78576431105, -39031.2643684464, -40342.30593947243, -8939.155511755409, -46756.697804534175, 0.008, 0.79, 0.64, 192.0, 0.0, 0.0, 0.0, 0.0, 0.0, 0.0, 0.0, 0.0, 0.0, 1.6541566264457295E9, 0.0, 2022-06-02 09:57:06.445
70.0, 24151.97630548195, 267.5280293855702, -74063.86870907173, -54293.43781393026, -39040.62974937317, -40353.66062565573, -8954.600567174026, -46785.576258370435, 0.008, 0.79, 0.64, 192.0, 0.0, 0.0, 0.0, 0.0, 0.0, 0.0, 0.0, 0.0, 0.0, 1.6541566264457347E9, 0.0, 2022-06-02 09:57:06.445
71.0, 24157.318372406768, 264.21997120618477, -74077.79384586739, -54305.50775593612, -39055.96304606951, -40360.45555597014, -8975.700613939836, -46779.5412873675, 0.008, 0.79, 0.64, 192.0, 0.0, 0.0, 0.0, 0.0, 0.0, 0.0, 0.0, 0.0, 0.0, 1.6541566264457402E9, 0.0, 2022-06-02 09:57:06.445
72.0, 24143.437939100022, 260.4648781376932, -74070.55188066386, -54303.98783731316, -39053.10202277923, -40361.93077110419, -8982.339082043061, -46771.315845407946, 0.008, 0.79, 0.64, 192.0, 0.0, 0.0, 0.0, 0.0, 0.0, 0.0, 0.0, 0.0, 0.0, 1.6541566264457457E9, 0.0, 2022-06-02 09:57:06.445
73.0, 24155.01614272787, 279.06152952450867, -74036.35371164724, -54272.91891252028, -39020.602586341214, -40338.059108025926, -8941.569500156582, -46738.950519436665, 0.008, 0.79, 0.64, 192.0, 0.0, 0.0, 0.0, 0.0, 0.0, 0.0, 0.0, 0.0, 0.0, 1.6541566264457512E9, 0.0, 2022-06-02 09:57:06.445
74.0, 24153.2503549159, 277.31809345699475, -74037.00191223645, -54267.15216245082, -39019.48499911845, -40326.77147707599, -8946.889215336945, -46742.660909016246, 0.008, 0.79, 0.64, 192.0, 0.0, 0.0, 0.0, 0.0, 0.0, 0.0, 0.0, 0.0, 0.0, 1.6541566264457564E9, 0.0, 2022-06-02 09:57:06.445
75.0, 24147.50595659089, 261.13543047135244, -74064.22633698302, -54290.755604595615, -39031.510237635404, -40338.617901637306, -8949.213796760298, -46760.49760109158, 0.008, 0.79, 0.64, 192.0, 0.0, 0.0, 0.0, 0.0, 0.0, 0.0, 0.0, 0.0, 0.0, 1.6541566264457617E9, 0.0, 2022-06-02 09:57:06.445
76.0, 24144.22025015596, 252.08297396695306, -74080.54311043539, -54307.58646817046, -39042.32848195177, -40353.437108211176, -8950.890177594445, -46766.06318546095, 0.008, 0.79, 0.64, 192.0, 0.0, 0.0, 0.0, 0.0, 0.0, 0.0, 0.0, 0.0, 0.0, 1.6541566264457672E9, 0.0, 2022-06-02 09:57:06.445
77.0, 24136.15127040759, 252.28413966705082, -74076.45274120006, -54305.10542453593, -39038.90866505011, -40356.32048324591, -8964.815314390102, -46780.94944726818, 0.008, 0.79, 0.64, 192.0, 0.0, 0.0, 0.0, 0.0, 0.0, 0.0, 0.0, 0.0, 0.0, 1.6541566264457724E9, 0.0, 2022-06-02 09:57:06.445
78.0, 24144.980209467438, 268.4668026526931, -74049.65299959815, -54280.40674691281, -39018.68033631806, -40331.84532306735, -8953.013593317699, -46765.30322614947, 0.014, 0.79, 0.64, 192.0, 0.0, 112.0, 24.0, 176.0, 20.0, 0.0, 0.0, 0.0, 0.0, 1.654156626445778E9, 0.0, 2022-06-02 09:57:06.445
79.0, 24148.802357769295, 276.6475411233355, -74043.9756565065, -54266.83923802844, -39005.73867627844, -40303.70447679812, -8926.996162771722, -46723.66192622923, 0.014, 0.79, 0.64, 192.0, 0.0, 0.0, 0.0, 0.0, 0.0, 0.0, 0.0, 0.0, 0.0, 1.6541566264457831E9, 0.0, 2022-06-02 09:57:06.445
80.0, 24150.12111069216, 267.63978810784675, -74061.25355497045, -54281.03259575756, -39021.027269485865, -40315.8638257818, -8946.665697892393, -46748.53941780799, 0.014, 0.79, 0.64, 192.0, 0.0, 0.0, 0.0, 0.0, 0.0, 0.0, 0.0, 0.0, 0.0, 1.6541566264457884E9, 0.0, 2022-06-02 09:57:06.445
81.0, 24148.4000263691, 253.98287224565416, -74083.91822384813, -54304.121947779895, -39051.31388322281, -40352.05130005495, -8998.857021195534, -46804.374075457345, 0.014, 0.79, 0.64, 192.0, 0.0, 0.0, 0.0, 0.0, 0.0, 0.0, 0.0, 0.0, 0.0, 1.6541566264457939E9, 0.0, 2022-06-02 09:57:06.445
82.0, 24145.717817034463, 257.42504089177146, -74069.74721786348, -54291.33674995146, -39045.59183664225, -40342.30593947243, -8975.275930795186, -46765.61615057184, 0.014, 0.79, 0.64, 192.0, 0.0, 0.0, 0.0, 0.0, 0.0, 0.0, 0.0, 0.0, 0.0, 1.654156626445799E9, 0.0, 2022-06-02 09:57:06.445
83.0, 24151.082235703736, 276.4240236787824, -74038.05244422585, -54264.98404323865, -39016.60162408371, -40308.01836347799, -8922.43640690284, -46695.56578344891, 0.014, 0.79, 0.64, 192.0, 0.0, 0.0, 0.0, 0.0, 0.0, 0.0, 0.0, 0.0, 0.0, 1.6541566264458044E9, 0.0, 2022-06-02 09:57:06.445
84.0, 24141.046302443305, 270.70197709822384, -74045.58498210729, -54268.98500549615, -39026.61520559969, -40316.15439845972, -8939.893119322434, -46719.7280192051, 0.014, 0.79, 0.64, 192.0, 0.0, 0.0, 0.0, 0.0, 0.0, 0.0, 0.0, 0.0, 0.0, 1.65415662644581E9, 0.0, 2022-06-02 09:57:06.445
85.0, 24139.01229369787, 260.80015430452283, -74068.24965098496, -54288.49807840563, -39038.796906327836, -40333.3205382014, -8946.643346147937, -46752.853304487864, 0.014, 0.79, 0.64, 192.0, 0.0, 0.0, 0.0, 0.0, 0.0, 0.0, 0.0, 0.0, 0.0, 1.654156626445815E9, 0.0, 2022-06-02 09:57:06.445
86.0, 24147.394197868613, 262.7447560721345, -74073.2340899985, -54297.2152587432, -39048.34110121025, -40358.35449199134, -8969.464477236805, -46779.7424530676, 0.014, 0.79, 0.64, 192.0, 0.0, 0.0, 0.0, 0.0, 0.0, 0.0, 0.0, 0.0, 0.0, 1.6541566264458225E9, 0.0, 2022-06-02 09:57:06.445
87.0, 24153.92090724956, 267.8633055523998, -74058.66075261364, -54286.06173826, -39045.569484897795, -40361.34962574836, -8979.500410497238, -46757.65892954575, 0.014, 0.786, 0.644, 192.0, 0.0, 112.0, 24.0, 144.0, 20.0, 32.0, 0.0, 0.0, 0.0, 1.6541566264458277E9, 0.0, 2022-06-02 09:57:06.445
88.0, 24148.601192069196, 277.00516903462045, -74042.81336579482, -54271.533104364054, -39030.124429479176, -40345.21166625162, -8954.57821542957, -46713.223661568605, 0.014, 0.786, 0.644, 192.0, 0.0, 0.0, 0.0, 0.0, 0.0, 0.0, 0.0, 0.0, 0.0, 1.654156626445833E9, 0.0, 2022-06-02 09:57:06.445
89.0, 24147.50595659089, 281.6990353702349, -74033.76090929043, -54262.368889137375, -39020.31201366329, -40329.40898292172, -8942.888253079445, -46736.648289757766, 0.014, 0.786, 0.644, 192.0, 0.0, 0.0, 0.0, 0.0, 0.0, 0.0, 0.0, 0.0, 0.0, 1.6541566264458385E9, 0.0, 2022-06-02 09:57:06.445
90.0, 24155.44082587252, 276.8487068234333, -74042.478089628, -54267.1074589619, -39022.54718810883, -40326.32444218689, -8932.29352620763, -46729.92041467672, 0.014, 0.786, 0.644, 192.0, 0.0, 0.0, 0.0, 0.0, 0.0, 0.0, 0.0, 0.0, 0.0, 1.6541566264458437E9, 0.0, 2022-06-02 09:57:06.445
91.0, 24149.383503125133, 258.00618624760943, -74071.1330260197, -54290.88971506235, -39049.52574366638, -40358.62271292481, -8963.988299845256, -46771.78523204151, 0.014, 0.786, 0.644, 192.0, 0.0, 0.0, 0.0, 0.0, 0.0, 0.0, 0.0, 0.0, 0.0, 1.654156626445849E9, 0.0, 2022-06-02 09:57:06.445
92.0, 24143.236773399924, 257.33563391395023, -74066.01447653944, -54287.22402897168, -39049.86101983321, -40366.13289906179, -8976.170000573398, -46778.53545886701, 0.014, 0.786, 0.644, 192.0, 0.0, 0.0, 0.0, 0.0, 0.0, 0.0, 0.0, 0.0, 0.0, 1.6541566264458618E9, 0.0, 2022-06-02 09:57:06.445
93.0, 24136.128918663137, 257.8050205475117, -74054.50332814496, -54279.087993989946, -39033.72306033648, -40356.0746140569, -8952.00776481721, -46755.69197603369, 0.014, 0.786, 0.644, 192.0, 0.0, 0.0, 0.0, 0.0, 0.0, 0.0, 0.0, 0.0, 0.0, 1.6541566264458673E9, 0.0, 2022-06-02 09:57:06.445
94.0, 24124.416604568556, 252.8876367673441, -74054.77154907842, -54281.92666553577, -39025.38585965465, -40349.19027676467, -8935.780398342658, -46744.94078695068, 0.014, 0.786, 0.644, 192.0, 0.0, 0.0, 0.0, 0.0, 0.0, 0.0, 0.0, 0.0, 0.0, 1.6541566264458723E9, 0.0, 2022-06-02 09:57:06.445
95.0, 24116.705252731474, 242.82935176245593, -74081.34777323577, -54305.4183489583, -39036.85230456023, -40361.59549493736, -8963.831837634069, -46791.231249717624, 0.014, 0.786, 0.644, 192.0, 0.0, 0.0, 0.0, 0.0, 0.0, 0.0, 0.0, 0.0, 0.0, 1.6541566264458783E9, 0.0, 2022-06-02 09:57:06.445
96.0, 24114.87240968614, 220.9022904517997, -74115.56829399685, -54341.91874765381, -39066.64717991915, -40400.822806456425, -9019.800605750157, -46850.01633763508, 0.014, 0.786, 0.644, 192.0, 0.0, 0.0, 0.0, 0.0, 0.0, 0.0, 0.0, 0.0, 0.0, 1.6541566264458835E9, 0.0, 2022-06-02 09:57:06.445
97.0, 24110.647929984087, 219.89646195131087, -74107.63342471521, -54336.44257026227, -39063.808508373324, -40398.27470758852, -9014.190317891875, -46826.21172979018, 0.014, 0.79, 0.638, 192.0, 0.0, 112.0, 24.0, 176.0, 19.0, 240.0, 0.0, 0.0, 0.0, 1.6541566264458892E9, 0.0, 2022-06-02 09:57:06.445
98.0, 24111.67611022903, 237.50963658209284, -74074.99987781046, -54306.60299141443, -39029.90091203462, -40358.19802978016, -8952.119523539486, -46754.41792659974, 0.014, 0.79, 0.638, 192.0, 0.0, 0.0, 0.0, 0.0, 0.0, 0.0, 0.0, 0.0, 0.0, 1.654156626445895E9, 0.0, 2022-06-02 09:57:06.445
99.0, 24120.57210452224, 249.7360407991458, -74060.8288718258, -54291.58261914046, -39018.70268806251, -40334.08049751288, -8954.779381129669, -46743.7337927501, 0.014, 0.79, 0.638, 192.0, 0.0, 0.0, 0.0, 0.0, 0.0, 0.0, 0.0, 0.0, 0.0, 1.6541566264459004E9, 0.0, 2022-06-02 09:57:06.445
100.0, 24117.711081231962, 232.12286616836386, -74092.72481116353, -54317.108311308424, -39043.5131244079, -40349.1232215313, -8980.819163420101, -46779.38482515631, 0.014, 0.79, 0.638, 192.0, 0.0, 0.0, 0.0, 0.0, 0.0, 0.0, 0.0, 0.0, 0.0, 1.6541566264459057E9, 0.0, 2022-06-02 09:57:06.445
101.0, 24119.700386488486, 222.31045035248405, -74114.58481724082, -54336.621384217906, -39072.86096487772, -40376.03472185549, -9003.863811953523, -46798.78613934352, 0.014, 0.79, 0.638, 192.0, 0.0, 0.0, 0.0, 0.0, 0.0, 0.0, 0.0, 0.0, 0.0, 1.6541566264459112E9, 0.0, 2022-06-02 09:57:06.445
102.0, 24121.980264422928, 228.34542135541696, -74101.97843336803, -54323.65737243383, -39072.346874755254, -40374.827727654905, -8987.7705559457, -46774.13216520932, 0.014, 0.79, 0.638, 192.0, 0.0, 0.0, 0.0, 0.0, 0.0, 0.0, 0.0, 0.0, 0.0, 1.654156626445917E9, 0.0, 2022-06-02 09:57:06.445
103.0, 24122.315540589756, 242.0917441954308, -74081.12425579122, -54308.167613526304, -39057.460612948016, -40370.357378763845, -8966.446991735338, -46779.273066434034, 0.014, 0.79, 0.638, 192.0, 0.0, 0.0, 0.0, 0.0, 0.0, 0.0, 0.0, 0.0, 0.0, 1.6541566264459221E9, 0.0, 2022-06-02 09:57:06.445
104.0, 24126.87529645864, 259.07906998146416, -74063.73459860499, -54291.20263948473, -39045.79300234235, -40360.81318388143, -8962.893064366945, -46781.30707517947, 0.014, 0.79, 0.638, 192.0, 0.0, 0.0, 0.0, 0.0, 0.0, 0.0, 0.0, 0.0, 0.0, 1.6541566264459276E9, 0.0, 2022-06-02 09:57:06.445
105.0, 24148.06475020227, 269.02559626407583, -74066.99795329547, -54283.89361904784, -39050.39746170014, -40341.16600050521, -8969.129201069976, -46764.11858369334, 0.014, 0.79, 0.638, 192.0, 0.0, 0.0, 0.0, 0.0, 0.0, 0.0, 0.0, 0.0, 0.0, 1.6541566264459329E9, 0.0, 2022-06-02 09:57:06.445
106.0, 24144.82374725625, 252.79822978952288, -74093.70828791957, -54307.608819914916, -39076.68311317958, -40370.89382063077, -9008.580030033592, -46796.148633497796, 0.014, 0.79, 0.638, 192.0, 0.0, 0.0, 0.0, 0.0, 0.0, 0.0, 0.0, 0.0, 0.0, 1.6541566269244368E9, 0.0, 2022-06-02 09:57:06.924
107.0, 24149.562317080774, 267.30451194101715, -74067.93672656259, -54288.40867142781, -39055.225438502486, -40358.77917513599, -8982.048509365142, -46742.43739157169, 0.014, 0.788, 0.642, 192.0, 0.0, 112.0, 24.0, 160.0, 20.0, 16.0, 0.0, 0.0, 0.0, 1.6541566269246297E9, 0.0, 2022-06-02 09:57:06.924
108.0, 24146.768349023863, 276.6251893788802, -74045.6296855962, -54269.52144736308, -39040.09330750624, -40340.137820260265, -8962.043698077643, -46730.993298410576, 0.014, 0.788, 0.642, 192.0, 0.0, 0.0, 0.0, 0.0, 0.0, 0.0, 0.0, 0.0, 0.0, 1.6541566269246383E9, 0.0, 2022-06-02 09:57:06.924
109.0, 24143.862622244673, 270.47845965367077, -74042.94747626156, -54265.811057783496, -39041.05443251782, -40334.88516031327, -8974.314805783606, -46765.526743594026, 0.014, 0.788, 0.642, 192.0, 0.0, 0.0, 0.0, 0.0, 0.0, 0.0, 0.0, 0.0, 0.0, 1.654156626924646E9, 0.0, 2022-06-02 09:57:06.924
110.0, 24134.54194480681, 255.56984610198094, -74063.3769706937, -54286.53112489356, -39048.654025632626, -40343.95996856213, -8965.77643940168, -46776.36733965485, 0.014, 0.788, 0.642, 192.0, 0.0, 0.0, 0.0, 0.0, 0.0, 0.0, 0.0, 0.0, 0.0, 1.654156626924653E9, 0.0, 2022-06-02 09:57:06.924
111.0, 24125.936523191514, 240.03538370554256, -74087.58390993881, -54314.60491592943, -39073.50916546693, -40376.05707359994, -8987.34587280105, -46801.580107400434, 0.014, 0.788, 0.642, 192.0, 0.0, 0.0, 0.0, 0.0, 0.0, 0.0, 0.0, 0.0, 0.0, 1.6541566269246588E9, 0.0, 2022-06-02 09:57:06.924
112.0, 24143.192069911012, 256.083936224453, -74064.4275026831, -54294.55540115302, -39053.07967103478, -40367.496355473566, -8973.800715661135, -46773.08163321992, 0.014, 0.788, 0.642, 192.0, 0.0, 0.0, 0.0, 0.0, 0.0, 0.0, 0.0, 0.0, 0.0, 1.6541566269246657E9, 0.0, 2022-06-02 09:57:06.924
113.0, 24147.125976935145, 263.77293631707863, -74040.44408088256, -54275.55641836601, -39029.409173656604, -40353.10183204435, -8952.410096217405, -46754.55203706647, 0.014, 0.788, 0.642, 192.0, 0.0, 0.0, 0.0, 0.0, 0.0, 0.0, 0.0, 0.0, 0.0, 1.6541566269246712E9, 0.0, 2022-06-02 09:57:06.924
114.0, 24157.184261940034, 275.46289866720423, -74029.37996737719, -54263.93351124925, -39012.846531015224, -40336.516837658506, -8937.34502045453, -46746.997147440576, 0.014, 0.788, 0.642, 192.0, 0.0, 0.0, 0.0, 0.0, 0.0, 0.0, 0.0, 0.0, 0.0, 1.654156626924678E9, 0.0, 2022-06-02 09:57:06.924
115.0, 24171.98111676945, 283.42011969329354, -74032.1739354341, -54261.4077641258, -39005.29164138933, -40326.100924742335, -8928.605488372505, -46746.416002084734, 0.014, 0.788, 0.642, 192.0, 0.0, 0.0, 0.0, 0.0, 0.0, 0.0, 0.0, 0.0, 0.0, 1.6541566269246843E9, 0.0, 2022-06-02 09:57:06.924
116.0, 24142.745035021908, 252.10532571140837, -74071.06597078634, -54299.003398299625, -39046.30709246482, -40362.310750759934, -8965.284701023664, -46772.500487864076, 0.014, 0.788, 0.642, 192.0, 0.0, 0.0, 0.0, 0.0, 0.0, 0.0, 0.0, 0.0, 0.0, 1.6541566269246924E9, 0.0, 2022-06-02 09:57:06.924
117.0, 24133.49141281741, 243.9916424741319, -74071.982392309, -54309.37460772689, -39055.068976291295, -40383.81312892594, -8983.568427988104, -46793.57818288543, 0.014, 0.784, 0.646, 192.0, 0.0, 112.0, 24.0, 128.0, 20.0, 48.0, 0.0, 0.0, 0.0, 1.6541566269246995E9, 0.0, 2022-06-02 09:57:06.924
118.0, 24145.62841005664, 261.3365961714502, -74045.76379606292, -54281.256113202115, -39027.9116067781, -40359.516782703016, -8965.709384168315, -46762.55396158147, 0.014, 0.784, 0.646, 192.0, 0.0, 0.0, 0.0, 0.0, 0.0, 0.0, 0.0, 0.0, 0.0, 1.6541566269247065E9, 0.0, 2022-06-02 09:57:06.924
119.0, 24138.96759020896, 254.4522588792156, -74052.93870603308, -54281.680796346765, -39031.376127168674, -40352.99007332207, -8985.222457077796, -46765.39263312729, 0.014, 0.784, 0.646, 192.0, 0.0, 0.0, 0.0, 0.0, 0.0, 0.0, 0.0, 0.0, 0.0, 1.6541566269247177E9, 0.0, 2022-06-02 09:57:06.924
120.0, 24134.72075876245, 243.7234215406682, -74079.06789530134, -54300.74683436714, -39044.92128430859, -40358.01921582451, -8980.640349464458, -46770.37707214082, 0.014, 0.784, 0.646, 192.0, 0.0, 0.0, 0.0, 0.0, 0.0, 0.0, 0.0, 0.0, 0.0, 1.6541566269247255E9, 0.0, 2022-06-02 09:57:06.924
121.0, 24137.604133797187, 239.36483137188333, -74086.57808143832, -54314.42610197379, -39048.966950055, -40369.95504736365, -8956.098134052532, -46770.95821749666, 0.014, 0.784, 0.646, 192.0, 0.0, 0.0, 0.0, 0.0, 0.0, 0.0, 0.0, 0.0, 0.0, 1.6541566269247315E9, 0.0, 2022-06-02 09:57:06.924
122.0, 24133.714930261962, 239.70010753871293, -74088.58973843929, -54316.70597990823, -39060.3663397272, -40384.90836440425, -8989.513992013215, -46797.51208990957, 0.014, 0.784, 0.646, 192.0, 0.0, 0.0, 0.0, 0.0, 0.0, 0.0, 0.0, 0.0, 0.0, 1.6541566269247384E9, 0.0, 2022-06-02 09:57:06.924
123.0, 24143.884973989127, 257.02270949157594, -74070.1271975192, -54294.80127034203, -39048.3187494658, -40369.61977119682, -8997.493564783761, -46794.02521777454, 0.014, 0.784, 0.646, 192.0, 0.0, 0.0, 0.0, 0.0, 0.0, 0.0, 0.0, 0.0, 0.0, 1.6541566269247513E9, 0.0, 2022-06-02 09:57:06.924
124.0, 24165.990849255428, 282.48134642617066, -74041.0252262384, -54258.77025828007, -39015.28287116085, -40329.721907344094, -8952.477151450772, -46751.08751667589, 0.014, 0.784, 0.646, 192.0, 0.0, 0.0, 0.0, 0.0, 0.0, 0.0, 0.0, 0.0, 0.0, 1.6541566269247675E9, 0.0, 2022-06-02 09:57:06.924
125.0, 24157.072503217758, 266.2092764627071, -74069.0319620409, -54280.18322946826, -39033.32072893628, -40345.524590673995, -8969.77740165918, -46788.50433689408, 0.014, 0.784, 0.646, 192.0, 0.0, 0.0, 0.0, 0.0, 0.0, 0.0, 0.0, 0.0, 0.0, 1.6541566269247913E9, 0.0, 2022-06-02 09:57:06.924
126.0, 24162.5039771204, 263.88469503935517, -74079.22435751252, -54288.22985747217, -39054.800755357835, -40355.113489045325, -9001.941561930367, -46780.50241237908, 0.014, 0.784, 0.646, 192.0, 0.0, 0.0, 0.0, 0.0, 0.0, 0.0, 0.0, 0.0, 0.0, 1.6541566269248018E9, 0.0, 2022-06-02 09:57:06.924
127.0, 24164.716799821475, 271.5960468764361, -74065.05335152785, -54274.818810798984, -39052.02913904538, -40354.5770471784, -8994.677244982391, -46767.13606919481, 0.012, 0.776, 0.644, 192.0, 0.0, 96.0, 24.0, 64.0, 20.0, 32.0, 0.0, 0.0, 0.0, 1.6541566269248128E9, 0.0, 2022-06-02 09:57:06.924
128.0, 24160.78289279734, 272.6465788658355, -74043.84154603977, -54257.07152570147, -39029.92326377908, -40341.210703994126, -8954.086477051555, -46739.3304990924, 0.012, 0.776, 0.644, 192.0, 0.0, 0.0, 0.0, 0.0, 0.0, 0.0, 0.0, 0.0, 0.0, 1.6541566269248388E9, 0.0, 2022-06-02 09:57:06.924
129.0, 24161.431093386545, 281.49786967013716, -74032.24099066747, -54246.83442674094, -39016.1098857057, -40331.37593643379, -8941.413037945395, -46707.03222835448, 0.012, 0.776, 0.644, 192.0, 0.0, 0.0, 0.0, 0.0, 0.0, 0.0, 0.0, 0.0, 0.0, 1.6541566269248505E9, 0.0, 2022-06-02 09:57:06.924
130.0, 24164.180357954545, 279.083881268964, -74042.18751695007, -54259.61962456937, -39031.10790623521, -40335.466305669106, -8955.606395674515, -46747.71240326314, 0.012, 0.776, 0.644, 192.0, 0.0, 0.0, 0.0, 0.0, 0.0, 0.0, 0.0, 0.0, 0.0, 1.6541566269248576E9, 0.0, 2022-06-02 09:57:06.924
131.0, 24167.801340556307, 274.9711602891875, -74054.72684558951, -54275.71288057719, -39045.03304303087, -40352.20776226613, -8962.624843433481, -46778.043720489, 0.012, 0.776, 0.644, 192.0, 0.0, 0.0, 0.0, 0.0, 0.0, 0.0, 0.0, 0.0, 0.0, 1.6541566269248648E9, 0.0, 2022-06-02 09:57:06.924
132.0, 24165.432055644043, 272.6689306102909, -74047.79780480836, -54275.377604410365, -39043.893104063645, -40360.58966643687, -8965.687032423859, -46769.95238899617, 0.012, 0.776, 0.644, 192.0, 0.0, 0.0, 0.0, 0.0, 0.0, 0.0, 0.0, 0.0, 0.0, 1.654156626924874E9, 0.0, 2022-06-02 09:57:06.924
133.0, 24160.15704395259, 272.2218957211847, -74037.6724645701, -54270.95195900821, -39039.19923772803, -40354.15236403375, -8959.9649858433, -46758.4859440906, 0.012, 0.776, 0.644, 192.0, 0.0, 0.0, 0.0, 0.0, 0.0, 0.0, 0.0, 0.0, 0.0, 1.6541566269248807E9, 0.0, 2022-06-02 09:57:06.924
134.0, 24154.814977027774, 270.9031427983216, -74034.45381336854, -54265.74400255013, -39028.62686260067, -40346.1727912632, -8943.312936224096, -46759.02238595753, 0.012, 0.776, 0.644, 192.0, 0.0, 0.0, 0.0, 0.0, 0.0, 0.0, 0.0, 0.0, 0.0, 1.6541566269248865E9, 0.0, 2022-06-02 09:57:06.924
135.0, 24145.606058312187, 255.1004594684195, -74062.37114219322, -54289.10157550593, -39045.54713315334, -40364.680035672194, -8965.463514979305, -46793.57818288543, 0.012, 0.776, 0.644, 192.0, 0.0, 0.0, 0.0, 0.0, 0.0, 0.0, 0.0, 0.0, 0.0, 1.6541566269248943E9, 0.0, 2022-06-02 09:57:06.924
136.0, 24138.229982641937, 235.72149702566827, -74086.22045352703, -54316.907145608326, -39059.561676926816, -40384.61779172633, -8969.509180725716, -46784.63748510331, 0.012, 0.776, 0.644, 192.0, 0.0, 0.0, 0.0, 0.0, 0.0, 0.0, 0.0, 0.0, 0.0, 1.6541566269249E9, 0.0, 2022-06-02 09:57:06.924
137.0, 24155.194956683514, 252.37354664487205, -74061.76764509293, -54298.08697677696, -39035.13122023716, -40370.53619271948, -8954.980546829765, -46756.36252836735, 0.01, 0.776, 0.64, 192.0, 0.0, 80.0, 24.0, 64.0, 20.0, 0.0, 0.0, 0.0, 0.0, 1.6541566269249072E9, 0.0, 2022-06-02 09:57:06.924
138.0, 24162.54868060931, 268.9361892862546, -74033.33622614578, -54274.93056952126, -39013.71824904898, -40353.526515189, -8953.237110762253, -46760.20702841366, 0.01, 0.776, 0.64, 192.0, 0.0, 0.0, 0.0, 0.0, 0.0, 0.0, 0.0, 0.0, 0.0, 1.654156626924914E9, 0.0, 2022-06-02 09:57:06.924
139.0, 24150.63520081463, 269.02559626407583, -74037.73951980346, -54278.01511025609, -39020.71434506349, -40361.34962574836, -8968.279834780675, -46794.673418363745, 0.01, 0.776, 0.64, 192.0, 0.0, 0.0, 0.0, 0.0, 0.0, 0.0, 0.0, 0.0, 0.0, 1.6541566269249227E9, 0.0, 2022-06-02 09:57:06.924
140.0, 24146.05309320129, 257.44739263622677, -74073.8375870988, -54303.7196163797, -39046.57531339828, -40369.39625375227, -9001.025140407699, -46812.1971860167, 0.01, 0.776, 0.64, 192.0, 0.0, 0.0, 0.0, 0.0, 0.0, 0.0, 0.0, 0.0, 0.0, 1.6541566269249291E9, 0.0, 2022-06-02 09:57:06.924
141.0, 24126.54002029181, 225.52910155404825, -74107.76753518195, -54334.9226516393, -39079.186508558574, -40393.983172653105, -9013.139785902475, -46824.13301755584, 0.01, 0.776, 0.64, 192.0, 0.0, 0.0, 0.0, 0.0, 0.0, 0.0, 0.0, 0.0, 0.0, 1.654156626924936E9, 0.0, 2022-06-02 09:57:06.924
142.0, 24126.33885459171, 227.63016553284712, -74087.51685470543, -54319.99168634316, -39064.5684676848, -40387.36705629433, -8994.677244982391, -46797.4450346762, 0.01, 0.776, 0.64, 192.0, 0.0, 0.0, 0.0, 0.0, 0.0, 0.0, 0.0, 0.0, 0.0, 1.6541566269249432E9, 0.0, 2022-06-02 09:57:06.924
143.0, 24128.506973803876, 235.05094469200907, -74070.6859911306, -54307.184136770265, -39050.755089611426, -40371.09498633087, -8996.487736283272, -46783.36343566936, 0.01, 0.776, 0.64, 192.0, 0.0, 0.0, 0.0, 0.0, 0.0, 0.0, 0.0, 0.0, 0.0, 1.65415662692495E9, 0.0, 2022-06-02 09:57:06.924
144.0, 24128.506973803876, 236.86143599288894, -74065.83566258379, -54302.33380822347, -39039.66862436159, -40356.74516639056, -8975.320634284095, -46761.05639470296, 0.01, 0.776, 0.64, 192.0, 0.0, 0.0, 0.0, 0.0, 0.0, 0.0, 0.0, 0.0, 0.0, 1.6541566269249587E9, 0.0, 2022-06-02 09:57:06.924
145.0, 24133.31259886177, 237.33082262645038, -74080.96779358004, -54306.82650885898, -39052.67733963458, -40353.012425066525, -8990.341006558063, -46775.1379937098, 0.01, 0.776, 0.64, 192.0, 0.0, 0.0, 0.0, 0.0, 0.0, 0.0, 0.0, 0.0, 0.0, 1.65415662692497E9, 0.0, 2022-06-02 09:57:06.924
146.0, 24140.86748848766, 232.3016801240063, -74097.70925017707, -54323.85853813393, -39073.55386895584, -40371.94435262017, -9010.301114356651, -46796.86388932036, 0.01, 0.776, 0.64, 192.0, 0.0, 0.0, 0.0, 0.0, 0.0, 0.0, 0.0, 0.0, 0.0, 1.65415662692498E9, 0.0, 2022-06-02 09:57:06.924
147.0, 24152.244526415412, 240.1471424278191, -74079.87255810172, -54312.52620369509, -39055.04662454684, -40366.06584382842, -8982.897875654446, -46762.95629298166, 0.01, 0.776, 0.638, 192.0, 0.0, 80.0, 24.0, 64.0, 19.0, 240.0, 0.0, 0.0, 0.0, 1.6541566269249904E9, 0.0, 2022-06-02 09:57:06.924
148.0, 24140.420453598555, 242.51642734008163, -74067.62380214022, -54302.579677412476, -39046.754127353925, -40362.444861226664, -8980.34977678654, -46736.93886243569, 0.01, 0.776, 0.638, 192.0, 0.0, 0.0, 0.0, 0.0, 0.0, 0.0, 0.0, 0.0, 0.0, 1.6541566269249992E9, 0.0, 2022-06-02 09:57:06.924
149.0, 24136.486546574422, 250.69716581072402, -74058.97367703602, -54295.024787786584, -39040.27212146189, -40357.81805012441, -8978.561637230116, -46776.54615361049, 0.01, 0.776, 0.638, 192.0, 0.0, 0.0, 0.0, 0.0, 0.0, 0.0, 0.0, 0.0, 0.0, 1.6541566269250062E9, 0.0, 2022-06-02 09:57:06.925
150.0, 24118.73926147691, 230.3570783563946, -74086.82395062732, -54318.96350609822, -39056.85711584772, -40369.865640385826, -8969.48682898126, -46794.293438708, 0.01, 0.776, 0.638, 192.0, 0.0, 0.0, 0.0, 0.0, 0.0, 0.0, 0.0, 0.0, 0.0, 1.6541566269250238E9, 0.0, 2022-06-02 09:57:06.925
151.0, 24129.468098815454, 225.61850853186948, -74102.87250314624, -54330.58641321497, -39072.771557899905, -40385.89184116028, -8990.229247835785, -46805.24579349111, 0.01, 0.776, 0.638, 192.0, 0.0, 0.0, 0.0, 0.0, 0.0, 0.0, 0.0, 0.0, 0.0, 1.6541566269250312E9, 0.0, 2022-06-02 09:57:06.925
152.0, 24144.1978984115, 237.53198832654815, -74083.22531977002, -54313.71084615122, -39062.73562463947, -40375.453576499654, -8990.855096680534, -46786.202107215184, 0.01, 0.776, 0.638, 192.0, 0.0, 0.0, 0.0, 0.0, 0.0, 0.0, 0.0, 0.0, 0.0, 1.6541566269250407E9, 0.0, 2022-06-02 09:57:06.925
153.0, 24146.96951472396, 247.85849426490003, -74064.24868872747, -54295.427119186774, -39044.58600814176, -40358.108622802334, -8983.30020705464, -46776.54615361049, 0.01, 0.776, 0.638, 192.0, 0.0, 0.0, 0.0, 0.0, 0.0, 0.0, 0.0, 0.0, 0.0, 1.6541566269250493E9, 0.0, 2022-06-02 09:57:06.925
154.0, 24139.124052420146, 249.02078497657598, -74065.54508990588, -54293.81779358599, -39040.473287161985, -40354.80056462295, -8986.228285578285, -46778.75897631157, 0.01, 0.776, 0.638, 192.0, 0.0, 0.0, 0.0, 0.0, 0.0, 0.0, 0.0, 0.0, 0.0, 1.6541566269250572E9, 0.0, 2022-06-02 09:57:06.925
155.0, 24134.4972413179, 249.26665416558436, -74074.66460164364, -54297.058796532016, -39038.215760971994, -40348.40796570873, -8957.908625353411, -46764.63267381581, 0.01, 0.776, 0.638, 192.0, 0.0, 0.0, 0.0, 0.0, 0.0, 0.0, 0.0, 0.0, 0.0, 1.6541566269250631E9, 0.0, 2022-06-02 09:57:06.925
