%OpenBCI Raw EEG Data
%Number of channels = 8
%Sample Rate = 250 Hz
%Board = OpenBCI_GUI$BoardCytonSerial
Sample Index, EXG Channel 0, EXG Channel 1, EXG Channel 2, EXG Channel 3, EXG Channel 4, EXG Channel 5, EXG Channel 6, EXG Channel 7, Accel Channel 0, Accel Channel 1, Accel Channel 2, Other, Other, Other, Other, Other, Other, Other, Analog Channel 0, Analog Channel 1, Analog Channel 2, Timestamp, Other, Timestamp (Formatted)
0.0, 0.0, 0.0, 0.0, 0.0, 0.0, 0.0, 0.0, 0.0, -0.14200000000000002, 0.988, 0.314, 192.0, 251.0, 144.0, 30.0, 224.0, 9.0, 208.0, 0.0, 0.0, 0.0, 1.6521761802716565E9, 0.0, 2022-05-10 11:49:40.271
1.0, -2744.838922600618, 5073.57777042124, -53026.69740041464, -38135.697023355606, -29034.26784685467, -20909.98988270639, -28014.178933403367, -22700.699889743315, -0.14200000000000002, 0.988, 0.314, 192.0, 0.0, 0.0, 0.0, 0.0, 0.0, 0.0, 0.0, 0.0, 0.0, 1.6521761807496808E9, 0.0, 2022-05-10 11:49:40.749
2.0, -2737.1722742524476, 5082.250247269899, -53018.471958455084, -38134.62413962175, -29029.149297374406, -20909.207571650455, -28012.524904313676, -22707.226599124268, -0.14200000000000002, 0.988, 0.314, 192.0, 0.0, 0.0, 0.0, 0.0, 0.0, 0.0, 0.0, 0.0, 0.0, 1.6521761807498841E9, 0.0, 2022-05-10 11:49:40.749
3.0, -2740.3909254540117, 5084.775994393349, -53025.73627540306, -38150.96326481858, -29039.051120168107, -20897.00351917786, -28001.952529186314, -22695.78250596315, -0.14200000000000002, 0.988, 0.314, 192.0, 0.0, 0.0, 0.0, 0.0, 0.0, 0.0, 0.0, 0.0, 0.0, 1.6521761807499063E9, 0.0, 2022-05-10 11:49:40.749
4.0, -2751.8797221040395, 5075.678834400039, -53040.13079883228, -38164.016683580485, -29028.12111712946, -20911.75567051836, -27994.35293607151, -22725.420919110886, -0.14200000000000002, 0.988, 0.314, 192.0, 0.0, 0.0, 0.0, 0.0, 0.0, 0.0, 0.0, 0.0, 0.0, 1.6521761807499118E9, 0.0, 2022-05-10 11:49:40.749
5.0, -2756.886512862028, 5061.8431045822035, -53044.95877563462, -38167.369445248776, -29033.574942776555, -20916.3377781317, -28007.004023433212, -22729.35482613502, -0.14200000000000002, 0.988, 0.314, 192.0, 0.0, 0.0, 0.0, 0.0, 0.0, 0.0, 0.0, 0.0, 0.0, 1.6521761807499275E9, 0.0, 2022-05-10 11:49:40.749
6.0, -2749.376326725045, 5059.071488269745, -53038.29795578694, -38177.3606750203, -29026.93647467333, -20923.75855729086, -28006.266415866186, -22732.014683725203, -0.14200000000000002, 0.988, 0.314, 192.0, 0.0, 0.0, 0.0, 0.0, 0.0, 0.0, 0.0, 0.0, 0.0, 1.6521761807499323E9, 0.0, 2022-05-10 11:49:40.749
7.0, -2740.480332431833, 5062.737174360415, -53031.23480453907, -38159.27811375596, -29016.922893157353, -20911.822725751725, -27992.318927326076, -22725.018587710692, -0.14200000000000002, 0.988, 0.314, 192.0, 0.0, 0.0, 0.0, 0.0, 0.0, 0.0, 0.0, 0.0, 0.0, 1.652176180749948E9, 0.0, 2022-05-10 11:49:40.749
8.0, -2752.192646526414, 5056.925720802035, -53051.5748919934, -38177.226564553566, -29030.378643319447, -20922.886839257102, -28007.316947855586, -22739.010779739714, -0.154, 0.9480000000000001, 0.304, 192.0, 251.0, 48.0, 29.0, 160.0, 9.0, 128.0, 0.0, 0.0, 0.0, 1.6521761807499523E9, 0.0, 2022-05-10 11:49:40.749
9.0, -2752.8855506045284, 5059.652633625583, -53059.06272638592, -38170.94572436163, -29044.281428370647, -20923.736205546404, -28008.769811245184, -22748.286753688666, -0.154, 0.9480000000000001, 0.304, 192.0, 0.0, 0.0, 0.0, 0.0, 0.0, 0.0, 0.0, 0.0, 0.0, 1.652176180749957E9, 0.0, 2022-05-10 11:49:40.749
10.0, -2752.125591293048, 5056.925720802035, -53053.228921083086, -38178.94764887663, -29036.771242233666, -20920.584609578207, -28010.49089556824, -22751.952439779336, -0.154, 0.9480000000000001, 0.304, 192.0, 0.0, 0.0, 0.0, 0.0, 0.0, 0.0, 0.0, 0.0, 0.0, 1.652176180749972E9, 0.0, 2022-05-10 11:49:40.749
11.0, -2749.5551406806876, 5052.9247585445355, -53051.910168160226, -38158.45109921111, -29043.588524292532, -20913.499106585874, -28009.01568043419, -22747.526794377183, -0.154, 0.9480000000000001, 0.304, 192.0, 0.0, 0.0, 0.0, 0.0, 0.0, 0.0, 0.0, 0.0, 0.0, 1.6521761807499878E9, 0.0, 2022-05-10 11:49:40.749
12.0, -2746.224730756847, 5059.04913652529, -53053.47479027209, -38182.121596589284, -29024.343672316514, -20906.681824527004, -28009.105087412012, -22750.79014906766, -0.154, 0.9480000000000001, 0.304, 192.0, 0.0, 0.0, 0.0, 0.0, 0.0, 0.0, 0.0, 0.0, 0.0, 1.6521761807499924E9, 0.0, 2022-05-10 11:49:40.749
13.0, -2748.705774391386, 5064.949997061491, -53053.094810616356, -38177.04775059793, -29034.75958523269, -20914.259065897353, -28011.340261857542, -22756.020457270202, -0.154, 0.9480000000000001, 0.304, 192.0, 0.0, 0.0, 0.0, 0.0, 0.0, 0.0, 0.0, 0.0, 0.0, 1.652176180749997E9, 0.0, 2022-05-10 11:49:40.749
14.0, -2751.678556403942, 5065.061755783768, -53054.50297051704, -38175.684294186154, -29036.45831781129, -20928.363016648655, -28015.20711364831, -22767.978640553793, -0.154, 0.9480000000000001, 0.304, 192.0, 0.0, 0.0, 0.0, 0.0, 0.0, 0.0, 0.0, 0.0, 0.0, 1.652176180750012E9, 0.0, 2022-05-10 11:49:40.750
15.0, -2754.316062249668, 5061.418421437553, -53058.816857196914, -38192.87278567228, -29042.426233580856, -20932.56514460625, -28017.621102049485, -22765.855224830535, -0.154, 0.9480000000000001, 0.304, 192.0, 0.0, 0.0, 0.0, 0.0, 0.0, 0.0, 0.0, 0.0, 0.0, 1.6521761807500165E9, 0.0, 2022-05-10 11:49:40.750
16.0, -2757.869989618062, 5051.561302132762, -53059.15213336374, -38195.063256628906, -29043.722634759266, -20923.870316013137, -28015.542389815142, -22757.249803215243, -0.154, 0.9480000000000001, 0.304, 192.0, 0.0, 0.0, 0.0, 0.0, 0.0, 0.0, 0.0, 0.0, 0.0, 1.6521761807500322E9, 0.0, 2022-05-10 11:49:40.750
17.0, -2748.839884858118, 5060.7925725928035, -53044.84701691235, -38162.049730068415, -29032.546762531612, -20915.130783931112, -28003.852427465015, -22731.92527674738, -0.14200000000000002, 0.936, 0.28, 192.0, 251.0, 144.0, 29.0, 64.0, 8.0, 192.0, 0.0, 0.0, 0.0, 1.6521761807500367E9, 0.0, 2022-05-10 11:49:40.750
18.0, -2748.191684268914, 5067.118116273656, -53046.858673913324, -38168.196459793624, -29043.02973068115, -20930.419377138543, -28010.69206126834, -22725.175049921876, -0.14200000000000002, 0.936, 0.28, 192.0, 0.0, 0.0, 0.0, 0.0, 0.0, 0.0, 0.0, 0.0, 0.0, 1.652176180750052E9, 0.0, 2022-05-10 11:49:40.750
19.0, -2755.8136291281735, 5063.228912738432, -53061.767287465016, -38178.50061398752, -29063.28041115766, -20936.633162097118, -28029.176953932878, -22736.2168116828, -0.14200000000000002, 0.936, 0.28, 192.0, 0.0, 0.0, 0.0, 0.0, 0.0, 0.0, 0.0, 0.0, 0.0, 1.6521761807500565E9, 0.0, 2022-05-10 11:49:40.750
20.0, -2758.607597185087, 5056.657499868572, -53066.997595667555, -38181.11576808879, -29075.819739797087, -20934.174470207032, -28027.187648676354, -22730.24889591323, -0.14200000000000002, 0.936, 0.28, 192.0, 0.0, 0.0, 0.0, 0.0, 0.0, 0.0, 0.0, 0.0, 0.0, 1.6521761807500608E9, 0.0, 2022-05-10 11:49:40.750
21.0, -2757.4006029845004, 5058.177418491533, -53065.0753456444, -38185.29554430194, -29063.50392860221, -20942.4446156555, -28030.49570685574, -22731.45589011382, -0.14200000000000002, 0.936, 0.28, 192.0, 0.0, 0.0, 0.0, 0.0, 0.0, 0.0, 0.0, 0.0, 0.0, 1.6521761807500763E9, 0.0, 2022-05-10 11:49:40.750
22.0, -2750.091582547615, 5071.297892486798, -53061.25319734254, -38201.23233809857, -29059.257097155703, -20935.87320278564, -28016.816439249094, -22697.660052497395, -0.14200000000000002, 0.936, 0.28, 192.0, 0.0, 0.0, 0.0, 0.0, 0.0, 0.0, 0.0, 0.0, 0.0, 1.6521761807500987E9, 0.0, 2022-05-10 11:49:40.750
23.0, -2761.781544897741, 5065.933473817525, -53079.022834184514, -38180.60167796632, -29071.12587346147, -20956.01212453987, -28031.88151501197, -22711.629892781963, -0.14200000000000002, 0.936, 0.28, 192.0, 0.0, 0.0, 0.0, 0.0, 0.0, 0.0, 0.0, 0.0, 0.0, 1.652176180750115E9, 0.0, 2022-05-10 11:49:40.750
24.0, -2774.902018893006, 5057.596273135695, -53098.04416871598, -38192.962192650106, -29090.080152759572, -20980.755505651894, -28053.674465855893, -22736.03799772716, -0.14200000000000002, 0.936, 0.28, 192.0, 0.0, 0.0, 0.0, 0.0, 0.0, 0.0, 0.0, 0.0, 0.0, 1.6521761807501192E9, 0.0, 2022-05-10 11:49:40.750
25.0, -2772.778603169752, 5054.087049256212, -53095.80899427045, -38203.62397475529, -29086.66033585791, -20967.143293278612, -28046.11957623, -22722.917523731892, -0.14200000000000002, 0.936, 0.28, 192.0, 0.0, 0.0, 0.0, 0.0, 0.0, 0.0, 0.0, 0.0, 0.0, 1.6521761807501345E9, 0.0, 2022-05-10 11:49:40.750
26.0, -2773.873838648062, 5044.788723562804, -53088.20940115564, -38199.06421888641, -29070.768245550185, -20960.3483629642, -28055.484957156776, -22731.29942790263, -0.14200000000000002, 0.936, 0.28, 192.0, 0.0, 0.0, 0.0, 0.0, 0.0, 0.0, 0.0, 0.0, 0.0, 1.652176180750139E9, 0.0, 2022-05-10 11:49:40.750
27.0, -2755.6795186614418, 5062.245435982399, -53071.467944558615, -38208.049620157435, -29065.359123392, -20955.00629603938, -28045.426672151887, -22717.01666319569, -0.148, 0.976, 0.27, 192.0, 251.0, 96.0, 30.0, 128.0, 8.0, 112.0, 0.0, 0.0, 0.0, 1.652176180750154E9, 0.0, 2022-05-10 11:49:40.750
28.0, -2752.6843849044308, 5063.921816816547, -53069.12101139081, -38155.210096265095, -29050.092881929027, -20957.308525718276, -28014.424802592373, -22716.45786958431, -0.148, 0.976, 0.27, 192.0, 0.0, 0.0, 0.0, 0.0, 0.0, 0.0, 0.0, 0.0, 0.0, 1.6521761807501583E9, 0.0, 2022-05-10 11:49:40.750
29.0, -2756.0371465727267, 5057.752735346882, -53078.08406091739, -38183.52975648997, -29055.07732094256, -20963.857586843682, -28028.729919043773, -22721.084680686556, -0.148, 0.976, 0.27, 192.0, 0.0, 0.0, 0.0, 0.0, 0.0, 0.0, 0.0, 0.0, 0.0, 1.652176180750174E9, 0.0, 2022-05-10 11:49:40.750
30.0, -2740.1003527760927, 5067.721613373949, -53054.972357150604, -38170.11870981678, -29032.12207938696, -20933.660380084562, -27987.580357501552, -22689.38990704893, -0.148, 0.976, 0.27, 192.0, 0.0, 0.0, 0.0, 0.0, 0.0, 0.0, 0.0, 0.0, 0.0, 1.6521761807501786E9, 0.0, 2022-05-10 11:49:40.750
31.0, -2719.5590996216656, 5083.0325583258345, -53031.10069407233, -38168.1070528158, -29009.07743085354, -20901.47386806892, -27966.10033108, -22697.190665863833, -0.148, 0.976, 0.27, 192.0, 0.0, 0.0, 0.0, 0.0, 0.0, 0.0, 0.0, 0.0, 0.0, 1.652176180750183E9, 0.0, 2022-05-10 11:49:40.750
32.0, -2702.862346513551, 5095.81775615427, -53020.75183638953, -38155.07598579836, -28997.946262114798, -20882.251367837354, -27944.419138958354, -22669.00511610569, -0.148, 0.976, 0.27, 192.0, 0.0, 0.0, 0.0, 0.0, 0.0, 0.0, 0.0, 0.0, 0.0, 1.6521761807501984E9, 0.0, 2022-05-10 11:49:40.750
33.0, -2697.877907500018, 5107.194794082021, -53016.035618309455, -38119.82728479234, -29005.83642790752, -20875.32232705621, -27933.48913591971, -22657.00222933319, -0.148, 0.976, 0.27, 192.0, 0.0, 0.0, 0.0, 0.0, 0.0, 0.0, 0.0, 0.0, 0.0, 1.652176180750214E9, 0.0, 2022-05-10 11:49:40.750
34.0, -2693.318151631135, 5116.716637219982, -53003.652751881214, -38086.45613032057, -28965.379770443415, -20876.574024745707, -27929.778746340126, -22658.119816555958, -0.148, 0.976, 0.27, 192.0, 0.0, 0.0, 0.0, 0.0, 0.0, 0.0, 0.0, 0.0, 0.0, 1.6521761807502184E9, 0.0, 2022-05-10 11:49:40.750
35.0, -2693.9216487314284, 5111.553384250807, -52993.75092908752, -38111.60184283279, -28957.936639539796, -20872.260138065834, -27935.456089431776, -22647.167461772857, -0.148, 0.976, 0.27, 192.0, 0.0, 0.0, 0.0, 0.0, 0.0, 0.0, 0.0, 0.0, 0.0, 1.652176180750223E9, 0.0, 2022-05-10 11:49:40.750
36.0, -2693.2063929088586, 5108.58060223825, -52989.97348427457, -38114.865197523264, -28969.134863511907, -20865.778132173793, -27940.775804612138, -22655.281145010133, -0.148, 0.976, 0.27, 192.0, 0.0, 0.0, 0.0, 0.0, 0.0, 0.0, 0.0, 0.0, 0.0, 1.652176180750238E9, 0.0, 2022-05-10 11:49:40.750
37.0, -2679.750642746764, 5126.171425124577, -52973.0532137219, -38092.64756353469, -28961.848194819475, -20846.51092845332, -27928.750566095183, -22644.90993558287, -0.18, 0.964, 0.262, 192.0, 250.0, 96.0, 30.0, 32.0, 8.0, 48.0, 0.0, 0.0, 0.0, 1.6521761807502425E9, 0.0, 2022-05-10 11:49:40.750
38.0, -2676.487288056289, 5133.726314750471, -52978.64114983573, -38103.48815959551, -28970.230098990214, -20841.995876073346, -27935.09846152049, -22646.25104025019, -0.18, 0.964, 0.262, 192.0, 0.0, 0.0, 0.0, 0.0, 0.0, 0.0, 0.0, 0.0, 0.0, 1.6521761807502582E9, 0.0, 2022-05-10 11:49:40.750
39.0, -2684.7127300158418, 5134.910957206602, -52984.56436211638, -38108.89728175369, -28965.469177421237, -20849.059027321226, -27943.234496502224, -22645.424025705343, -0.18, 0.964, 0.262, 192.0, 0.0, 0.0, 0.0, 0.0, 0.0, 0.0, 0.0, 0.0, 0.0, 1.6521761807502627E9, 0.0, 2022-05-10 11:49:40.750
40.0, -2701.185965679403, 5122.103407633711, -52992.36512093129, -38112.16063644417, -28987.239776520706, -20873.31067005523, -27957.87488912045, -22662.701924169294, -0.18, 0.964, 0.262, 192.0, 0.0, 0.0, 0.0, 0.0, 0.0, 0.0, 0.0, 0.0, 0.0, 1.6521761807502775E9, 0.0, 2022-05-10 11:49:40.750
41.0, -2705.812776781652, 5114.190890096533, -52997.01428377799, -38125.16935171716, -28991.21838703375, -20876.79754219026, -27959.05953157658, -22668.111046327478, -0.18, 0.964, 0.262, 192.0, 0.0, 0.0, 0.0, 0.0, 0.0, 0.0, 0.0, 0.0, 0.0, 1.6521761807502823E9, 0.0, 2022-05-10 11:49:40.750
42.0, -2719.804968810674, 5099.0587591002895, -53005.86557458229, -38142.64841588121, -28986.92685209833, -20894.053088909757, -27974.14695908391, -22683.086715112535, -0.18, 0.964, 0.262, 192.0, 0.0, 0.0, 0.0, 0.0, 0.0, 0.0, 0.0, 0.0, 0.0, 1.652176180750298E9, 0.0, 2022-05-10 11:49:40.750
43.0, -2720.1849484664144, 5102.098596346212, -53004.34565595933, -38155.634779409746, -29002.394259261404, -20899.0822314122, -27983.19941558831, -22695.804857707604, -0.18, 0.964, 0.262, 192.0, 0.0, 0.0, 0.0, 0.0, 0.0, 0.0, 0.0, 0.0, 0.0, 1.6521761807503047E9, 0.0, 2022-05-10 11:49:40.750
44.0, -2730.0197160267494, 5099.729311433949, -53023.07641781288, -38158.428747466656, -29030.132774130438, -20916.583647320705, -28001.237273363746, -22714.557971305607, -0.18, 0.964, 0.262, 192.0, 0.0, 0.0, 0.0, 0.0, 0.0, 0.0, 0.0, 0.0, 0.0, 1.6521761807503195E9, 0.0, 2022-05-10 11:49:40.750
45.0, -2747.610538913076, 5080.5738664357505, -53039.48259824307, -38144.101279270806, -29042.31447485858, -20935.67203708554, -28027.478221354275, -22729.846564513038, -0.18, 0.964, 0.262, 192.0, 0.0, 0.0, 0.0, 0.0, 0.0, 0.0, 0.0, 0.0, 0.0, 1.6521761807503355E9, 0.0, 2022-05-10 11:49:40.750
46.0, -2751.4326872149336, 5071.7672791203595, -53042.16480757771, -38176.84658489783, -29041.845088225018, -20947.071426757746, -28035.77071854719, -22752.26536420171, -0.18, 0.964, 0.262, 192.0, 0.0, 0.0, 0.0, 0.0, 0.0, 0.0, 0.0, 0.0, 0.0, 1.65217618075034E9, 0.0, 2022-05-10 11:49:40.750
47.0, -2753.7796203827406, 5074.650654155094, -53036.75568541953, -38182.00983786701, -29052.08218718555, -20942.82459531124, -28026.45004110933, -22719.229485896765, -0.216, 0.996, 0.254, 192.0, 249.0, 64.0, 31.0, 32.0, 7.0, 240.0, 0.0, 0.0, 0.0, 1.6521761807503445E9, 0.0, 2022-05-10 11:49:40.750
48.0, -2758.4287832294444, 5074.203619265988, -53036.15218831923, -38169.112881316294, -29053.155070919405, -20934.62150509614, -28020.4150701064, -22684.2043023353, -0.216, 0.996, 0.254, 192.0, 0.0, 0.0, 0.0, 0.0, 0.0, 0.0, 0.0, 0.0, 0.0, 1.6521761807503595E9, 0.0, 2022-05-10 11:49:40.750
49.0, -2763.5920361986205, 5073.153087276589, -53043.97529887859, -38198.43837004166, -29063.36981813548, -20944.389217423108, -28029.84750626654, -22701.370442076975, -0.216, 0.996, 0.254, 192.0, 0.0, 0.0, 0.0, 0.0, 0.0, 0.0, 0.0, 0.0, 0.0, 1.652176180750364E9, 0.0, 2022-05-10 11:49:40.750
50.0, -2776.868972405073, 5053.036517266813, -53054.1229908613, -38212.63172777078, -29058.407730866402, -20958.80609259678, -28039.972846504792, -22719.49770683023, -0.216, 0.996, 0.254, 192.0, 0.0, 0.0, 0.0, 0.0, 0.0, 0.0, 0.0, 0.0, 0.0, 1.6521761807503796E9, 0.0, 2022-05-10 11:49:40.750
51.0, -2760.9768820973495, 5061.016090037357, -53037.60505170883, -38190.88348041576, -29046.47189932727, -20943.159871478067, -28031.590942334053, -22713.038052682645, -0.216, 0.996, 0.254, 192.0, 0.0, 0.0, 0.0, 0.0, 0.0, 0.0, 0.0, 0.0, 0.0, 1.652176180750384E9, 0.0, 2022-05-10 11:49:40.750
52.0, -2752.7961436267074, 5069.465049441463, -53033.80525515143, -38185.27319255748, -29043.968503948272, -20922.551563090274, -28022.69494804084, -22691.267453583176, -0.216, 0.996, 0.254, 192.0, 0.0, 0.0, 0.0, 0.0, 0.0, 0.0, 0.0, 0.0, 0.0, 1.652176180750399E9, 0.0, 2022-05-10 11:49:40.750
53.0, -2762.317986764668, 5064.122982516645, -53044.77996167898, -38202.97577416608, -29053.60210580851, -20945.305638945778, -28026.98648297626, -22691.915654172382, -0.216, 0.996, 0.254, 192.0, 0.0, 0.0, 0.0, 0.0, 0.0, 0.0, 0.0, 0.0, 0.0, 1.6521761807504034E9, 0.0, 2022-05-10 11:49:40.750
54.0, -2772.778603169752, 5058.356232447175, -53068.98690092408, -38211.067105658905, -29074.880966529963, -20968.797322368304, -28048.913544286916, -22717.776622507172, -0.216, 0.996, 0.254, 192.0, 0.0, 0.0, 0.0, 0.0, 0.0, 0.0, 0.0, 0.0, 0.0, 1.6521761807504191E9, 0.0, 2022-05-10 11:49:40.750
55.0, -2783.7756614417626, 5050.376659676631, -53080.78862199648, -38217.86203597332, -29090.147207992937, -20976.307508505288, -28072.78520736518, -22753.2711927022, -0.216, 0.996, 0.254, 192.0, 0.0, 0.0, 0.0, 0.0, 0.0, 0.0, 0.0, 0.0, 0.0, 1.6521761807504237E9, 0.0, 2022-05-10 11:49:40.750
56.0, -2793.342208068634, 5039.446656637986, -53095.451366359164, -38236.503390849044, -29112.56600768161, -20982.521293463862, -28083.156416792444, -22764.40236144094, -0.216, 0.996, 0.254, 192.0, 0.0, 0.0, 0.0, 0.0, 0.0, 0.0, 0.0, 0.0, 0.0, 1.652176180750439E9, 0.0, 2022-05-10 11:49:40.750
57.0, -2796.583211014654, 5033.970479246435, -53102.04513097348, -38251.52376312301, -29110.75551638073, -20966.092761289212, -28075.64623065546, -22748.398512410942, -0.22, 1.004, 0.256, 192.0, 249.0, 32.0, 31.0, 96.0, 8.0, 0.0, 0.0, 0.0, 0.0, 1.6521761807504435E9, 0.0, 2022-05-10 11:49:40.750
58.0, -2795.1974028584245, 5034.32810715772, -53097.552430337964, -38245.600550842355, -29091.443609171347, -20968.70791539048, -28072.382875964988, -22750.20900371182, -0.22, 1.004, 0.256, 192.0, 0.0, 0.0, 0.0, 0.0, 0.0, 0.0, 0.0, 0.0, 0.0, 1.652176180750448E9, 0.0, 2022-05-10 11:49:40.750
59.0, -2794.951533669416, 5034.015182735346, -53097.21715417113, -38238.15741993874, -29092.672955116388, -20984.979985353948, -28075.84739635556, -22738.3178756616, -0.22, 1.004, 0.256, 192.0, 0.0, 0.0, 0.0, 0.0, 0.0, 0.0, 0.0, 0.0, 0.0, 1.6521761807504628E9, 0.0, 2022-05-10 11:49:40.750
60.0, -2791.799937701218, 5035.646860080584, -53092.27741864651, -38244.30414966395, -29088.917862047896, -20982.744810908414, -28073.098131787556, -22736.105052960524, -0.22, 1.004, 0.256, 192.0, 0.0, 0.0, 0.0, 0.0, 0.0, 0.0, 0.0, 0.0, 0.0, 1.6521761807504673E9, 0.0, 2022-05-10 11:49:40.750
61.0, -2805.680371007964, 5020.5817843177065, -53102.06748271793, -38252.64135034577, -29103.98293781077, -20992.95955812449, -28086.55388194965, -22771.644326644462, -0.22, 1.004, 0.256, 192.0, 0.0, 0.0, 0.0, 0.0, 0.0, 0.0, 0.0, 0.0, 0.0, 1.652176180750482E9, 0.0, 2022-05-10 11:49:40.750
62.0, -2807.289696608746, 5016.558470315751, -53106.20255544216, -38242.47130661861, -29117.483391461778, -20986.946938866015, -28086.196254038365, -22759.01559102721, -0.22, 1.004, 0.256, 192.0, 0.0, 0.0, 0.0, 0.0, 0.0, 0.0, 0.0, 0.0, 0.0, 1.6521761807504869E9, 0.0, 2022-05-10 11:49:40.750
63.0, -2809.614278032098, 5021.0511709512675, -53111.72343632262, -38253.1777922127, -29115.404679227435, -20988.66802318907, -28095.069896587123, -22750.54427987865, -0.22, 1.004, 0.256, 192.0, 0.0, 0.0, 0.0, 0.0, 0.0, 0.0, 0.0, 0.0, 0.0, 1.6521761807504911E9, 0.0, 2022-05-10 11:49:40.750
64.0, -2814.3081443677124, 5025.342705886687, -53120.64178236029, -38282.033894304506, -29123.361900253523, -20999.665081461084, -28111.766649695237, -22773.723038878805, -0.22, 1.004, 0.256, 192.0, 0.0, 0.0, 0.0, 0.0, 0.0, 0.0, 0.0, 0.0, 0.0, 1.652176180750505E9, 0.0, 2022-05-10 11:49:40.750
65.0, -2829.3732201305893, 5005.449653321463, -53133.38227669982, -38298.41772299024, -29126.401737499447, -21004.31424430779, -28124.350681823576, -22794.35369901105, -0.22, 1.004, 0.256, 192.0, 0.0, 0.0, 0.0, 0.0, 0.0, 0.0, 0.0, 0.0, 0.0, 1.6521761807505205E9, 0.0, 2022-05-10 11:49:40.750
66.0, -2831.2060631759246, 4996.911286939537, -53136.51152092356, -38289.074693807925, -29137.443499260367, -21007.35408155371, -28117.734565464805, -22788.318728008122, -0.22, 1.004, 0.256, 192.0, 0.0, 0.0, 0.0, 0.0, 0.0, 0.0, 0.0, 0.0, 0.0, 1.6521761807505248E9, 0.0, 2022-05-10 11:49:40.750
67.0, -2819.4266938479777, 5003.862679465137, -53119.12186373733, -38270.902725565764, -29117.550446695146, -20996.379375026154, -28100.52372223422, -22770.07970453259, -0.214, 1.006, 0.26, 192.0, 249.0, 80.0, 31.0, 112.0, 8.0, 32.0, 0.0, 0.0, 0.0, 1.6521761807505293E9, 0.0, 2022-05-10 11:49:40.750
68.0, -2822.578289816176, 5002.543926542274, -53123.480453906115, -38258.16223122623, -29118.153943795438, -21001.073241361766, -28100.434315256396, -22761.094303261558, -0.214, 1.006, 0.26, 192.0, 0.0, 0.0, 0.0, 0.0, 0.0, 0.0, 0.0, 0.0, 0.0, 1.6521761807505445E9, 0.0, 2022-05-10 11:49:40.750
69.0, -2836.011688233815, 4989.870487436115, -53138.21025350216, -38302.91042362576, -29127.653435188942, -21016.987683413947, -28118.203952098367, -22771.532567922186, -0.214, 1.006, 0.26, 192.0, 0.0, 0.0, 0.0, 0.0, 0.0, 0.0, 0.0, 0.0, 0.0, 1.652176180750549E9, 0.0, 2022-05-10 11:49:40.750
70.0, -2826.3780863735783, 4997.023045661813, -53131.6388406323, -38295.17672004423, -29123.853638631543, -21013.25494208991, -28113.219513084834, -22794.46545773333, -0.214, 1.006, 0.26, 192.0, 0.0, 0.0, 0.0, 0.0, 0.0, 0.0, 0.0, 0.0, 0.0, 1.6521761807505646E9, 0.0, 2022-05-10 11:49:40.750
71.0, -2824.545243328243, 4994.162022371534, -53124.75450334007, -38254.16126896874, -29122.691347919867, -21005.007148385903, -28092.164169807933, -22780.83089361559, -0.214, 1.006, 0.26, 192.0, 0.0, 0.0, 0.0, 0.0, 0.0, 0.0, 0.0, 0.0, 0.0, 1.652176180750569E9, 0.0, 2022-05-10 11:49:40.750
72.0, -2814.4646065788993, 4999.928772441002, -53113.71274157915, -38256.26233294753, -29112.09662104805, -20990.947901123513, -28082.150588291956, -22750.521928134196, -0.214, 1.006, 0.26, 192.0, 0.0, 0.0, 0.0, 0.0, 0.0, 0.0, 0.0, 0.0, 0.0, 1.6521761807505841E9, 0.0, 2022-05-10 11:49:40.750
73.0, -2811.7376937553518, 5007.416606833531, -53120.86529980485, -38271.86385057734, -29106.061650045118, -20994.367718025176, -28085.637460426984, -22744.68812283136, -0.214, 1.006, 0.26, 192.0, 0.0, 0.0, 0.0, 0.0, 0.0, 0.0, 0.0, 0.0, 0.0, 1.652176180750589E9, 0.0, 2022-05-10 11:49:40.750
74.0, -2816.543318813243, 5008.08715916719, -53126.833215574414, -38275.84246109038, -29104.497027933245, -21004.91774140808, -28096.343946021076, -22770.102056277046, -0.214, 1.006, 0.26, 192.0, 0.0, 0.0, 0.0, 0.0, 0.0, 0.0, 0.0, 0.0, 0.0, 1.6521761807506044E9, 0.0, 2022-05-10 11:49:40.750
75.0, -2820.4548740929217, 5001.336932341687, -53127.48141616362, -38279.843423347884, -29109.503818691235, -21011.66796823358, -28096.746277421273, -22785.79298088467, -0.214, 1.006, 0.26, 192.0, 0.0, 0.0, 0.0, 0.0, 0.0, 0.0, 0.0, 0.0, 0.0, 1.6521761807506092E9, 0.0, 2022-05-10 11:49:40.750
76.0, -2828.9708887303937, 4983.3661297996205, -53135.70685812317, -38274.14372851178, -29127.04993808865, -21021.748604982928, -28112.012518884247, -22806.535399739194, -0.214, 1.006, 0.26, 192.0, 0.0, 0.0, 0.0, 0.0, 0.0, 0.0, 0.0, 0.0, 0.0, 1.6521761807506137E9, 0.0, 2022-05-10 11:49:40.750
77.0, -2828.9708887303937, 4982.405004788042, -53146.70391639518, -38295.42258923323, -29128.033414844682, -21025.973084684978, -28109.0844403606, -22800.07574559161, -0.178, 0.962, 0.264, 192.0, 250.0, 112.0, 30.0, 16.0, 8.0, 64.0, 0.0, 0.0, 0.0, 1.6521761807506287E9, 0.0, 2022-05-10 11:49:40.750
78.0, -2816.476263579877, 4998.945295684969, -53135.75156161208, -38282.57033617143, -29106.86631284551, -21024.184945128556, -28097.32742277711, -22780.920300593414, -0.178, 0.962, 0.264, 192.0, 0.0, 0.0, 0.0, 0.0, 0.0, 0.0, 0.0, 0.0, 0.0, 1.6521761807506332E9, 0.0, 2022-05-10 11:49:40.750
79.0, -2826.0651619512037, 4992.7538624708495, -53139.12667502483, -38287.10774029586, -29124.34537700956, -21029.884639964657, -28106.178713581412, -22794.733678666795, -0.178, 0.962, 0.264, 192.0, 0.0, 0.0, 0.0, 0.0, 0.0, 0.0, 0.0, 0.0, 0.0, 1.6521761807506487E9, 0.0, 2022-05-10 11:49:40.750
80.0, -2823.695877038941, 4991.792737459271, -53135.21511974515, -38279.508147181055, -29110.66610940291, -21018.373491570175, -28101.41779201243, -22807.205952072854, -0.178, 0.962, 0.264, 192.0, 0.0, 0.0, 0.0, 0.0, 0.0, 0.0, 0.0, 0.0, 0.0, 1.6521761807506533E9, 0.0, 2022-05-10 11:49:40.750
81.0, -2815.671600779486, 4996.643066006072, -53124.84391031789, -38260.7326818386, -29098.797333097144, -21007.97993039846, -28093.54997796416, -22792.409097243442, -0.178, 0.962, 0.264, 192.0, 0.0, 0.0, 0.0, 0.0, 0.0, 0.0, 0.0, 0.0, 0.0, 1.6521761807506704E9, 0.0, 2022-05-10 11:49:40.750
82.0, -2811.670638521986, 4999.057054407246, -53121.9381835387, -38258.56456262643, -29101.94892906534, -21011.600913000217, -28090.733658162793, -22789.302204764153, -0.178, 0.962, 0.264, 192.0, 0.0, 0.0, 0.0, 0.0, 0.0, 0.0, 0.0, 0.0, 0.0, 1.652176180750675E9, 0.0, 2022-05-10 11:49:40.750
83.0, -2819.5161008257987, 4996.352493328153, -53139.46195119166, -38270.343931954376, -29109.839094858064, -21014.81956420178, -28095.114600076035, -22791.47032397632, -0.178, 0.962, 0.264, 192.0, 0.0, 0.0, 0.0, 0.0, 0.0, 0.0, 0.0, 0.0, 0.0, 1.65217618075069E9, 0.0, 2022-05-10 11:49:40.750
84.0, -2820.186653159458, 4997.380673573098, -53148.06737280695, -38276.82593784642, -29114.778830382686, -21020.563962526794, -28101.261329801244, -22793.03494608819, -0.178, 0.962, 0.264, 192.0, 0.0, 0.0, 0.0, 0.0, 0.0, 0.0, 0.0, 0.0, 0.0, 1.6521761807506945E9, 0.0, 2022-05-10 11:49:40.750
85.0, -2818.443217091944, 4994.832574705193, -53142.770009371045, -38263.92898129571, -29115.650548416445, -21023.290875350343, -28099.361431522542, -22790.553902453652, -0.178, 0.962, 0.264, 192.0, 0.0, 0.0, 0.0, 0.0, 0.0, 0.0, 0.0, 0.0, 0.0, 1.6521761807507098E9, 0.0, 2022-05-10 11:49:40.750
86.0, -2798.192536615436, 5009.7188365124275, -53115.25501194657, -38244.99705374206, -29094.617556884, -20999.97800588346, -28074.08160854359, -22766.07874227509, -0.178, 0.962, 0.264, 192.0, 0.0, 0.0, 0.0, 0.0, 0.0, 0.0, 0.0, 0.0, 0.0, 1.6521761807507155E9, 0.0, 2022-05-10 11:49:40.750
87.0, -2785.7873184427403, 5020.626487806617, -53111.097587477874, -38241.04079497347, -29086.168597479893, -20995.507656992395, -28064.78328285018, -22766.41401844192, -0.156, 0.9500000000000001, 0.252, 192.0, 251.0, 32.0, 29.0, 176.0, 7.0, 224.0, 0.0, 0.0, 0.0, 1.652176180750754E9, 0.0, 2022-05-10 11:49:40.750
88.0, -2770.4316700019444, 5042.66530783955, -53099.65349431676, -38229.77551576799, -29071.99759149523, -20985.069392331767, -28055.440253667864, -22755.79693982565, -0.156, 0.9500000000000001, 0.252, 192.0, 0.0, 0.0, 0.0, 0.0, 0.0, 0.0, 0.0, 0.0, 0.0, 1.6521761807507703E9, 0.0, 2022-05-10 11:49:40.750
89.0, -2767.0118531002827, 5047.158008475067, -53103.65445657426, -38233.59766406985, -29073.830434540563, -20986.83518014374, -28065.18561425038, -22753.427654913387, -0.156, 0.9500000000000001, 0.252, 192.0, 0.0, 0.0, 0.0, 0.0, 0.0, 0.0, 0.0, 0.0, 0.0, 1.652176180750775E9, 0.0, 2022-05-10 11:49:40.750
90.0, -2769.805821157196, 5039.670174082538, -53116.4396544027, -38246.94165550967, -29103.111219777016, -20971.121903791656, -28072.069951542613, -22735.45685237132, -0.156, 0.9500000000000001, 0.252, 192.0, 0.0, 0.0, 0.0, 0.0, 0.0, 0.0, 0.0, 0.0, 0.0, 1.6521761807507913E9, 0.0, 2022-05-10 11:49:40.750
91.0, -2761.088640819626, 5044.18522646251, -53101.955723995656, -38229.77551576799, -29071.058818228106, -20987.528084221853, -28067.01845729571, -22740.195422195844, -0.156, 0.9500000000000001, 0.252, 192.0, 0.0, 0.0, 0.0, 0.0, 0.0, 0.0, 0.0, 0.0, 0.0, 1.6521761807507963E9, 0.0, 2022-05-10 11:49:40.750
92.0, -2746.1129720345702, 5056.881017313125, -53085.21426739863, -38217.347945850845, -29055.90433548741, -20999.97800588346, -28064.60446889454, -22750.54427987865, -0.156, 0.9500000000000001, 0.252, 192.0, 0.0, 0.0, 0.0, 0.0, 0.0, 0.0, 0.0, 0.0, 0.0, 1.6521761807508123E9, 0.0, 2022-05-10 11:49:40.750
93.0, -2750.2033412698916, 5058.5573981472735, -53094.24437215857, -38206.75321897903, -29078.032562498163, -21004.649520474617, -28078.015515567724, -22782.619033172017, -0.156, 0.9500000000000001, 0.252, 192.0, 0.0, 0.0, 0.0, 0.0, 0.0, 0.0, 0.0, 0.0, 0.0, 1.652176180750817E9, 0.0, 2022-05-10 11:49:40.750
94.0, -2755.567759939165, 5057.28334871332, -53106.73899730909, -38219.449009829645, -29092.449437671836, -21009.790421699337, -28079.84835861306, -22732.55112559213, -0.156, 0.9500000000000001, 0.252, 192.0, 0.0, 0.0, 0.0, 0.0, 0.0, 0.0, 0.0, 0.0, 0.0, 1.652176180750832E9, 0.0, 2022-05-10 11:49:40.750
95.0, -2760.5298472082436, 5049.013203264857, -53109.06357873244, -38235.00582397054, -29068.980105993764, -21009.052814132312, -28048.801785564636, -22703.71737524478, -0.156, 0.9500000000000001, 0.252, 192.0, 0.0, 0.0, 0.0, 0.0, 0.0, 0.0, 0.0, 0.0, 0.0, 1.6521761807508364E9, 0.0, 2022-05-10 11:49:40.750
96.0, -2762.0050623422935, 5044.565206118251, -53102.82744202941, -38235.318748392914, -29056.79840526562, -20989.71855517847, -28030.518058600195, -22691.87095068347, -0.156, 0.9500000000000001, 0.252, 192.0, 0.0, 0.0, 0.0, 0.0, 0.0, 0.0, 0.0, 0.0, 0.0, 1.652176180750852E9, 0.0, 2022-05-10 11:49:40.750
97.0, -2750.404506969989, 5053.617662622651, -53091.76332852404, -38223.40526859823, -29037.12887014495, -20992.221950557465, -28019.610407306005, -22687.959395403792, -0.164, 0.96, 0.232, 192.0, 250.0, 224.0, 30.0, 0.0, 7.0, 64.0, 0.0, 0.0, 0.0, 1.6521761807508564E9, 0.0, 2022-05-10 11:49:40.750
98.0, -2753.265530260269, 5056.366927190653, -53091.07042444592, -38214.12929464928, -29048.170631905872, -21000.939130895036, -28024.93012248637, -22697.68240424185, -0.164, 0.96, 0.232, 192.0, 0.0, 0.0, 0.0, 0.0, 0.0, 0.0, 0.0, 0.0, 0.0, 1.6521761807508607E9, 0.0, 2022-05-10 11:49:40.750
99.0, -2749.9574720808832, 5067.587502907218, -53085.70600577665, -38219.40430634074, -29042.426233580856, -20992.557226724297, -28027.1652969319, -22704.477334556264, -0.164, 0.96, 0.232, 192.0, 0.0, 0.0, 0.0, 0.0, 0.0, 0.0, 0.0, 0.0, 0.0, 1.652176180750876E9, 0.0, 2022-05-10 11:49:40.750
100.0, -2766.1401350665255, 5051.04721201029, -53103.25212517406, -38246.47226887611, -29057.692475043834, -21002.079069862255, -28040.419881393897, -22728.460756356806, -0.164, 0.96, 0.232, 192.0, 0.0, 0.0, 0.0, 0.0, 0.0, 0.0, 0.0, 0.0, 0.0, 1.6521761807508912E9, 0.0, 2022-05-10 11:49:40.750
101.0, -2758.1382105515254, 5049.57199687624, -53095.80899427045, -38248.327463665904, -29057.871288999475, -20983.951805109, -28041.0680819831, -22722.537544076153, -0.164, 0.96, 0.232, 192.0, 0.0, 0.0, 0.0, 0.0, 0.0, 0.0, 0.0, 0.0, 0.0, 1.6521761807508957E9, 0.0, 2022-05-10 11:49:40.750
102.0, -2744.0342598002267, 5065.374680206141, -53079.849848729355, -38191.79990193843, -29042.69445451432, -20977.939185850526, -28034.764890046703, -22714.26739862769, -0.164, 0.96, 0.232, 192.0, 0.0, 0.0, 0.0, 0.0, 0.0, 0.0, 0.0, 0.0, 0.0, 1.6521761807509003E9, 0.0, 2022-05-10 11:49:40.750
103.0, -2746.4035447124893, 5066.469915684452, -53078.01700568402, -38194.59386999534, -29040.861611468987, -20979.99554634041, -28039.45875638232, -22724.571552821584, -0.164, 0.96, 0.232, 192.0, 0.0, 0.0, 0.0, 0.0, 0.0, 0.0, 0.0, 0.0, 0.0, 1.6521761807509153E9, 0.0, 2022-05-10 11:49:40.750
104.0, -2757.244140773313, 5058.467991169452, -53084.07432843141, -38196.65023048523, -29043.901448714907, -20984.242377786923, -28048.041826253157, -22738.474337872787, -0.164, 0.96, 0.232, 192.0, 0.0, 0.0, 0.0, 0.0, 0.0, 0.0, 0.0, 0.0, 0.0, 1.6521761807509196E9, 0.0, 2022-05-10 11:49:40.750
105.0, -2755.3889459835227, 5055.025822523335, -53083.359072608844, -38206.8202742124, -29057.13368143245, -20991.48434299044, -28060.871727570502, -22728.2148871678, -0.164, 0.96, 0.232, 192.0, 0.0, 0.0, 0.0, 0.0, 0.0, 0.0, 0.0, 0.0, 0.0, 1.6521761807509346E9, 0.0, 2022-05-10 11:49:40.750
106.0, -2745.5541784231878, 5056.590444635206, -53080.632159785295, -38211.89412020375, -29056.910163987897, -20980.464932973973, -28051.1710704769, -22713.39568059393, -0.19, 0.972, 0.234, 192.0, 250.0, 16.0, 30.0, 96.0, 7.0, 80.0, 0.0, 0.0, 0.0, 1.6521761807509391E9, 0.0, 2022-05-10 11:49:40.750
107.0, -2737.574605652643, 5066.469915684452, -53067.77990672349, -38235.63167281529, -29042.158012647393, -20971.56893868076, -28025.712433542307, -22706.488991557242, -0.19, 0.972, 0.234, 192.0, 0.0, 0.0, 0.0, 0.0, 0.0, 0.0, 0.0, 0.0, 0.0, 1.6521761807509568E9, 0.0, 2022-05-10 11:49:40.750
108.0, -2746.4482482014, 5059.518523158851, -53078.039357428475, -38206.84262595685, -29044.951980704307, -20980.084953318234, -28026.1147649425, -22715.653206783918, -0.19, 0.972, 0.234, 192.0, 0.0, 0.0, 0.0, 0.0, 0.0, 0.0, 0.0, 0.0, 0.0, 1.6521761807509613E9, 0.0, 2022-05-10 11:49:40.750
109.0, -2757.244140773313, 5048.8120375647595, -53092.63504655779, -38211.22356787009, -29065.582640836557, -20994.34536628072, -28043.280904684176, -22727.320817389587, -0.19, 0.972, 0.234, 192.0, 0.0, 0.0, 0.0, 0.0, 0.0, 0.0, 0.0, 0.0, 0.0, 1.6521761807509727E9, 0.0, 2022-05-10 11:49:40.750
110.0, -2752.4832192043327, 5053.90823530057, -53097.46302336014, -38231.94363498016, -29056.731350032253, -21000.96148263949, -28050.232297209775, -22730.181840679867, -0.19, 0.972, 0.234, 192.0, 0.0, 0.0, 0.0, 0.0, 0.0, 0.0, 0.0, 0.0, 0.0, 1.6521761807509773E9, 0.0, 2022-05-10 11:49:40.750
111.0, -2736.1664457519587, 5064.704127872483, -53078.68755801768, -38219.6725272742, -29049.13175691745, -20991.3055290348, -28049.427634409385, -22720.749404519727, -0.19, 0.972, 0.234, 192.0, 0.0, 0.0, 0.0, 0.0, 0.0, 0.0, 0.0, 0.0, 0.0, 1.6521761807509944E9, 0.0, 2022-05-10 11:49:40.750
112.0, -2735.9876317963162, 5070.627340153139, -53070.79739222496, -38206.28383234547, -29047.790652250133, -20977.38039223914, -28043.325608173087, -22716.88255272896, -0.19, 0.972, 0.234, 192.0, 0.0, 0.0, 0.0, 0.0, 0.0, 0.0, 0.0, 0.0, 0.0, 1.6521761807510123E9, 0.0, 2022-05-10 11:49:40.751
113.0, -2730.846730571596, 5078.964540834969, -53074.26191261553, -38220.141913907755, -29052.21629765228, -20985.91875862107, -28036.441270880852, -22705.97490143477, -0.19, 0.972, 0.234, 192.0, 0.0, 0.0, 0.0, 0.0, 0.0, 0.0, 0.0, 0.0, 0.0, 1.652176180751017E9, 0.0, 2022-05-10 11:49:40.751
114.0, -2738.625137642043, 5067.475744184941, -53080.565104551926, -38230.24490240156, -29048.170631905872, -21009.991587399436, -28028.17112543239, -22699.02350890917, -0.19, 0.972, 0.234, 192.0, 0.0, 0.0, 0.0, 0.0, 0.0, 0.0, 0.0, 0.0, 0.0, 1.6521761807510333E9, 0.0, 2022-05-10 11:49:40.751
115.0, -2752.907902348984, 5046.28629044131, -53082.84498248637, -38259.168059726726, -29045.80134699361, -21030.21991613149, -28034.83194528007, -22699.78346822065, -0.19, 0.972, 0.234, 192.0, 0.0, 0.0, 0.0, 0.0, 0.0, 0.0, 0.0, 0.0, 0.0, 1.6521761807510495E9, 0.0, 2022-05-10 11:49:40.751
116.0, -2742.1343615215255, 5056.433982424019, -53086.10833717685, -38243.52183860801, -29061.64873381242, -20995.3064912923, -28050.16524197641, -22705.21494212329, -0.222, 0.992, 0.232, 192.0, 249.0, 16.0, 31.0, 0.0, 7.0, 64.0, 0.0, 0.0, 0.0, 1.6521761807510543E9, 0.0, 2022-05-10 11:49:40.751
117.0, -2731.6513933719866, 5065.978177306435, -53073.65841551524, -38220.05250692994, -29075.305649674614, -20950.781816337327, -28067.59960265155, -22710.35584334801, -0.222, 0.992, 0.232, 192.0, 0.0, 0.0, 0.0, 0.0, 0.0, 0.0, 0.0, 0.0, 0.0, 1.6521761807510588E9, 0.0, 2022-05-10 11:49:40.751
118.0, -2725.8846433025174, 5079.165706535066, -53068.8751422018, -38227.51798957801, -29059.257097155703, -20961.398894953596, -28063.88921307197, -22707.1595438909, -0.222, 0.992, 0.232, 192.0, 0.0, 0.0, 0.0, 0.0, 0.0, 0.0, 0.0, 0.0, 0.0, 1.652176180751074E9, 0.0, 2022-05-10 11:49:40.751
119.0, -2742.7602103662744, 5068.392165707608, -53083.89551447577, -38238.671510061205, -29050.048178440116, -20983.929453364548, -28038.25176218173, -22731.25472441372, -0.222, 0.992, 0.232, 192.0, 0.0, 0.0, 0.0, 0.0, 0.0, 0.0, 0.0, 0.0, 0.0, 1.6521761807510786E9, 0.0, 2022-05-10 11:49:40.751
120.0, -2757.6688239179643, 5048.566168375751, -53093.909095991745, -38259.793908571475, -29057.7595302772, -20993.607758713693, -28051.26047745472, -22744.777529809184, -0.222, 0.992, 0.232, 192.0, 0.0, 0.0, 0.0, 0.0, 0.0, 0.0, 0.0, 0.0, 0.0, 1.6521761807510943E9, 0.0, 2022-05-10 11:49:40.751
121.0, -2762.9885390983272, 5036.4291711365195, -53095.8313460149, -38274.38959770079, -29073.495158373735, -21003.598988485217, -28062.74927410475, -22757.96505903781, -0.222, 0.992, 0.232, 192.0, 0.0, 0.0, 0.0, 0.0, 0.0, 0.0, 0.0, 0.0, 0.0, 1.6521761812319353E9, 0.0, 2022-05-10 11:49:41.231
122.0, -2762.3626902535784, 5035.9597845029575, -53089.12582267831, -38272.04266453298, -29072.98106825126, -21005.074203619268, -28068.851300341048, -22756.378085181488, -0.222, 0.992, 0.232, 192.0, 0.0, 0.0, 0.0, 0.0, 0.0, 0.0, 0.0, 0.0, 0.0, 1.6521761812319536E9, 0.0, 2022-05-10 11:49:41.231
123.0, -2743.743687122308, 5057.104534757678, -53075.178334138196, -38257.51403063703, -29061.08994020104, -20994.278311047354, -28061.296410715153, -22749.761968822717, -0.222, 0.992, 0.232, 192.0, 0.0, 0.0, 0.0, 0.0, 0.0, 0.0, 0.0, 0.0, 0.0, 1.652176181231979E9, 0.0, 2022-05-10 11:49:41.231
124.0, -2768.6211787010648, 5037.882034526114, -53101.463985617636, -38273.987266300595, -29078.814873554096, -21007.219971086975, -28079.13310279049, -22770.70555337734, -0.222, 0.992, 0.232, 192.0, 0.0, 0.0, 0.0, 0.0, 0.0, 0.0, 0.0, 0.0, 0.0, 1.65217618123209E9, 0.0, 2022-05-10 11:49:41.232
125.0, -2787.9107341659947, 5007.081330666701, -53125.82738707392, -38305.77144691604, -29093.052934772128, -21032.969180699492, -28099.27202454472, -22797.348832768064, -0.222, 0.992, 0.232, 192.0, 0.0, 0.0, 0.0, 0.0, 0.0, 0.0, 0.0, 0.0, 0.0, 1.6521761812321613E9, 0.0, 2022-05-10 11:49:41.232
126.0, -2775.6843299489415, 5024.247470408377, -53102.581572840405, -38296.60723168936, -29084.983955023763, -21012.29381707833, -28082.150588291956, -22778.75218138125, -0.258, 0.974, 0.232, 192.0, 247.0, 240.0, 30.0, 112.0, 7.0, 64.0, 0.0, 0.0, 0.0, 1.6521761812321682E9, 0.0, 2022-05-10 11:49:41.232
127.0, -2779.1041468506037, 5022.973420974425, -53089.05876744494, -38290.37109498633, -29085.09571374604, -21008.672834476572, -28081.435332469388, -22784.720097150817, -0.258, 0.974, 0.232, 192.0, 0.0, 0.0, 0.0, 0.0, 0.0, 0.0, 0.0, 0.0, 0.0, 1.652176181232175E9, 0.0, 2022-05-10 11:49:41.232
128.0, -2774.387928770534, 5029.0307437218125, -53082.710872019634, -38300.02704859103, -29068.17544319337, -21006.638825731137, -28082.329402247597, -22799.98633861379, -0.258, 0.974, 0.232, 192.0, 0.0, 0.0, 0.0, 0.0, 0.0, 0.0, 0.0, 0.0, 0.0, 1.6521761812321956E9, 0.0, 2022-05-10 11:49:41.232
129.0, -2794.906830180506, 5011.618734791128, -53108.99652349908, -38336.79566822001, -29092.874120816487, -21030.286971364854, -28106.916321148437, -22820.169963856933, -0.258, 0.974, 0.232, 192.0, 0.0, 0.0, 0.0, 0.0, 0.0, 0.0, 0.0, 0.0, 0.0, 1.6521761812322023E9, 0.0, 2022-05-10 11:49:41.232
130.0, -2819.381990359067, 4981.421528032009, -53142.88176809332, -38365.87528775636, -29128.27928403369, -21065.78154155988, -28139.594571542093, -22836.37497858703, -0.258, 0.974, 0.232, 192.0, 0.0, 0.0, 0.0, 0.0, 0.0, 0.0, 0.0, 0.0, 0.0, 1.6521761812322085E9, 0.0, 2022-05-10 11:49:41.232
131.0, -2817.705609524919, 4983.120260610612, -53141.294794236994, -38360.041482453526, -29123.607769442533, -21059.880681023682, -28130.832687715614, -22836.0397024202, -0.258, 0.974, 0.232, 192.0, 0.0, 0.0, 0.0, 0.0, 0.0, 0.0, 0.0, 0.0, 0.0, 1.6521761812322147E9, 0.0, 2022-05-10 11:49:41.232
132.0, -2810.1060164101145, 4993.625580504606, -53136.57857615693, -38359.03565395304, -29117.662205417422, -21063.412256647618, -28117.287530575697, -22832.79869947418, -0.258, 0.974, 0.232, 192.0, 0.0, 0.0, 0.0, 0.0, 0.0, 0.0, 0.0, 0.0, 0.0, 1.6521761812322206E9, 0.0, 2022-05-10 11:49:41.232
133.0, -2821.728923526874, 4982.360301299132, -53152.358907742375, -38387.62353511137, -29149.647551732967, -21082.567701645818, -28137.292341863198, -22845.38273160252, -0.258, 0.974, 0.232, 192.0, 0.0, 0.0, 0.0, 0.0, 0.0, 0.0, 0.0, 0.0, 0.0, 1.6521761812322268E9, 0.0, 2022-05-10 11:49:41.232
134.0, -2841.4878656253654, 4966.982301113881, -53164.942939870714, -38396.65363987132, -29164.757330984754, -21102.661919911137, -28164.09208346511, -22866.862758024068, -0.258, 0.974, 0.232, 192.0, 0.0, 0.0, 0.0, 0.0, 0.0, 0.0, 0.0, 0.0, 0.0, 1.6521761812322333E9, 0.0, 2022-05-10 11:49:41.232
135.0, -2845.3547174161336, 4958.60039694314, -53162.32778576944, -38399.55936665051, -29166.143139140982, -21106.41701297963, -28172.80926380268, -22876.42930465094, -0.258, 0.974, 0.232, 192.0, 0.0, 0.0, 0.0, 0.0, 0.0, 0.0, 0.0, 0.0, 0.0, 1.6521761812322395E9, 0.0, 2022-05-10 11:49:41.232
136.0, -2829.127350941581, 4964.143629568056, -53152.11303855337, -38396.966564293696, -29187.332592884613, -21097.565722175328, -28169.81413004567, -22868.13680745802, -0.294, 0.96, 0.23, 192.0, 246.0, 208.0, 30.0, 0.0, 7.0, 48.0, 0.0, 0.0, 0.0, 1.6521761812322457E9, 0.0, 2022-05-10 11:49:41.232
137.0, -2823.22649040538, 4963.964815612414, -53146.32393673944, -38394.083189258956, -29151.6815604784, -21093.162428517633, -28158.638257818016, -22857.944411986402, -0.294, 0.96, 0.23, 192.0, 0.0, 0.0, 0.0, 0.0, 0.0, 0.0, 0.0, 0.0, 0.0, 1.652176181232252E9, 0.0, 2022-05-10 11:49:41.232
138.0, -2815.2692693792906, 4979.096946608656, -53135.595099400896, -38388.85288105642, -29130.603865457044, -21075.258681208932, -28134.18544938391, -22839.37011234404, -0.294, 0.96, 0.23, 192.0, 0.0, 0.0, 0.0, 0.0, 0.0, 0.0, 0.0, 0.0, 0.0, 1.6521761812322583E9, 0.0, 2022-05-10 11:49:41.232
139.0, -2826.6239555625866, 4972.2126093164225, -53152.984756587124, -38407.717753376695, -29157.20244135886, -21089.384983704687, -28135.437147073408, -22847.684961281415, -0.294, 0.96, 0.23, 192.0, 0.0, 0.0, 0.0, 0.0, 0.0, 0.0, 0.0, 0.0, 0.0, 1.652176181232265E9, 0.0, 2022-05-10 11:49:41.232
140.0, -2822.9135659830054, 4971.854981405138, -53151.800114130994, -38407.226014998676, -29163.14800538397, -21094.816457607325, -28131.32442609363, -22830.80939421766, -0.294, 0.96, 0.23, 192.0, 0.0, 0.0, 0.0, 0.0, 0.0, 0.0, 0.0, 0.0, 0.0, 1.6521761812322712E9, 0.0, 2022-05-10 11:49:41.232
141.0, -2817.146815913536, 4967.138763325067, -53128.62135513084, -38395.80427358202, -29140.37157778401, -21083.08179176829, -28118.963911409846, -22803.89789389347, -0.294, 0.96, 0.23, 192.0, 0.0, 0.0, 0.0, 0.0, 0.0, 0.0, 0.0, 0.0, 0.0, 1.6521761812322776E9, 0.0, 2022-05-10 11:49:41.232
142.0, -2796.963190670394, 4986.473022278908, -53110.829366544414, -38369.92095350277, -29118.846847873552, -21052.862233264714, -28092.253576785755, -22758.59090788256, -0.294, 0.96, 0.23, 192.0, 0.0, 0.0, 0.0, 0.0, 0.0, 0.0, 0.0, 0.0, 0.0, 1.6521761812322838E9, 0.0, 2022-05-10 11:49:41.232
143.0, -2795.9797139143607, 4996.106624139145, -53093.79733726947, -38365.38354937834, -29120.05384207414, -21042.93805872656, -28093.594681453073, -22751.192480467857, -0.294, 0.96, 0.23, 192.0, 0.0, 0.0, 0.0, 0.0, 0.0, 0.0, 0.0, 0.0, 0.0, 1.6521761812322903E9, 0.0, 2022-05-10 11:49:41.232
144.0, -2780.7805276847516, 5013.60804004765, -53087.494145333076, -38360.39911036481, -29117.7739641397, -21039.40648310262, -28094.712268675838, -22764.536471907675, -0.294, 0.96, 0.23, 192.0, 0.0, 0.0, 0.0, 0.0, 0.0, 0.0, 0.0, 0.0, 0.0, 1.652176181232297E9, 0.0, 2022-05-10 11:49:41.232
145.0, -2792.9845801573492, 4999.727606740905, -53105.66611357524, -38376.604125094906, -29130.782679412685, -21043.854480249225, -28093.907605875447, -22782.373163983008, -0.294, 0.96, 0.23, 192.0, 0.0, 0.0, 0.0, 0.0, 0.0, 0.0, 0.0, 0.0, 0.0, 1.6521761812323036E9, 0.0, 2022-05-10 11:49:41.232
146.0, -2787.9777893993605, 4995.905458439048, -53105.21907868613, -38372.5584593485, -29136.705891693342, -21040.68053253657, -28088.61024243954, -22763.038905029167, -0.276, 0.9380000000000001, 0.23800000000000002, 192.0, 247.0, 96.0, 29.0, 80.0, 7.0, 112.0, 0.0, 0.0, 0.0, 1.65217618123231E9, 0.0, 2022-05-10 11:49:41.232
147.0, -2781.4734317628663, 5007.03662717779, -53085.90717147675, -38358.230991152646, -29100.294899975648, -21037.953619713026, -28074.193367265867, -22736.999122738736, -0.276, 0.9380000000000001, 0.23800000000000002, 192.0, 0.0, 0.0, 0.0, 0.0, 0.0, 0.0, 0.0, 0.0, 0.0, 1.6521761812323165E9, 0.0, 2022-05-10 11:49:41.232
148.0, -2774.9243706374614, 5022.325220385221, -53073.904284704244, -38350.58669454893, -29093.008231283216, -21034.422044089086, -28070.997067808756, -22735.92623900488, -0.276, 0.9380000000000001, 0.23800000000000002, 192.0, 0.0, 0.0, 0.0, 0.0, 0.0, 0.0, 0.0, 0.0, 0.0, 1.6521761812323227E9, 0.0, 2022-05-10 11:49:41.232
149.0, -2778.12067009457, 5024.5156913418405, -53079.514572562526, -38350.16201140428, -29105.23463550027, -21032.298628365832, -28081.390628980476, -22731.366483135997, -0.276, 0.9380000000000001, 0.23800000000000002, 192.0, 0.0, 0.0, 0.0, 0.0, 0.0, 0.0, 0.0, 0.0, 0.0, 1.6521761812323296E9, 0.0, 2022-05-10 11:49:41.232
150.0, -2786.6590364764975, 5016.200842404466, -53086.644779043774, -38359.25917139759, -29115.404679227435, -21029.54936379783, -28089.973698851314, -22738.541393106152, -0.276, 0.9380000000000001, 0.23800000000000002, 192.0, 0.0, 0.0, 0.0, 0.0, 0.0, 0.0, 0.0, 0.0, 0.0, 1.6521761812323391E9, 0.0, 2022-05-10 11:49:41.232
151.0, -2781.607542229598, 5016.044380193279, -53077.905246961745, -38362.18724992123, -29113.95181583784, -21025.25782886241, -28082.21764352532, -22733.53460234816, -0.276, 0.9380000000000001, 0.23800000000000002, 192.0, 0.0, 0.0, 0.0, 0.0, 0.0, 0.0, 0.0, 0.0, 0.0, 1.652176181232346E9, 0.0, 2022-05-10 11:49:41.232
152.0, -2765.648396688509, 5031.8470635231815, -53057.72162171861, -38351.32430211596, -29099.311423219613, -21010.550381010817, -28060.290582214664, -22706.466639812785, -0.276, 0.9380000000000001, 0.23800000000000002, 192.0, 0.0, 0.0, 0.0, 0.0, 0.0, 0.0, 0.0, 0.0, 0.0, 1.6521761812323523E9, 0.0, 2022-05-10 11:49:41.232
153.0, -2760.865123375073, 5038.932566515514, -53061.521418276, -38352.33013061644, -29089.588414381557, -21022.95559918351, -28064.671524127905, -22706.243122368232, -0.276, 0.9380000000000001, 0.23800000000000002, 192.0, 0.0, 0.0, 0.0, 0.0, 0.0, 0.0, 0.0, 0.0, 0.0, 1.6521761812323587E9, 0.0, 2022-05-10 11:49:41.232
154.0, -2758.3617279960786, 5048.432057909019, -53055.91113041772, -38358.074528941455, -29093.075286516585, -21031.136337654156, -28071.868785842515, -22710.02056718118, -0.276, 0.9380000000000001, 0.23800000000000002, 192.0, 0.0, 0.0, 0.0, 0.0, 0.0, 0.0, 0.0, 0.0, 0.0, 1.6521761812323651E9, 0.0, 2022-05-10 11:49:41.232
155.0, -2774.9914258708272, 5033.679906568516, -53075.088927160374, -38376.73823556164, -29105.27933898918, -21049.330657640774, -28086.397419738463, -22723.02928245417, -0.276, 0.9380000000000001, 0.23800000000000002, 192.0, 0.0, 0.0, 0.0, 0.0, 0.0, 0.0, 0.0, 0.0, 0.0, 1.652176181232371E9, 0.0, 2022-05-10 11:49:41.232
156.0, -2774.3655770260784, 5026.236775664899, -53077.45821207264, -38377.989933251134, -29103.290033732657, -21042.78159651537, -28082.28469875869, -22720.25766614171, -0.262, 0.9560000000000001, 0.248, 192.0, 247.0, 208.0, 29.0, 224.0, 7.0, 192.0, 0.0, 0.0, 0.0, 1.6521761812323782E9, 0.0, 2022-05-10 11:49:41.232
157.0, -2751.7903151262185, 5047.560339875262, -53060.51558977552, -38358.722729530666, -29082.949946278328, -21026.330712596264, -28067.107864273534, -22703.404450822407, -0.262, 0.9560000000000001, 0.248, 192.0, 0.0, 0.0, 0.0, 0.0, 0.0, 0.0, 0.0, 0.0, 0.0, 1.652176181232385E9, 0.0, 2022-05-10 11:49:41.232
158.0, -2753.511399449277, 5052.9247585445355, -53074.9771684381, -38361.33788363193, -29094.95283305083, -21036.411349345606, -28075.914451588924, -22697.749459475217, -0.262, 0.9560000000000001, 0.248, 192.0, 0.0, 0.0, 0.0, 0.0, 0.0, 0.0, 0.0, 0.0, 0.0, 1.652176181232391E9, 0.0, 2022-05-10 11:49:41.232
159.0, -2767.3918327560227, 5043.089990984201, -53083.627293542304, -38378.012284995595, -29114.130629793483, -21057.220823433498, -28097.729754177304, -22714.49091607224, -0.262, 0.9560000000000001, 0.248, 192.0, 0.0, 0.0, 0.0, 0.0, 0.0, 0.0, 0.0, 0.0, 0.0, 1.6521761812323976E9, 0.0, 2022-05-10 11:49:41.232
160.0, -2767.3918327560227, 5047.985023019913, -53087.31533137743, -38381.78972980854, -29108.162714023914, -21055.611497832717, -28087.35854475004, -22714.49091607224, -0.262, 0.9560000000000001, 0.248, 192.0, 0.0, 0.0, 0.0, 0.0, 0.0, 0.0, 0.0, 0.0, 0.0, 1.652176181232404E9, 0.0, 2022-05-10 11:49:41.232
161.0, -2763.4355739874336, 5049.326127687232, -53081.01213944103, -38369.22804942466, -29100.674879631388, -21042.2675063929, -28080.80948362464, -22711.562837548594, -0.262, 0.9560000000000001, 0.248, 192.0, 0.0, 0.0, 0.0, 0.0, 0.0, 0.0, 0.0, 0.0, 0.0, 1.6521761812324104E9, 0.0, 2022-05-10 11:49:41.232
162.0, -2770.9457601244167, 5039.446656637986, -53089.52815407851, -38377.94522976223, -29108.96737682431, -21049.084788451768, -28085.95038484936, -22706.332529346055, -0.262, 0.9560000000000001, 0.248, 192.0, 0.0, 0.0, 0.0, 0.0, 0.0, 0.0, 0.0, 0.0, 0.0, 1.652176181232417E9, 0.0, 2022-05-10 11:49:41.232
163.0, -2761.6921379199193, 5052.567130633251, -53083.96256970913, -38372.133776203846, -29095.288109217658, -21046.15670992812, -28061.51992815971, -22701.2586833547, -0.262, 0.9560000000000001, 0.248, 192.0, 0.0, 0.0, 0.0, 0.0, 0.0, 0.0, 0.0, 0.0, 0.0, 1.6521761812324288E9, 0.0, 2022-05-10 11:49:41.232
164.0, -2760.3063297636904, 5056.590444635206, -53079.35811035134, -38367.21639242368, -29101.5689494096, -21045.039122705355, -28075.55682367764, -22707.360709590997, -0.262, 0.9560000000000001, 0.248, 192.0, 0.0, 0.0, 0.0, 0.0, 0.0, 0.0, 0.0, 0.0, 0.0, 1.6521761812324357E9, 0.0, 2022-05-10 11:49:41.232
165.0, -2770.543428724221, 5048.230892208921, -53085.14721216526, -38372.37964539285, -29112.00721407023, -21047.140186684155, -28094.868730887025, -22726.3149888891, -0.262, 0.9560000000000001, 0.248, 192.0, 0.0, 0.0, 0.0, 0.0, 0.0, 0.0, 0.0, 0.0, 0.0, 1.6521761812324424E9, 0.0, 2022-05-10 11:49:41.232
166.0, -2771.21398105788, 5045.772200318837, -53090.53398257899, -38372.40199713731, -29110.017908813705, -21040.188794158556, -28077.836701612083, -22724.616256310495, -0.232, 0.96, 0.254, 192.0, 248.0, 192.0, 30.0, 0.0, 7.0, 240.0, 0.0, 0.0, 0.0, 1.652176181232449E9, 0.0, 2022-05-10 11:49:41.232
167.0, -2760.3733849970563, 5057.260996968866, -53088.49997383356, -38359.52739233105, -29087.107370747017, -21024.8107939733, -28048.73473033127, -22651.503700197187, -0.232, 0.96, 0.254, 192.0, 0.0, 0.0, 0.0, 0.0, 0.0, 0.0, 0.0, 0.0, 0.0, 1.6521761812324557E9, 0.0, 2022-05-10 11:49:41.232
168.0, -2762.3403385091233, 5063.027747038334, -53075.31244460493, -38344.59642703491, -29088.269661458693, -21022.240343360943, -28053.383893177976, -22644.015865804657, -0.232, 0.96, 0.254, 192.0, 0.0, 0.0, 0.0, 0.0, 0.0, 0.0, 0.0, 0.0, 0.0, 1.6521761812324626E9, 0.0, 2022-05-10 11:49:41.232
169.0, -2782.1439840965254, 5046.487456141407, -53100.8828402618, -38369.71978780267, -29109.61557741351, -21043.1168726822, -28082.329402247597, -22684.316061057576, -0.232, 0.96, 0.254, 192.0, 0.0, 0.0, 0.0, 0.0, 0.0, 0.0, 0.0, 0.0, 0.0, 1.6521761812324698E9, 0.0, 2022-05-10 11:49:41.232
170.0, -2785.0720626201705, 5046.599214863684, -53107.342494409386, -38374.01132273809, -29123.80893514263, -21040.524070325384, -28099.98728036729, -22701.07986939906, -0.232, 0.96, 0.254, 192.0, 0.0, 0.0, 0.0, 0.0, 0.0, 0.0, 0.0, 0.0, 0.0, 1.6521761812324765E9, 0.0, 2022-05-10 11:49:41.232
171.0, -2783.842716675129, 5044.296985184787, -53104.83909903039, -38374.83833728294, -29116.745783894752, -21035.047892933835, -28101.283681545698, -22705.326700845566, -0.232, 0.96, 0.254, 192.0, 0.0, 0.0, 0.0, 0.0, 0.0, 0.0, 0.0, 0.0, 0.0, 1.6521761812324865E9, 0.0, 2022-05-10 11:49:41.232
172.0, -2781.4287282739556, 5041.324203172231, -53106.67194207573, -38372.24553492612, -29103.893530832953, -21041.753416270425, -28070.237108497276, -22704.991424678734, -0.232, 0.96, 0.254, 192.0, 0.0, 0.0, 0.0, 0.0, 0.0, 0.0, 0.0, 0.0, 0.0, 1.6521761812324932E9, 0.0, 2022-05-10 11:49:41.232
173.0, -2779.1935538284247, 5044.7663718183485, -53105.97903799761, -38372.22318318167, -29101.837170343064, -21052.817529775803, -28062.570460149105, -22707.964206691293, -0.232, 0.96, 0.254, 192.0, 0.0, 0.0, 0.0, 0.0, 0.0, 0.0, 0.0, 0.0, 0.0, 1.6521761812324991E9, 0.0, 2022-05-10 11:49:41.232
174.0, -2781.4957835073214, 5045.7051450854715, -53115.81380555795, -38380.44862514122, -29106.352222723035, -21064.842768292758, -28074.46158819933, -22716.72609051777, -0.232, 0.96, 0.254, 192.0, 0.0, 0.0, 0.0, 0.0, 0.0, 0.0, 0.0, 0.0, 0.0, 1.652176181232505E9, 0.0, 2022-05-10 11:49:41.232
175.0, -2781.4957835073214, 5042.307679928265, -53116.73022708062, -38387.087093244445, -29119.271531018203, -21077.69502135456, -28088.61024243954, -22725.2644568997, -0.232, 0.96, 0.254, 192.0, 0.0, 0.0, 0.0, 0.0, 0.0, 0.0, 0.0, 0.0, 0.0, 1.6521761812325187E9, 0.0, 2022-05-10 11:49:41.232
176.0, -2786.2343533318467, 5033.031705979312, -53116.0373230025, -38395.17842473727, -29115.114106549518, -21087.37332670371, -28085.70451566035, -22730.718282546793, -0.226, 0.9400000000000001, 0.254, 192.0, 248.0, 240.0, 29.0, 96.0, 7.0, 240.0, 0.0, 0.0, 0.0, 1.652176181232525E9, 0.0, 2022-05-10 11:49:41.232
177.0, -2781.093452107126, 5038.686697326505, -53117.51253813655, -38391.73625609115, -29109.503818691235, -21078.11970449921, -28075.378009721997, -22722.604599309518, -0.226, 0.9400000000000001, 0.254, 192.0, 0.0, 0.0, 0.0, 0.0, 0.0, 0.0, 0.0, 0.0, 0.0, 1.6521761812325315E9, 0.0, 2022-05-10 11:49:41.232
178.0, -2781.5628387406873, 5043.8275985512255, -53132.354096454874, -38393.032657269556, -29118.936254851375, -21095.17408551861, -28092.14181806348, -22731.791166280647, -0.226, 0.9400000000000001, 0.254, 192.0, 0.0, 0.0, 0.0, 0.0, 0.0, 0.0, 0.0, 0.0, 0.0, 1.6521761812325385E9, 0.0, 2022-05-10 11:49:41.232
179.0, -2775.438460759933, 5055.271691712343, -53118.384256170306, -38383.75668332061, -29105.346394222546, -21096.448134952563, -28065.900870072946, -22722.78341326516, -0.226, 0.9400000000000001, 0.254, 192.0, 0.0, 0.0, 0.0, 0.0, 0.0, 0.0, 0.0, 0.0, 0.0, 1.652176181232545E9, 0.0, 2022-05-10 11:49:41.232
180.0, -2782.903943408006, 5053.595310878195, -53120.46296840465, -38388.1599769783, -29099.75845810872, -21099.01858556492, -28065.945573561858, -22722.604599309518, -0.226, 0.9400000000000001, 0.254, 192.0, 0.0, 0.0, 0.0, 0.0, 0.0, 0.0, 0.0, 0.0, 0.0, 1.6521761812325516E9, 0.0, 2022-05-10 11:49:41.232
181.0, -2780.601713729109, 5048.901444542581, -53123.07812250592, -38388.71877058969, -29108.69915589084, -21090.16729476062, -28072.137006775978, -22713.64154978294, -0.226, 0.9400000000000001, 0.254, 192.0, 0.0, 0.0, 0.0, 0.0, 0.0, 0.0, 0.0, 0.0, 0.0, 1.6521761812325583E9, 0.0, 2022-05-10 11:49:41.232
182.0, -2785.563800998187, 5043.805246806771, -53127.682581863715, -38390.41750316829, -29118.936254851375, -21094.12355352921, -28081.770608636216, -22715.27322712818, -0.226, 0.9400000000000001, 0.254, 192.0, 0.0, 0.0, 0.0, 0.0, 0.0, 0.0, 0.0, 0.0, 0.0, 1.6521761812325647E9, 0.0, 2022-05-10 11:49:41.232
183.0, -2783.4627370193884, 5056.255168468377, -53137.15972151276, -38390.28339270155, -29118.489219962266, -21096.98457681949, -28081.636498169482, -22716.904904473413, -0.226, 0.9400000000000001, 0.254, 192.0, 0.0, 0.0, 0.0, 0.0, 0.0, 0.0, 0.0, 0.0, 0.0, 1.6521761812325711E9, 0.0, 2022-05-10 11:49:41.232
184.0, -2773.158582825492, 5076.818773367259, -53136.4444656902, -38389.14345373434, -29124.278321776193, -21098.124515786712, -28082.955251092346, -22714.78148875016, -0.226, 0.9400000000000001, 0.254, 192.0, 0.0, 0.0, 0.0, 0.0, 0.0, 0.0, 0.0, 0.0, 0.0, 1.652176181232578E9, 0.0, 2022-05-10 11:49:41.232
185.0, -2789.095376622126, 5054.467028911952, -53146.5921576729, -38400.02875328407, -29134.358958525536, -21104.56181818984, -28092.99118435278, -22723.83394525456, -0.224, 0.96, 0.254, 192.0, 249.0, 0.0, 30.0, 0.0, 7.0, 240.0, 0.0, 0.0, 0.0, 1.6521761812325847E9, 0.0, 2022-05-10 11:49:41.232
186.0, -2800.7182837388855, 5033.925775757525, -53140.60189015888, -38396.60893638241, -29130.112127079028, -21098.862123353734, -28087.55971045014, -22719.87768648597, -0.224, 0.96, 0.254, 192.0, 0.0, 0.0, 0.0, 0.0, 0.0, 0.0, 0.0, 0.0, 0.0, 1.6521761812325957E9, 0.0, 2022-05-10 11:49:41.232
187.0, -2797.4549290484106, 5038.798456048782, -53138.880805835826, -38399.00057303913, -29130.000368356752, -21096.470486697017, -28089.906643617946, -22722.82811675407, -0.224, 0.96, 0.254, 192.0, 0.0, 0.0, 0.0, 0.0, 0.0, 0.0, 0.0, 0.0, 0.0, 1.6521761812326021E9, 0.0, 2022-05-10 11:49:41.232
188.0, -2795.063292391693, 5047.1133049861555, -53135.81861684545, -38399.55936665051, -29117.61750192851, -21102.617216422226, -28084.162245292933, -22723.766890021194, -0.224, 0.96, 0.254, 192.0, 0.0, 0.0, 0.0, 0.0, 0.0, 0.0, 0.0, 0.0, 0.0, 1.652176181232609E9, 0.0, 2022-05-10 11:49:41.232
189.0, -2805.4568535634107, 5044.18522646251, -53148.67086990725, -38412.970413323696, -29124.01010084273, -21114.485992727994, -28099.27202454472, -22741.98356175227, -0.224, 0.96, 0.254, 192.0, 0.0, 0.0, 0.0, 0.0, 0.0, 0.0, 0.0, 0.0, 0.0, 1.6521761812326157E9, 0.0, 2022-05-10 11:49:41.232
190.0, -2818.9349554699606, 5024.985077975402, -53157.61156768937, -38431.29884377705, -29142.182069084894, -21127.070024856333, -28116.95225440887, -22752.60064036854, -0.224, 0.96, 0.254, 192.0, 0.0, 0.0, 0.0, 0.0, 0.0, 0.0, 0.0, 0.0, 0.0, 1.6521761812326224E9, 0.0, 2022-05-10 11:49:41.232
191.0, -2812.609411789109, 5024.314525641743, -53135.170416256246, -38414.89266334685, -29131.855563146542, -21114.307178772353, -28107.028079870714, -22747.012704254714, -0.224, 0.96, 0.254, 192.0, 0.0, 0.0, 0.0, 0.0, 0.0, 0.0, 0.0, 0.0, 0.0, 1.6521761812326293E9, 0.0, 2022-05-10 11:49:41.232
192.0, -2794.12451912457, 5040.676002583027, -53117.065503247446, -38404.141474263844, -29112.454248959333, -21088.893245326668, -28085.12337030451, -22720.503535330718, -0.224, 0.96, 0.254, 192.0, 0.0, 0.0, 0.0, 0.0, 0.0, 0.0, 0.0, 0.0, 0.0, 1.652176181232639E9, 0.0, 2022-05-10 11:49:41.232
193.0, -2783.798013186218, 5060.52435165934, -53113.95861076815, -38400.00640153961, -29097.389173196458, -21074.74459108646, -28084.430466226397, -22729.421881368387, -0.224, 0.96, 0.254, 192.0, 0.0, 0.0, 0.0, 0.0, 0.0, 0.0, 0.0, 0.0, 0.0, 1.6521761812326455E9, 0.0, 2022-05-10 11:49:41.232
194.0, -2786.6813882209526, 5059.607930136673, -53104.190898441186, -38401.436913184756, -29091.220091726795, -21071.995326518456, -28087.470303472317, -22747.72796007728, -0.224, 0.96, 0.254, 192.0, 0.0, 0.0, 0.0, 0.0, 0.0, 0.0, 0.0, 0.0, 0.0, 1.6521761812326517E9, 0.0, 2022-05-10 11:49:41.232
195.0, -2791.151737112014, 5047.8732642976365, -53104.190898441186, -38409.37178246639, -29095.981013295772, -21072.196492218554, -28084.31870750412, -22718.98361670776, -0.256, 0.9560000000000001, 0.25, 192.0, 248.0, 0.0, 29.0, 224.0, 7.0, 208.0, 0.0, 0.0, 0.0, 1.6521761812326584E9, 0.0, 2022-05-10 11:49:41.232
196.0, -2786.3014085652126, 5044.364040418153, -53086.19774415466, -38406.13077952037, -29095.645737128943, -21070.676573595592, -28079.75895163524, -22704.142058389432, -0.256, 0.9560000000000001, 0.25, 192.0, 0.0, 0.0, 0.0, 0.0, 0.0, 0.0, 0.0, 0.0, 0.0, 1.6521761812326653E9, 0.0, 2022-05-10 11:49:41.232
197.0, -2791.3305510676564, 5030.483607111408, -53094.9819797256, -38414.51268369111, -29099.601995897534, -21071.727105584992, -28083.759913892736, -22707.986558435747, -0.256, 0.9560000000000001, 0.25, 192.0, 0.0, 0.0, 0.0, 0.0, 0.0, 0.0, 0.0, 0.0, 0.0, 1.6521761812326725E9, 0.0, 2022-05-10 11:49:41.232
198.0, -2790.9058679230056, 5032.741133301393, -53098.781776283, -38416.18906452526, -29103.401792454933, -21069.626041606196, -28079.714248146327, -22712.658073026905, -0.256, 0.9560000000000001, 0.25, 192.0, 0.0, 0.0, 0.0, 0.0, 0.0, 0.0, 0.0, 0.0, 0.0, 1.652176181232679E9, 0.0, 2022-05-10 11:49:41.232
199.0, -2790.9282196674612, 5042.911177028558, -53094.87022100332, -38415.69732614724, -29095.19870223984, -21074.766942830916, -28083.93872784838, -22719.49770683023, -0.256, 0.9560000000000001, 0.25, 192.0, 0.0, 0.0, 0.0, 0.0, 0.0, 0.0, 0.0, 0.0, 0.0, 1.6521761812326856E9, 0.0, 2022-05-10 11:49:41.232
200.0, -2802.059388406204, 5031.131807700612, -53113.01983750104, -38426.090887318955, -29109.481466946778, -21080.35487894474, -28087.157379049946, -22689.948700660312, -0.256, 0.9560000000000001, 0.25, 192.0, 0.0, 0.0, 0.0, 0.0, 0.0, 0.0, 0.0, 0.0, 0.0, 1.652176181232692E9, 0.0, 2022-05-10 11:49:41.232
201.0, -2804.5627837851985, 5018.9948104613795, -53117.691352092195, -38417.2172447702, -29115.51643794971, -21077.627966121196, -28084.341059248574, -22661.29376426861, -0.256, 0.9560000000000001, 0.25, 192.0, 0.0, 0.0, 0.0, 0.0, 0.0, 0.0, 0.0, 0.0, 0.0, 1.6521761812326992E9, 0.0, 2022-05-10 11:49:41.232
202.0, -2789.385949300045, 5033.098761212678, -53096.72541579312, -38399.91699456179, -29110.867275103006, -21057.869024022704, -28075.623878911007, -22646.787482117117, -0.256, 0.9560000000000001, 0.25, 192.0, 0.0, 0.0, 0.0, 0.0, 0.0, 0.0, 0.0, 0.0, 0.0, 1.6521761812327054E9, 0.0, 2022-05-10 11:49:41.232
203.0, -2764.5978646991093, 5063.586540649717, -53074.820706226914, -38370.43504362524, -29090.728353348775, -21029.325846353277, -28053.585058878074, -22652.509528697676, -0.256, 0.9560000000000001, 0.25, 192.0, 0.0, 0.0, 0.0, 0.0, 0.0, 0.0, 0.0, 0.0, 0.0, 1.6521761812327118E9, 0.0, 2022-05-10 11:49:41.232
204.0, -2774.2985217927126, 5060.501999914885, -53094.22202041412, -38380.11334897439, -29100.652527886934, -21052.77282628689, -28063.68804737187, -22658.90212761189, -0.256, 0.9560000000000001, 0.25, 192.0, 0.0, 0.0, 0.0, 0.0, 0.0, 0.0, 0.0, 0.0, 0.0, 1.6521761812327182E9, 0.0, 2022-05-10 11:49:41.232
205.0, -2788.156603355003, 5045.61573810765, -53113.31041017895, -38392.85384331392, -29119.830324629587, -21077.784428332383, -28102.088344346088, -22648.15093852889, -0.23, 0.99, 0.262, 192.0, 248.0, 208.0, 30.0, 240.0, 8.0, 48.0, 0.0, 0.0, 0.0, 1.652176181232725E9, 0.0, 2022-05-10 11:49:41.232
206.0, -2790.9282196674612, 5040.564243860751, -53117.55724162546, -38389.03169501206, -29129.173353811904, -21075.817474820313, -28097.014498354736, -22651.190775774812, -0.23, 0.99, 0.262, 192.0, 0.0, 0.0, 0.0, 0.0, 0.0, 0.0, 0.0, 0.0, 0.0, 1.652176181232731E9, 0.0, 2022-05-10 11:49:41.232
207.0, -2783.21686783038, 5045.146351474089, -53114.71857007964, -38379.64396234083, -29102.105391276527, -21067.16734971611, -28056.69195135736, -22644.373493715942, -0.23, 0.99, 0.262, 192.0, 0.0, 0.0, 0.0, 0.0, 0.0, 0.0, 0.0, 0.0, 0.0, 1.652176181232739E9, 0.0, 2022-05-10 11:49:41.232
208.0, -2777.807745672196, 5050.823694565737, -53115.47852939112, -38379.08516872945, -29105.5699116671, -21062.428779891587, -28052.802747822137, -22632.23649647671, -0.23, 0.99, 0.262, 192.0, 0.0, 0.0, 0.0, 0.0, 0.0, 0.0, 0.0, 0.0, 0.0, 1.6521761812327456E9, 0.0, 2022-05-10 11:49:41.232
209.0, -2787.0166643877824, 5049.169665476044, -53125.53681439601, -38384.24842169863, -29114.868237360508, -21072.55412012984, -28065.051503783645, -22647.279220495133, -0.23, 0.99, 0.262, 192.0, 0.0, 0.0, 0.0, 0.0, 0.0, 0.0, 0.0, 0.0, 0.0, 1.6521761812327569E9, 0.0, 2022-05-10 11:49:41.232
210.0, -2800.2041936164137, 5034.708086813461, -53147.955614084676, -38397.25713697161, -29126.80406889964, -21094.74940237396, -28072.204062009343, -22663.528938714142, -0.23, 0.99, 0.262, 192.0, 0.0, 0.0, 0.0, 0.0, 0.0, 0.0, 0.0, 0.0, 0.0, 1.6521761812327633E9, 0.0, 2022-05-10 11:49:41.232
211.0, -2790.034149889249, 5038.6643455820495, -53133.71755286665, -38389.72459909017, -29104.98876631126, -21093.475352940008, -28073.70162888785, -22669.67566843935, -0.23, 0.99, 0.262, 192.0, 0.0, 0.0, 0.0, 0.0, 0.0, 0.0, 0.0, 0.0, 0.0, 1.6521761812327695E9, 0.0, 2022-05-10 11:49:41.232
212.0, -2779.282960806246, 5044.498150884885, -53123.27928820602, -38374.32424716047, -29092.740010349753, -21087.350974959252, -28067.621954396007, -22677.83405516554, -0.23, 0.99, 0.262, 192.0, 0.0, 0.0, 0.0, 0.0, 0.0, 0.0, 0.0, 0.0, 0.0, 1.652176181232776E9, 0.0, 2022-05-10 11:49:41.232
213.0, -2784.602675986609, 5040.8324647942145, -53133.829311588925, -38379.97923850766, -29094.170521994893, -21096.068155296824, -28066.102035773045, -22679.91276739988, -0.23, 0.99, 0.262, 192.0, 0.0, 0.0, 0.0, 0.0, 0.0, 0.0, 0.0, 0.0, 0.0, 1.6521761812327828E9, 0.0, 2022-05-10 11:49:41.232
214.0, -2786.9496091544165, 5042.128865972622, -53137.2938319795, -38380.33686641895, -29094.505798161725, -21091.59780640576, -28058.07775951359, -22665.384133503932, -0.23, 0.99, 0.262, 192.0, 0.0, 0.0, 0.0, 0.0, 0.0, 0.0, 0.0, 0.0, 0.0, 1.6521761812327926E9, 0.0, 2022-05-10 11:49:41.232
215.0, -2800.1147866385922, 5023.845139008181, -53152.6941839092, -38393.524395647575, -29101.90422557643, -21104.964149590036, -28070.035942797178, -22686.618290736475, -0.20400000000000001, 0.97, 0.274, 192.0, 249.0, 160.0, 30.0, 80.0, 8.0, 144.0, 0.0, 0.0, 0.0, 1.6521761812327998E9, 0.0, 2022-05-10 11:49:41.232
216.0, -2803.2663826067906, 5011.842252235681, -53155.44344847721, -38395.60310788192, -29109.99555706925, -21109.92623685911, -28080.74242839127, -22706.958378190804, -0.20400000000000001, 0.97, 0.274, 192.0, 0.0, 0.0, 0.0, 0.0, 0.0, 0.0, 0.0, 0.0, 0.0, 1.6521761812328067E9, 0.0, 2022-05-10 11:49:41.232
217.0, -2792.358731312601, 5021.162929673545, -53131.169453998744, -38381.2085844527, -29087.017963769194, -21091.195475005567, -28068.381913707486, -22704.387927578442, -0.20400000000000001, 0.97, 0.274, 192.0, 0.0, 0.0, 0.0, 0.0, 0.0, 0.0, 0.0, 0.0, 0.0, 1.652176181232813E9, 0.0, 2022-05-10 11:49:41.232
218.0, -2790.8611644340954, 5026.259127409355, -53138.791398858004, -38377.654657084306, -29079.396018909934, -21092.044841294868, -28062.056370026636, -22679.957470888792, -0.20400000000000001, 0.97, 0.274, 192.0, 0.0, 0.0, 0.0, 0.0, 0.0, 0.0, 0.0, 0.0, 0.0, 1.6521761812328193E9, 0.0, 2022-05-10 11:49:41.232
219.0, -2783.3733300415674, 5038.843159537692, -53139.350192469385, -38367.64107556833, -29080.267736943693, -21087.239216236976, -28061.51992815971, -22670.793255662116, -0.20400000000000001, 0.97, 0.274, 192.0, 0.0, 0.0, 0.0, 0.0, 0.0, 0.0, 0.0, 0.0, 0.0, 1.6521761812328255E9, 0.0, 2022-05-10 11:49:41.232
220.0, -2785.02735913126, 5040.452485138475, -53139.506654680576, -38373.69839831572, -29091.622423126988, -21093.989443062477, -28070.482977686286, -22691.423915794363, -0.20400000000000001, 0.97, 0.274, 192.0, 0.0, 0.0, 0.0, 0.0, 0.0, 0.0, 0.0, 0.0, 0.0, 1.652176181232832E9, 0.0, 2022-05-10 11:49:41.232
221.0, -2792.0458068902262, 5030.684772811505, -53139.059619791464, -38372.5584593485, -29096.249234229235, -21101.589036177284, -28067.666657884918, -22689.72518321576, -0.20400000000000001, 0.97, 0.274, 192.0, 0.0, 0.0, 0.0, 0.0, 0.0, 0.0, 0.0, 0.0, 0.0, 1.6521761812328384E9, 0.0, 2022-05-10 11:49:41.232
222.0, -2785.2955800647237, 5032.271746667832, -53138.52317792454, -38368.132813946344, -29097.031545285172, -21101.723146644013, -28060.335285703575, -22678.39284877692, -0.20400000000000001, 0.97, 0.274, 192.0, 0.0, 0.0, 0.0, 0.0, 0.0, 0.0, 0.0, 0.0, 0.0, 1.6521761812328446E9, 0.0, 2022-05-10 11:49:41.232
223.0, -2775.729033437852, 5045.503979385374, -53137.71851512415, -38359.3038748865, -29090.84011207105, -21099.46562045403, -28052.735692588773, -22676.090619098024, -0.20400000000000001, 0.97, 0.274, 192.0, 0.0, 0.0, 0.0, 0.0, 0.0, 0.0, 0.0, 0.0, 0.0, 1.6521761812328513E9, 0.0, 2022-05-10 11:49:41.232
224.0, -2779.975864884361, 5046.599214863684, -53150.86134086387, -38361.226124909655, -29093.23174872777, -21107.445193224572, -28054.970867034303, -22656.465787466263, -0.20400000000000001, 0.97, 0.274, 192.0, 0.0, 0.0, 0.0, 0.0, 0.0, 0.0, 0.0, 0.0, 0.0, 1.652176181232858E9, 0.0, 2022-05-10 11:49:41.232
225.0, -2782.3898532855337, 5045.369868918642, -53156.02459383304, -38367.663427312786, -29109.436763457867, -21113.681329927604, -28064.716227616816, -22662.299592769097, -0.188, 0.974, 0.28400000000000003, 192.0, 250.0, 32.0, 30.0, 112.0, 8.0, 224.0, 0.0, 0.0, 0.0, 1.6521761812328644E9, 0.0, 2022-05-10 11:49:41.232
226.0, -2789.2965423222236, 5033.814017035248, -53155.644614177305, -38363.61776156638, -29112.61071117052, -21114.41893749463, -28066.929050317893, -22663.23836603622, -0.188, 0.974, 0.28400000000000003, 192.0, 0.0, 0.0, 0.0, 0.0, 0.0, 0.0, 0.0, 0.0, 0.0, 1.652176181232871E9, 0.0, 2022-05-10 11:49:41.232
227.0, -2799.3101238382014, 5023.845139008181, -53166.21698930467, -38362.96956097717, -29108.94502507985, -21107.69106241358, -28059.59767813655, -22669.608613205983, -0.188, 0.974, 0.28400000000000003, 192.0, 0.0, 0.0, 0.0, 0.0, 0.0, 0.0, 0.0, 0.0, 0.0, 1.6521761812328773E9, 0.0, 2022-05-10 11:49:41.232
228.0, -2791.5987720011203, 5034.685735069005, -53163.333614269926, -38355.5040783291, -29103.535902921667, -21097.811591364338, -28052.780396077684, -22656.219918277257, -0.188, 0.974, 0.28400000000000003, 192.0, 0.0, 0.0, 0.0, 0.0, 0.0, 0.0, 0.0, 0.0, 0.0, 1.652176181232884E9, 0.0, 2022-05-10 11:49:41.232
229.0, -2793.990408657838, 5040.608947349661, -53163.78064915904, -38353.51477307257, -29109.99555706925, -21107.802821135858, -28056.80371007964, -22647.033351306123, -0.188, 0.974, 0.28400000000000003, 192.0, 0.0, 0.0, 0.0, 0.0, 0.0, 0.0, 0.0, 0.0, 0.0, 1.6521761812328904E9, 0.0, 2022-05-10 11:49:41.232
230.0, -2801.813519217196, 5031.936470501002, -53173.14603008581, -38364.26596215558, -29127.921656122406, -21122.554972476362, -28071.242936997765, -22659.304459012088, -0.188, 0.974, 0.28400000000000003, 192.0, 0.0, 0.0, 0.0, 0.0, 0.0, 0.0, 0.0, 0.0, 0.0, 1.6521761812328973E9, 0.0, 2022-05-10 11:49:41.232
231.0, -2792.31402782369, 5031.0871042117005, -53174.28596905303, -38351.39135734932, -29122.04314733066, -21106.618178679728, -28058.927125802893, -22645.111101282968, -0.188, 0.974, 0.28400000000000003, 192.0, 0.0, 0.0, 0.0, 0.0, 0.0, 0.0, 0.0, 0.0, 0.0, 1.6521761812329037E9, 0.0, 2022-05-10 11:49:41.232
232.0, -2785.9437806539277, 5031.578842589717, -53156.695146166705, -38339.88020895484, -29103.80412385513, -21102.103126299757, -28050.701683843337, -22641.110139025466, -0.188, 0.974, 0.28400000000000003, 192.0, 0.0, 0.0, 0.0, 0.0, 0.0, 0.0, 0.0, 0.0, 0.0, 1.65217618123291E9, 0.0, 2022-05-10 11:49:41.232
233.0, -2773.3373967811344, 5047.649746853083, -53140.73600062561, -38329.01726114956, -29083.106408489515, -21091.061364538833, -28030.674520811383, -22629.844859819994, -0.188, 0.974, 0.28400000000000003, 192.0, 0.0, 0.0, 0.0, 0.0, 0.0, 0.0, 0.0, 0.0, 0.0, 1.6521761812329166E9, 0.0, 2022-05-10 11:49:41.232
234.0, -2778.12067009457, 5047.269767197343, -53148.84968386289, -38340.48370605513, -29094.014059783705, -21097.78923961988, -28043.146794217446, -22638.450281435285, -0.188, 0.974, 0.28400000000000003, 192.0, 0.0, 0.0, 0.0, 0.0, 0.0, 0.0, 0.0, 0.0, 0.0, 1.6521761812329228E9, 0.0, 2022-05-10 11:49:41.232
235.0, -2768.1070885785925, 5058.378584191631, -53137.4949976796, -38333.55466527399, -29086.839149813553, -21094.659995396138, -28043.079738984077, -22636.036293034114, -0.186, 0.966, 0.28400000000000003, 192.0, 250.0, 48.0, 30.0, 48.0, 8.0, 224.0, 0.0, 0.0, 0.0, 1.6521761812329328E9, 0.0, 2022-05-10 11:49:41.232
236.0, -2772.5550857251988, 5051.404839921575, -53138.456122691176, -38333.71112748517, -29097.299766218635, -21088.73678311548, -28043.817346551103, -22633.979932544225, -0.186, 0.966, 0.28400000000000003, 192.0, 0.0, 0.0, 0.0, 0.0, 0.0, 0.0, 0.0, 0.0, 0.0, 1.6521761812329392E9, 0.0, 2022-05-10 11:49:41.232
237.0, -2784.0885858641373, 5036.451522880974, -53141.13833202581, -38336.86272345337, -29088.873158558985, -21081.763038845427, -28047.795957064147, -22635.410444189365, -0.186, 0.966, 0.28400000000000003, 192.0, 0.0, 0.0, 0.0, 0.0, 0.0, 0.0, 0.0, 0.0, 0.0, 1.652176181232946E9, 0.0, 2022-05-10 11:49:41.232
238.0, -2772.0856990916373, 5051.874226555136, -53137.249128490585, -38329.911330927775, -29087.263832958204, -21080.51134115593, -28044.59965760704, -22635.075168022537, -0.186, 0.966, 0.28400000000000003, 192.0, 0.0, 0.0, 0.0, 0.0, 0.0, 0.0, 0.0, 0.0, 0.0, 1.6521761812329528E9, 0.0, 2022-05-10 11:49:41.232
239.0, -2778.679463705953, 5050.622528865639, -53156.02459383304, -38339.20965662118, -29097.746801107744, -21090.569626160817, -28058.65890486943, -22642.67476113734, -0.186, 0.966, 0.28400000000000003, 192.0, 0.0, 0.0, 0.0, 0.0, 0.0, 0.0, 0.0, 0.0, 0.0, 1.652176181232959E9, 0.0, 2022-05-10 11:49:41.232
240.0, -2789.6541702335085, 5039.960746760457, -53154.92935835473, -38339.81315372147, -29089.208434725817, -21090.12259127171, -28052.46747165531, -22644.57465941604, -0.186, 0.966, 0.28400000000000003, 192.0, 0.0, 0.0, 0.0, 0.0, 0.0, 0.0, 0.0, 0.0, 0.0, 1.6521761812329657E9, 0.0, 2022-05-10 11:49:41.232
241.0, -2787.5307545102546, 5032.584671090206, -53154.1470472988, -38340.93074094424, -29098.03737378566, -21087.641547637173, -28050.1205384875, -22638.986723302212, -0.186, 0.966, 0.28400000000000003, 192.0, 0.0, 0.0, 0.0, 0.0, 0.0, 0.0, 0.0, 0.0, 0.0, 1.6521761817102544E9, 0.0, 2022-05-10 11:49:41.710
242.0, -2768.889399634528, 5048.119133486644, -53114.740921824094, -38324.50220876959, -29075.506815374712, -21070.855387551237, -28035.41309063591, -22614.802135801572, -0.186, 0.966, 0.28400000000000003, 192.0, 0.0, 0.0, 0.0, 0.0, 0.0, 0.0, 0.0, 0.0, 0.0, 1.6521761817104034E9, 0.0, 2022-05-10 11:49:41.710
243.0, -2770.7892979132293, 5053.774124833837, -53124.97802078462, -38327.6985082267, -29083.41933291189, -21079.617271377716, -28045.672541340893, -22631.81181333206, -0.186, 0.966, 0.28400000000000003, 192.0, 0.0, 0.0, 0.0, 0.0, 0.0, 0.0, 0.0, 0.0, 0.0, 1.6521761817104254E9, 0.0, 2022-05-10 11:49:41.710
244.0, -2775.3714055265673, 5056.098706257189, -53143.30645123797, -38332.92881642924, -29095.019888284194, -21082.008908034433, -28056.066102512614, -22626.536801640606, -0.186, 0.966, 0.28400000000000003, 192.0, 0.0, 0.0, 0.0, 0.0, 0.0, 0.0, 0.0, 0.0, 0.0, 1.6521761817104385E9, 0.0, 2022-05-10 11:49:41.710
245.0, -2788.670693477475, 5043.291156684299, -53139.66311689176, -38350.16201140428, -29111.940158836864, -21088.289748226376, -28085.50334996025, -22642.71946462625, -0.198, 0.98, 0.28600000000000003, 192.0, 249.0, 208.0, 30.0, 160.0, 8.0, 240.0, 0.0, 0.0, 0.0, 1.6521761817104564E9, 0.0, 2022-05-10 11:49:41.710
246.0, -2798.3937023155336, 5029.388371633097, -53153.14121879831, -38359.125060930855, -29125.19474329886, -21097.722184386515, -28088.766704650727, -22649.380284473933, -0.198, 0.98, 0.28600000000000003, 192.0, 0.0, 0.0, 0.0, 0.0, 0.0, 0.0, 0.0, 0.0, 0.0, 1.6521761817104788E9, 0.0, 2022-05-10 11:49:41.710
247.0, -2788.536583010743, 5038.887863026603, -53140.93716632571, -38341.46718281117, -29102.37361220999, -21086.25573948094, -28041.291599427655, -22586.303661621056, -0.198, 0.98, 0.28600000000000003, 192.0, 0.0, 0.0, 0.0, 0.0, 0.0, 0.0, 0.0, 0.0, 0.0, 1.6521761817104983E9, 0.0, 2022-05-10 11:49:41.710
248.0, -2782.993350385827, 5049.23672070941, -53159.86909387936, -38340.70722349969, -29095.109295262017, -21080.421934178106, -28036.39656739194, -22562.767274709615, -0.198, 0.98, 0.28600000000000003, 192.0, 0.0, 0.0, 0.0, 0.0, 0.0, 0.0, 0.0, 0.0, 0.0, 1.6521761817105198E9, 0.0, 2022-05-10 11:49:41.710
249.0, -2788.178955099458, 5052.880055055625, -53162.30543402499, -38344.57407529045, -29107.223940756794, -21084.02056503541, -28050.9699047768, -22590.684603534297, -0.198, 0.98, 0.28600000000000003, 192.0, 0.0, 0.0, 0.0, 0.0, 0.0, 0.0, 0.0, 0.0, 0.0, 1.652176181710539E9, 0.0, 2022-05-10 11:49:41.710
250.0, -2800.2041936164137, 5041.078333983223, -53159.355003756886, -38354.87822948435, -29117.930426350886, -21096.626948908204, -28077.0767423006, -22603.738022296195, -0.198, 0.98, 0.28600000000000003, 192.0, 0.0, 0.0, 0.0, 0.0, 0.0, 0.0, 0.0, 0.0, 0.0, 1.6521761817105544E9, 0.0, 2022-05-10 11:49:41.710
251.0, -2789.74357721133, 5041.637127594606, -53158.52798921204, -38349.35734860389, -29112.789525126165, -21082.99238479047, -28052.489823399763, -22570.2774608466, -0.198, 0.98, 0.28600000000000003, 192.0, 0.0, 0.0, 0.0, 0.0, 0.0, 0.0, 0.0, 0.0, 0.0, 1.652176181710572E9, 0.0, 2022-05-10 11:49:41.710
252.0, -2760.9768820973495, 5065.307624972776, -53124.55333763997, -38318.62369997784, -29074.344524663036, -21044.145052927142, -27998.935043684847, -22548.149233835848, -0.198, 0.98, 0.28600000000000003, 192.0, 0.0, 0.0, 0.0, 0.0, 0.0, 0.0, 0.0, 0.0, 0.0, 1.652176181710588E9, 0.0, 2022-05-10 11:49:41.710
253.0, -2767.4588879893886, 5061.664290626561, -53157.9468438562, -38326.893845426304, -29077.831396798065, -21041.50754708142, -28015.810610748606, -22569.13752187938, -0.198, 0.98, 0.28600000000000003, 192.0, 0.0, 0.0, 0.0, 0.0, 0.0, 0.0, 0.0, 0.0, 0.0, 1.6521761817106004E9, 0.0, 2022-05-10 11:49:41.710
254.0, -2768.4423647454223, 5066.581674406729, -53106.38136939781, -38323.65284248029, -29077.116140975493, -21048.570698329295, -28023.141982929945, -22564.80128345505, -0.198, 0.98, 0.28600000000000003, 192.0, 0.0, 0.0, 0.0, 0.0, 0.0, 0.0, 0.0, 0.0, 0.0, 1.652176181710614E9, 0.0, 2022-05-10 11:49:41.710
255.0, -2780.8028794292068, 5050.287252698809, -53132.0411720325, -38336.43804030872, -29079.530129376668, -21065.17804445959, -28031.970921989792, -22574.501940548653, -0.192, 0.9580000000000001, 0.28, 192.0, 250.0, 0.0, 29.0, 240.0, 8.0, 192.0, 0.0, 0.0, 0.0, 1.652176181710632E9, 0.0, 2022-05-10 11:49:41.710
0.0, -2776.131364838048, 5047.537988130807, -53115.90321253577, -38330.49247628361, -29067.639001326443, -21050.73881754146, -28018.179895660865, -22569.18222536829, -0.192, 0.9580000000000001, 0.28, 192.0, 0.0, 0.0, 0.0, 0.0, 0.0, 0.0, 0.0, 0.0, 0.0, 1.652176181710754E9, 0.0, 2022-05-10 11:49:41.710
1.0, -2768.285902534235, 5049.616700365151, -53098.93823849419, -38322.49055176861, -29060.866422756484, -21037.953619713026, -28005.662918765895, -22567.952879423246, -0.192, 0.9580000000000001, 0.28, 192.0, 0.0, 0.0, 0.0, 0.0, 0.0, 0.0, 0.0, 0.0, 0.0, 1.6521761817107744E9, 0.0, 2022-05-10 11:49:41.710
2.0, -2780.579361984654, 5040.296022927288, -53117.15491022527, -38336.97448217565, -29074.500986874224, -21053.309268153822, -28025.243046908745, -22580.246338873665, -0.192, 0.9580000000000001, 0.28, 192.0, 0.0, 0.0, 0.0, 0.0, 0.0, 0.0, 0.0, 0.0, 0.0, 1.6521761817107918E9, 0.0, 2022-05-10 11:49:41.710
3.0, -2780.1099753510925, 5045.191054962999, -53115.098549735376, -38342.78593573403, -29076.84792004203, -21067.1226462272, -28035.435442380363, -22595.087897191992, -0.192, 0.9580000000000001, 0.28, 192.0, 0.0, 0.0, 0.0, 0.0, 0.0, 0.0, 0.0, 0.0, 0.0, 1.6521761817108092E9, 0.0, 2022-05-10 11:49:41.710
4.0, -2780.6240654735643, 5041.167740961045, -53131.6388406323, -38346.51867705806, -29083.754609078722, -21070.90009104015, -28042.342131417052, -22609.37066189893, -0.192, 0.9580000000000001, 0.28, 192.0, 0.0, 0.0, 0.0, 0.0, 0.0, 0.0, 0.0, 0.0, 0.0, 1.6521761817108223E9, 0.0, 2022-05-10 11:49:41.710
5.0, -2772.443327002922, 5041.503017127874, -53125.96149754066, -38339.67904325474, -29069.51654786069, -21063.54636711435, -28030.227485922278, -22601.346385639477, -0.192, 0.9580000000000001, 0.28, 192.0, 0.0, 0.0, 0.0, 0.0, 0.0, 0.0, 0.0, 0.0, 0.0, 1.65217618171084E9, 0.0, 2022-05-10 11:49:41.710
6.0, -2756.1042018060925, 5055.003470778879, -53102.1345379513, -38324.41280179177, -29055.50200408721, -21051.565832086308, -28013.68719502535, -22583.017955186126, -0.192, 0.9580000000000001, 0.28, 192.0, 0.0, 0.0, 0.0, 0.0, 0.0, 0.0, 0.0, 0.0, 0.0, 1.652176181710857E9, 0.0, 2022-05-10 11:49:41.710
7.0, -2753.1090680490815, 5060.077316770234, -53144.49109369411, -38322.66936572425, -29051.255172640704, -21050.35883788572, -28011.273206624177, -22575.619527771418, -0.192, 0.9580000000000001, 0.28, 192.0, 0.0, 0.0, 0.0, 0.0, 0.0, 0.0, 0.0, 0.0, 0.0, 1.6521761817108734E9, 0.0, 2022-05-10 11:49:41.710
8.0, -2753.6902134049196, 5067.6545581405835, -53124.17335798423, -38321.305909312476, -29038.537030045634, -21050.180023930076, -28009.35095660102, -22567.729361978694, -0.214, 0.9380000000000001, 0.27, 192.0, 249.0, 80.0, 29.0, 80.0, 8.0, 112.0, 0.0, 0.0, 0.0, 1.6521761817108903E9, 0.0, 2022-05-10 11:49:41.710
9.0, -2729.9750125378387, 5085.133622304634, -53038.43206625367, -38299.51295846856, -29010.038555865118, -21038.713579024505, -27990.664898236384, -22552.26195481562, -0.214, 0.9380000000000001, 0.27, 192.0, 0.0, 0.0, 0.0, 0.0, 0.0, 0.0, 0.0, 0.0, 0.0, 1.6521761817109072E9, 0.0, 2022-05-10 11:49:41.710
10.0, -2718.9332507769172, 5090.118061318167, -53031.99476385055, -38284.269068750036, -29006.35051802999, -21022.59797127223, -27973.610517216985, -22543.075387844492, -0.214, 0.9380000000000001, 0.27, 192.0, 0.0, 0.0, 0.0, 0.0, 0.0, 0.0, 0.0, 0.0, 0.0, 1.6521761817109263E9, 0.0, 2022-05-10 11:49:41.710
11.0, -2712.7641693072524, 5091.302703774298, -53058.70509847464, -38278.2340977471, -29011.603177976987, -21003.1072501072, -27977.946755641315, -22533.821765639994, -0.214, 0.9380000000000001, 0.27, 192.0, 0.0, 0.0, 0.0, 0.0, 0.0, 0.0, 0.0, 0.0, 0.0, 1.6521761817109425E9, 0.0, 2022-05-10 11:49:41.710
12.0, -2701.230669168314, 5106.568945237273, -53031.50302547253, -38257.46932714812, -28989.78787538861, -20978.945014351015, -27964.24513629021, -22506.664396126795, -0.214, 0.9380000000000001, 0.27, 192.0, 0.0, 0.0, 0.0, 0.0, 0.0, 0.0, 0.0, 0.0, 0.0, 1.65217618171096E9, 0.0, 2022-05-10 11:49:41.710
13.0, -2694.6592562984533, 5113.363875551686, -53030.63130743877, -38255.39061491378, -28996.158122558372, -20983.951805109, -27966.949697369302, -22507.625521138376, -0.214, 0.9380000000000001, 0.27, 192.0, 0.0, 0.0, 0.0, 0.0, 0.0, 0.0, 0.0, 0.0, 0.0, 1.6521761817109764E9, 0.0, 2022-05-10 11:49:41.710
14.0, -2678.2083723793476, 5122.729256478459, -52980.451641136606, -38237.53157109399, -28980.64601190639, -20958.91785131906, -27946.408444214874, -22469.292279397523, -0.214, 0.9380000000000001, 0.27, 192.0, 0.0, 0.0, 0.0, 0.0, 0.0, 0.0, 0.0, 0.0, 0.0, 1.6521761817109888E9, 0.0, 2022-05-10 11:49:41.710
15.0, -2645.9548051303395, 5135.760323495904, -52959.1504286707, -38205.85914920082, -28956.751997083666, -20910.101641428668, -27904.029536727612, -22413.122345581334, -0.214, 0.9380000000000001, 0.27, 192.0, 0.0, 0.0, 0.0, 0.0, 0.0, 0.0, 0.0, 0.0, 0.0, 1.652176181711001E9, 0.0, 2022-05-10 11:49:41.711
16.0, -2591.170679470382, 5166.829248288781, -52891.581105182304, -38145.129459515745, -28889.987336395665, -20851.69653316695, -27827.78773639056, -22355.879528031295, -0.214, 0.9380000000000001, 0.27, 192.0, 0.0, 0.0, 0.0, 0.0, 0.0, 0.0, 0.0, 0.0, 0.0, 1.652176181711019E9, 0.0, 2022-05-10 11:49:41.711
17.0, -2521.2544228141815, 5226.798978662369, -52831.678430042084, -38075.45907204856, -28825.390794919826, -20793.3584801386, -27767.54978508351, -22296.55799824691, -0.214, 0.9380000000000001, 0.27, 192.0, 0.0, 0.0, 0.0, 0.0, 0.0, 0.0, 0.0, 0.0, 0.0, 1.6521761817110343E9, 0.0, 2022-05-10 11:49:41.711
18.0, -2482.0271112951173, 5272.798868751392, -52775.262627036886, -38039.226894286505, -28781.380210087325, -20765.284689102733, -27737.039653902015, -22258.53768092843, -0.234, 0.96, 0.27, 192.0, 248.0, 176.0, 30.0, 0.0, 8.0, 112.0, 0.0, 0.0, 0.0, 1.6521761817110517E9, 0.0, 2022-05-10 11:49:41.711
19.0, -2451.561683602534, 5309.947468036112, -52757.76121112838, -38015.936376564074, -28767.432721547215, -20747.649162727495, -27720.00762462707, -22235.470680650556, -0.234, 0.96, 0.27, 192.0, 0.0, 0.0, 0.0, 0.0, 0.0, 0.0, 0.0, 0.0, 0.0, 1.6521761817110684E9, 0.0, 2022-05-10 11:49:41.711
20.0, -2446.979575989196, 5322.799721097913, -52748.48523717943, -38011.6224898842, -28757.329733053415, -20738.842575412105, -27708.854104143873, -22227.334645668823, -0.234, 0.96, 0.27, 192.0, 0.0, 0.0, 0.0, 0.0, 0.0, 0.0, 0.0, 0.0, 0.0, 1.652176181711082E9, 0.0, 2022-05-10 11:49:41.711
21.0, -2448.454791123246, 5326.621869399771, -52762.186856530534, -38016.226949241995, -28761.80008194448, -20742.552964991686, -27697.991156338594, -22222.73018631103, -0.234, 0.96, 0.27, 192.0, 0.0, 0.0, 0.0, 0.0, 0.0, 0.0, 0.0, 0.0, 0.0, 1.6521761817110937E9, 0.0, 2022-05-10 11:49:41.711
22.0, -2455.1603144598384, 5335.696677648625, -52763.61736817567, -38022.440734200565, -28749.50662249406, -20748.610287739073, -27700.427496484223, -22238.17524172965, -0.234, 0.96, 0.27, 192.0, 0.0, 0.0, 0.0, 0.0, 0.0, 0.0, 0.0, 0.0, 0.0, 1.6521761817111251E9, 0.0, 2022-05-10 11:49:41.711
23.0, -2468.3478436884698, 5340.681116662159, -52785.6561882086, -38037.95284485255, -28767.36566631385, -20763.54125303522, -27725.081470618425, -22255.721361127064, -0.234, 0.96, 0.27, 192.0, 0.0, 0.0, 0.0, 0.0, 0.0, 0.0, 0.0, 0.0, 0.0, 1.6521761817111397E9, 0.0, 2022-05-10 11:49:41.711
24.0, -2484.9328380743073, 5331.651011902215, -52807.02445590788, -38055.14133633868, -28786.78933224551, -20784.842465501126, -27750.562459297475, -22273.73686715804, -0.234, 0.96, 0.27, 192.0, 0.0, 0.0, 0.0, 0.0, 0.0, 0.0, 0.0, 0.0, 0.0, 1.652176181711163E9, 0.0, 2022-05-10 11:49:41.711
25.0, -2513.520719232645, 5304.583049366838, -52853.44902914155, -38084.511528552954, -28822.105088484896, -20820.292332207246, -27789.007459760604, -22309.119678630792, -0.234, 0.96, 0.27, 192.0, 0.0, 0.0, 0.0, 0.0, 0.0, 0.0, 0.0, 0.0, 0.0, 1.6521761817111795E9, 0.0, 2022-05-10 11:49:41.711
26.0, -2540.5439782791113, 5277.537438575917, -52878.6841486316, -38115.22282543455, -28857.93493484675, -20853.708190167927, -27826.290169512056, -22347.743493049562, -0.234, 0.96, 0.27, 192.0, 0.0, 0.0, 0.0, 0.0, 0.0, 0.0, 0.0, 0.0, 0.0, 1.652176181711193E9, 0.0, 2022-05-10 11:49:41.711
27.0, -2556.681937775843, 5266.562732048361, -52882.05926204434, -38131.159619231184, -28864.439292483246, -20872.37189678811, -27830.358187002923, -22354.784292552984, -0.234, 0.96, 0.27, 192.0, 0.0, 0.0, 0.0, 0.0, 0.0, 0.0, 0.0, 0.0, 0.0, 1.6521761817112076E9, 0.0, 2022-05-10 11:49:41.711
28.0, -2569.198914670815, 5263.433487824618, -52933.33416382482, -38153.28784624193, -28892.28956607456, -20896.55648428875, -27855.95093440425, -22379.14769400927, -0.25, 0.966, 0.262, 192.0, 248.0, 48.0, 30.0, 48.0, 8.0, 48.0, 0.0, 0.0, 0.0, 1.6521761817112267E9, 0.0, 2022-05-10 11:49:41.711
29.0, -2596.065711506094, 5234.756199688459, -52937.96097492707, -38186.12255884678, -28914.931883207788, -20930.53113586082, -27887.936280719794, -22416.877438649826, -0.25, 0.966, 0.262, 192.0, 0.0, 0.0, 0.0, 0.0, 0.0, 0.0, 0.0, 0.0, 0.0, 1.652176181711244E9, 0.0, 2022-05-10 11:49:41.711
30.0, -2625.637069420465, 5200.893306838669, -52959.48570483753, -38205.14389337825, -28940.81520328703, -20944.769197078847, -27903.873074516425, -22429.886153922816, -0.25, 0.966, 0.262, 192.0, 0.0, 0.0, 0.0, 0.0, 0.0, 0.0, 0.0, 0.0, 0.0, 1.652176181711264E9, 0.0, 2022-05-10 11:49:41.711
31.0, -2634.5777672025883, 5187.370501443208, -52969.83456252034, -38214.352812093835, -28965.223308232227, -20951.564127393263, -27916.1888857113, -22431.987217901617, -0.25, 0.966, 0.262, 192.0, 0.0, 0.0, 0.0, 0.0, 0.0, 0.0, 0.0, 0.0, 0.0, 1.6521761817112813E9, 0.0, 2022-05-10 11:49:41.711
32.0, -2641.7973806616524, 5184.800050830848, -52974.19315268912, -38220.67835577469, -28953.06395924854, -20954.805130339282, -27920.033385757615, -22450.58386928843, -0.25, 0.966, 0.262, 192.0, 0.0, 0.0, 0.0, 0.0, 0.0, 0.0, 0.0, 0.0, 0.0, 1.652176181711301E9, 0.0, 2022-05-10 11:49:41.711
33.0, -2653.1520668449484, 5178.765079827915, -52984.921990027666, -38231.00486171304, -28957.422549417326, -20961.376543209142, -27929.264656217656, -22459.54691881501, -0.25, 0.966, 0.262, 192.0, 0.0, 0.0, 0.0, 0.0, 0.0, 0.0, 0.0, 0.0, 0.0, 1.6521761817113388E9, 0.0, 2022-05-10 11:49:41.711
34.0, -2675.414404322434, 5156.659204561616, -53004.636228637246, -38252.95427476815, -28995.040535335607, -20980.57669169625, -27951.39288322841, -22453.914279212273, -0.25, 0.966, 0.262, 192.0, 0.0, 0.0, 0.0, 0.0, 0.0, 0.0, 0.0, 0.0, 0.0, 1.6521761817113593E9, 0.0, 2022-05-10 11:49:41.711
35.0, -2686.7914422501854, 5137.280242118864, -52997.59542913383, -38262.96785628413, -28985.943375342296, -20994.367718025176, -27956.712598408772, -22464.218433406168, -0.25, 0.966, 0.262, 192.0, 0.0, 0.0, 0.0, 0.0, 0.0, 0.0, 0.0, 0.0, 0.0, 1.652176181711374E9, 0.0, 2022-05-10 11:49:41.711
36.0, -2674.185058377392, 5144.812780000303, -52994.5555918879, -38252.23901894558, -28980.422494461836, -20989.852665645205, -27946.453147703785, -22447.76754948706, -0.25, 0.966, 0.262, 192.0, 0.0, 0.0, 0.0, 0.0, 0.0, 0.0, 0.0, 0.0, 0.0, 1.6521761817113848E9, 0.0, 2022-05-10 11:49:41.711
37.0, -2672.9780641768057, 5149.283128891365, -53005.753815860015, -38250.60734160034, -28985.96572708675, -20996.53583723734, -27945.894354092405, -22450.2485931216, -0.25, 0.966, 0.262, 192.0, 0.0, 0.0, 0.0, 0.0, 0.0, 0.0, 0.0, 0.0, 0.0, 1.652176181711396E9, 0.0, 2022-05-10 11:49:41.711
38.0, -2684.6903782713866, 5142.644660788138, -53018.203737521624, -38266.499431908065, -28997.521578970147, -21007.331729809255, -27955.974990841747, -22466.34184912942, -0.24, 0.9580000000000001, 0.262, 192.0, 248.0, 128.0, 29.0, 240.0, 8.0, 48.0, 0.0, 0.0, 0.0, 1.6521761817114055E9, 0.0, 2022-05-10 11:49:41.711
39.0, -2690.680645785409, 5138.531939808362, -53030.18427254967, -38277.51884192453, -29006.328166285537, -21013.858439190204, -27963.798101401106, -22492.985128520148, -0.24, 0.9580000000000001, 0.262, 192.0, 0.0, 0.0, 0.0, 0.0, 0.0, 0.0, 0.0, 0.0, 0.0, 1.6521761817114172E9, 0.0, 2022-05-10 11:49:41.711
40.0, -2695.7321400323085, 5126.0596664023005, -53025.42335098069, -38286.92892634022, -29008.742154686708, -21023.626151517172, -27965.183909557334, -22482.904491770805, -0.24, 0.9580000000000001, 0.262, 192.0, 0.0, 0.0, 0.0, 0.0, 0.0, 0.0, 0.0, 0.0, 0.0, 1.6521761817114315E9, 0.0, 2022-05-10 11:49:41.711
41.0, -2687.417291094934, 5126.01496291339, -53030.16192080521, -38281.34099022639, -29013.883055911432, -21023.961427684, -27966.14503456891, -22460.440988593222, -0.24, 0.9580000000000001, 0.262, 192.0, 0.0, 0.0, 0.0, 0.0, 0.0, 0.0, 0.0, 0.0, 0.0, 1.6521761817114456E9, 0.0, 2022-05-10 11:49:41.711
42.0, -2681.717596258831, 5128.630117014661, -53030.65365918323, -38275.6859988792, -29003.578901717534, -21026.44247131854, -27968.11198808098, -22450.96384894417, -0.24, 0.9580000000000001, 0.262, 192.0, 0.0, 0.0, 0.0, 0.0, 0.0, 0.0, 0.0, 0.0, 0.0, 1.652176181711458E9, 0.0, 2022-05-10 11:49:41.711
43.0, -2696.2015266658696, 5115.599049997217, -53035.615746452306, -38292.919193854235, -29010.21736982076, -21035.561983056305, -27979.287860308632, -22473.203834677202, -0.24, 0.9580000000000001, 0.262, 192.0, 0.0, 0.0, 0.0, 0.0, 0.0, 0.0, 0.0, 0.0, 0.0, 1.6521761817114956E9, 0.0, 2022-05-10 11:49:41.711
44.0, -2697.4308726109116, 5116.91780292008, -53041.94129013316, -38296.562528200455, -29014.3971460339, -21026.196602129534, -27984.87579642246, -22475.103732955904, -0.24, 0.9580000000000001, 0.262, 192.0, 0.0, 0.0, 0.0, 0.0, 0.0, 0.0, 0.0, 0.0, 0.0, 1.6521761817115152E9, 0.0, 2022-05-10 11:49:41.711
45.0, -2693.966352220339, 5114.973201152468, -53048.602109980835, -38298.61888869034, -29017.50403851319, -21037.037198190355, -27989.30144182461, -22497.96956753368, -0.24, 0.9580000000000001, 0.262, 192.0, 0.0, 0.0, 0.0, 0.0, 0.0, 0.0, 0.0, 0.0, 0.0, 1.6521761817115245E9, 0.0, 2022-05-10 11:49:41.711
46.0, -2674.6320932664985, 5130.6417740156385, -53031.23480453907, -38281.63156290431, -28988.849102121487, -21033.550326055327, -27964.736874668226, -22485.989032505637, -0.24, 0.9580000000000001, 0.262, 192.0, 0.0, 0.0, 0.0, 0.0, 0.0, 0.0, 0.0, 0.0, 0.0, 1.6521761817115355E9, 0.0, 2022-05-10 11:49:41.711
47.0, -2679.840049724585, 5130.462960059996, -53034.36404876281, -38286.4371879622, -29004.204750562283, -21052.571660586796, -27972.49292999422, -22494.616805865386, -0.24, 0.9580000000000001, 0.262, 192.0, 0.0, 0.0, 0.0, 0.0, 0.0, 0.0, 0.0, 0.0, 0.0, 1.652176181711546E9, 0.0, 2022-05-10 11:49:41.711
48.0, -2688.736044017797, 5128.1160268921885, -53044.19881632314, -38292.40510373177, -29014.97829138974, -21066.049762493345, -27975.91274689588, -22505.770326348582, -0.24, 0.9540000000000001, 0.254, 192.0, 248.0, 128.0, 29.0, 208.0, 7.0, 240.0, 0.0, 0.0, 0.0, 1.6521761817115629E9, 0.0, 2022-05-10 11:49:41.711
49.0, -2695.128642932015, 5121.879890189158, -53055.195874595156, -38300.02704859103, -29016.27469256815, -21065.93800377107, -27983.981726644248, -22523.27174225709, -0.24, 0.9540000000000001, 0.254, 192.0, 0.0, 0.0, 0.0, 0.0, 0.0, 0.0, 0.0, 0.0, 0.0, 1.6521761817115784E9, 0.0, 2022-05-10 11:49:41.711
50.0, -2702.9294017469174, 5109.586430738739, -53063.06368864342, -38308.31954578395, -29019.98508214773, -21070.74362882896, -27996.58811051704, -22537.979190108683, -0.24, 0.9540000000000001, 0.254, 192.0, 0.0, 0.0, 0.0, 0.0, 0.0, 0.0, 0.0, 0.0, 0.0, 1.652176181711599E9, 0.0, 2022-05-10 11:49:41.711
51.0, -2692.1782126639146, 5117.945983165024, -53055.37468855079, -38298.305964267965, -29015.470029767755, -21059.83597753477, -27994.576453516063, -22523.204687023725, -0.24, 0.9540000000000001, 0.254, 192.0, 0.0, 0.0, 0.0, 0.0, 0.0, 0.0, 0.0, 0.0, 0.0, 1.652176181711618E9, 0.0, 2022-05-10 11:49:41.711
52.0, -2695.039235954194, 5118.951811665513, -53060.73910722007, -38299.714124168655, -29027.98700666273, -21064.909823526123, -28001.50549429721, -22525.193992280245, -0.24, 0.9540000000000001, 0.254, 192.0, 0.0, 0.0, 0.0, 0.0, 0.0, 0.0, 0.0, 0.0, 0.0, 1.65217618171165E9, 0.0, 2022-05-10 11:49:41.711
53.0, -2705.321038403635, 5116.291954075331, -53069.00925266853, -38308.9900981176, -29035.899524199907, -21076.89035855417, -28014.15658165891, -22542.382483766378, -0.24, 0.9540000000000001, 0.254, 192.0, 0.0, 0.0, 0.0, 0.0, 0.0, 0.0, 0.0, 0.0, 0.0, 1.6521761817116747E9, 0.0, 2022-05-10 11:49:41.711
54.0, -2724.1859107239143, 5099.148166078111, -53090.08694768989, -38331.31949082846, -29057.468957599278, -21102.32664374431, -28042.02920699468, -22568.75754222364, -0.24, 0.9540000000000001, 0.254, 192.0, 0.0, 0.0, 0.0, 0.0, 0.0, 0.0, 0.0, 0.0, 0.0, 1.6521761817117057E9, 0.0, 2022-05-10 11:49:41.711
55.0, -2725.8175880691515, 5090.252171784899, -53086.9800552106, -38334.49343854111, -29064.286239658148, -21102.192533277575, -28049.964076276312, -22579.441676073275, -0.24, 0.9540000000000001, 0.254, 192.0, 0.0, 0.0, 0.0, 0.0, 0.0, 0.0, 0.0, 0.0, 0.0, 1.6521761817117329E9, 0.0, 2022-05-10 11:49:41.711
56.0, -2719.8943757884954, 5091.570924707762, -53080.565104551926, -38332.23591235113, -29060.262925656192, -21098.973882076014, -28048.712378586817, -22584.627280786906, -0.24, 0.9540000000000001, 0.254, 192.0, 0.0, 0.0, 0.0, 0.0, 0.0, 0.0, 0.0, 0.0, 0.0, 1.6521761817117531E9, 0.0, 2022-05-10 11:49:41.711
57.0, -2729.259756715269, 5087.011168838879, -53089.39404361178, -38338.47204905415, -29068.89069901594, -21101.8796088552, -28050.679332098884, -22582.45916157474, -0.24, 0.9540000000000001, 0.254, 192.0, 0.0, 0.0, 0.0, 0.0, 0.0, 0.0, 0.0, 0.0, 0.0, 1.6521761817117705E9, 0.0, 2022-05-10 11:49:41.711
58.0, -2744.928329578439, 5078.741023390416, -53103.72151180763, -38352.26307538308, -29086.99561202474, -21111.84848688227, -28056.289619957166, -22582.61562378593, -0.23800000000000002, 0.9460000000000001, 0.246, 192.0, 248.0, 144.0, 29.0, 144.0, 7.0, 176.0, 0.0, 0.0, 0.0, 1.6521761817117887E9, 0.0, 2022-05-10 11:49:41.711
59.0, -2768.509419978788, 5057.6186248801505, -53128.95663129767, -38378.772244307074, -29106.575740167587, -21122.21969630953, -28080.138931290978, -22589.969347711725, -0.23800000000000002, 0.9460000000000001, 0.246, 192.0, 0.0, 0.0, 0.0, 0.0, 0.0, 0.0, 0.0, 0.0, 0.0, 1.652176181711814E9, 0.0, 2022-05-10 11:49:41.711
60.0, -2776.354882282601, 5042.598252606184, -53134.07518077793, -38383.19788970923, -29104.13940002196, -21142.112748874755, -28090.912472118434, -22600.56407458354, -0.23800000000000002, 0.9460000000000001, 0.246, 192.0, 0.0, 0.0, 0.0, 0.0, 0.0, 0.0, 0.0, 0.0, 0.0, 1.652176181711841E9, 0.0, 2022-05-10 11:49:41.711
61.0, -2780.1993823289135, 5036.7197438144385, -53140.91481458126, -38383.57786936496, -29109.548522180146, -21164.79976949689, -28101.12721933451, -22622.51348763865, -0.23800000000000002, 0.9460000000000001, 0.246, 192.0, 0.0, 0.0, 0.0, 0.0, 0.0, 0.0, 0.0, 0.0, 0.0, 1.6521761817118595E9, 0.0, 2022-05-10 11:49:41.711
62.0, -2755.7465738948076, 5065.933473817525, -53116.52906138052, -38358.298046386015, -29083.173463722884, -21140.592830251793, -28071.35469572004, -22593.2327024022, -0.23800000000000002, 0.9460000000000001, 0.246, 192.0, 0.0, 0.0, 0.0, 0.0, 0.0, 0.0, 0.0, 0.0, 0.0, 1.652176181711872E9, 0.0, 2022-05-10 11:49:41.711
63.0, -2769.4258415014556, 5060.233778981421, -53135.97507905663, -38370.14447094732, -29099.311423219613, -21148.41594081115, -28074.103960288045, -22570.99271666917, -0.23800000000000002, 0.9460000000000001, 0.246, 192.0, 0.0, 0.0, 0.0, 0.0, 0.0, 0.0, 0.0, 0.0, 0.0, 1.6521761817118862E9, 0.0, 2022-05-10 11:49:41.711
64.0, -2789.251838833313, 5042.687659584005, -53158.21506478966, -38389.50108164562, -29128.48044973379, -21165.60443229728, -28098.020326855225, -22581.878016218903, -0.23800000000000002, 0.9460000000000001, 0.246, 192.0, 0.0, 0.0, 0.0, 0.0, 0.0, 0.0, 0.0, 0.0, 0.0, 1.6521761817119117E9, 0.0, 2022-05-10 11:49:41.711
65.0, -2794.951533669416, 5030.260089666855, -53164.317091025965, -38398.777055594575, -29127.698138677853, -21181.608281327284, -28105.84343741458, -22613.192810200788, -0.23800000000000002, 0.9460000000000001, 0.246, 192.0, 0.0, 0.0, 0.0, 0.0, 0.0, 0.0, 0.0, 0.0, 0.0, 1.6521761817119224E9, 0.0, 2022-05-10 11:49:41.711
66.0, -2788.670693477475, 5033.94812750198, -53159.37735550134, -38388.58466012295, -29120.23265602978, -21167.52668232044, -28093.348812264063, -22594.149123924868, -0.23800000000000002, 0.9460000000000001, 0.246, 192.0, 0.0, 0.0, 0.0, 0.0, 0.0, 0.0, 0.0, 0.0, 0.0, 1.6521761817119355E9, 0.0, 2022-05-10 11:49:41.711
67.0, -2797.8125569596955, 5030.28244141131, -53169.9497306287, -38395.1113695039, -29131.56499046862, -21177.920243492157, -28108.436239771396, -22628.615513874953, -0.23800000000000002, 0.9460000000000001, 0.246, 192.0, 0.0, 0.0, 0.0, 0.0, 0.0, 0.0, 0.0, 0.0, 0.0, 1.652176181711948E9, 0.0, 2022-05-10 11:49:41.711
68.0, -2814.1740339009802, 5020.894708740081, -53193.173193117764, -38412.970413323696, -29155.034322146694, -21194.929921022645, -28136.599437785084, -22628.14612724139, -0.22, 0.9500000000000001, 0.23600000000000002, 192.0, 249.0, 32.0, 29.0, 176.0, 7.0, 96.0, 0.0, 0.0, 0.0, 1.652176181711962E9, 0.0, 2022-05-10 11:49:41.711
69.0, -2828.4344468634663, 5012.110473169145, -53213.13330091636, -38429.84598038745, -29173.72038051133, -21213.30305496491, -28149.742263524804, -22629.509583653162, -0.22, 0.9500000000000001, 0.23600000000000002, 192.0, 0.0, 0.0, 0.0, 0.0, 0.0, 0.0, 0.0, 0.0, 0.0, 1.6521761817119775E9, 0.0, 2022-05-10 11:49:41.711
70.0, -2845.3100139272233, 4995.570182272218, -53231.17115869179, -38448.73320445218, -29187.44435160689, -21232.749072641025, -28151.820975759147, -22649.49204319621, -0.22, 0.9500000000000001, 0.23600000000000002, 192.0, 0.0, 0.0, 0.0, 0.0, 0.0, 0.0, 0.0, 0.0, 0.0, 1.6521761817119908E9, 0.0, 2022-05-10 11:49:41.711
71.0, -2866.968854304416, 4975.453612262441, -53258.261472971615, -38473.81186173104, -29208.81261930616, -21247.769444914993, -28183.314583696676, -22684.2043023353, -0.22, 0.9500000000000001, 0.23600000000000002, 192.0, 0.0, 0.0, 0.0, 0.0, 0.0, 0.0, 0.0, 0.0, 0.0, 1.6521761817120028E9, 0.0, 2022-05-10 11:49:41.712
72.0, -2890.5499447047646, 4954.9570625969245, -53285.59765644046, -38498.39878063188, -29231.11966027256, -21279.710087741627, -28216.2610550238, -22732.26055291421, -0.22, 0.9500000000000001, 0.23600000000000002, 192.0, 0.0, 0.0, 0.0, 0.0, 0.0, 0.0, 0.0, 0.0, 0.0, 1.652176181712017E9, 0.0, 2022-05-10 11:49:41.712
73.0, -2909.9736106364267, 4934.684030375962, -53304.194307827274, -38514.82731280653, -29252.800852394208, -21303.201771164153, -28236.668197711493, -22737.043826227648, -0.22, 0.9500000000000001, 0.23600000000000002, 192.0, 0.0, 0.0, 0.0, 0.0, 0.0, 0.0, 0.0, 0.0, 0.0, 1.6521761817120306E9, 0.0, 2022-05-10 11:49:41.712
74.0, -2916.9250031620268, 4920.378913924565, -53306.36242703944, -38520.63876636491, -29255.46070998439, -21303.291178141975, -28241.227953580375, -22723.565724321095, -0.22, 0.9500000000000001, 0.23600000000000002, 192.0, 0.0, 0.0, 0.0, 0.0, 0.0, 0.0, 0.0, 0.0, 0.0, 1.6521761817120464E9, 0.0, 2022-05-10 11:49:41.712
75.0, -2902.463424499443, 4919.864823802093, -53292.236124543684, -38513.77678081713, -29245.44712846841, -21298.798477506458, -28236.377625033576, -22726.717320289295, -0.22, 0.9500000000000001, 0.23600000000000002, 192.0, 0.0, 0.0, 0.0, 0.0, 0.0, 0.0, 0.0, 0.0, 0.0, 1.6521761817120588E9, 0.0, 2022-05-10 11:49:41.712
76.0, -2884.5820289351977, 4925.83273957166, -53271.426650455796, -38497.549414342575, -29224.145916002504, -21277.720782485103, -28204.235816506844, -22713.105107916013, -0.22, 0.9500000000000001, 0.23600000000000002, 192.0, 0.0, 0.0, 0.0, 0.0, 0.0, 0.0, 0.0, 0.0, 0.0, 1.6521761817120757E9, 0.0, 2022-05-10 11:49:41.712
77.0, -2877.5412294317757, 4931.487730918852, -53263.46942942971, -38486.440597348286, -29209.907854784473, -21255.592555474348, -28185.460351164384, -22699.24702635372, -0.22, 0.9500000000000001, 0.23600000000000002, 192.0, 0.0, 0.0, 0.0, 0.0, 0.0, 0.0, 0.0, 0.0, 0.0, 1.6521761817120867E9, 0.0, 2022-05-10 11:49:41.712
78.0, -2864.979549047893, 4948.519760193796, -53254.50637990313, -38474.72828325371, -29194.194578432394, -21258.16300608671, -28181.548795884704, -22696.67657574136, -0.22, 0.9540000000000001, 0.232, 192.0, 249.0, 32.0, 29.0, 208.0, 7.0, 64.0, 0.0, 0.0, 0.0, 1.6521761817121072E9, 0.0, 2022-05-10 11:49:41.712
79.0, -2868.242903738368, 4946.731620637372, -53260.697813117244, -38481.18793740129, -29213.439430408413, -21278.704259241138, -28196.0550780362, -22713.2615701272, -0.22, 0.9540000000000001, 0.232, 192.0, 0.0, 0.0, 0.0, 0.0, 0.0, 0.0, 0.0, 0.0, 0.0, 1.6521761817121215E9, 0.0, 2022-05-10 11:49:41.712
80.0, -2863.414926936022, 4946.508103192818, -53253.07586825799, -38477.209326888245, -29201.078915724625, -21275.329145828386, -28192.747019856815, -22710.73582300375, -0.22, 0.9540000000000001, 0.232, 192.0, 0.0, 0.0, 0.0, 0.0, 0.0, 0.0, 0.0, 0.0, 0.0, 1.6521761817121344E9, 0.0, 2022-05-10 11:49:41.712
81.0, -2845.3547174161336, 4960.366184755109, -53237.67551632828, -38461.31723658052, -29187.31024114016, -21262.812168933415, -28184.2533569638, -22706.556046790607, -0.22, 0.9540000000000001, 0.232, 192.0, 0.0, 0.0, 0.0, 0.0, 0.0, 0.0, 0.0, 0.0, 0.0, 1.652176181712155E9, 0.0, 2022-05-10 11:49:41.712
82.0, -2838.671545823997, 4965.216513301911, -53228.19837667923, -38451.14719285336, -29176.5367003127, -21250.831633905367, -28168.361266656077, -22686.126552358455, -0.22, 0.9540000000000001, 0.232, 192.0, 0.0, 0.0, 0.0, 0.0, 0.0, 0.0, 0.0, 0.0, 0.0, 1.6521761817121763E9, 0.0, 2022-05-10 11:49:41.712
83.0, -2836.570481845198, 4969.150420326045, -53215.77080676208, -38438.071422347006, -29172.49103456629, -21231.117395295787, -28154.36907462705, -22643.613534404463, -0.22, 0.9540000000000001, 0.232, 192.0, 0.0, 0.0, 0.0, 0.0, 0.0, 0.0, 0.0, 0.0, 0.0, 1.6521761817121923E9, 0.0, 2022-05-10 11:49:41.712
84.0, -2840.3926301470556, 4965.685899935473, -53215.4578823397, -38440.39600377035, -29169.63001127601, -21221.327331224362, -28157.252449661788, -22645.15580477188, -0.22, 0.9540000000000001, 0.232, 192.0, 0.0, 0.0, 0.0, 0.0, 0.0, 0.0, 0.0, 0.0, 0.0, 1.6521761817122104E9, 0.0, 2022-05-10 11:49:41.712
85.0, -2841.7784383032845, 4955.739373652861, -53215.837861995446, -38445.73807069517, -29171.86518572154, -21223.517802180984, -28154.302019393686, -22653.090674053514, -0.22, 0.9540000000000001, 0.232, 192.0, 0.0, 0.0, 0.0, 0.0, 0.0, 0.0, 0.0, 0.0, 0.0, 1.6521761817122293E9, 0.0, 2022-05-10 11:49:41.712
86.0, -2826.2663276513017, 4965.998824357846, -53202.203297877706, -38430.18125655428, -29158.320028581624, -21217.527534666962, -28147.95412396838, -22650.85549960798, -0.22, 0.9540000000000001, 0.232, 192.0, 0.0, 0.0, 0.0, 0.0, 0.0, 0.0, 0.0, 0.0, 0.0, 1.6521761817122636E9, 0.0, 2022-05-10 11:49:41.712
87.0, -2814.0622751787037, 4983.299074566255, -53192.14501287282, -38414.11035229091, -29151.413339544935, -21205.010557771988, -28145.58483905612, -22637.086825023514, -0.22, 0.9540000000000001, 0.232, 192.0, 0.0, 0.0, 0.0, 0.0, 0.0, 0.0, 0.0, 0.0, 0.0, 1.652176181712288E9, 0.0, 2022-05-10 11:49:41.712
88.0, -2816.9232984689834, 4990.049301391757, -53196.92828618626, -38416.099657547435, -29164.5338135402, -21206.552828139404, -28158.817071773658, -22655.527014199142, -0.23600000000000002, 0.98, 0.23, 192.0, 248.0, 160.0, 30.0, 160.0, 7.0, 48.0, 0.0, 0.0, 0.0, 1.652176181712305E9, 0.0, 2022-05-10 11:49:41.712
89.0, -2838.7609528018183, 4972.659644205528, -53215.4578823397, -38438.65256770284, -29183.868072494042, -21220.321502723873, -28188.209615732387, -22690.462790782785, -0.23600000000000002, 0.98, 0.23, 192.0, 0.0, 0.0, 0.0, 0.0, 0.0, 0.0, 0.0, 0.0, 0.0, 1.6521761817123508E9, 0.0, 2022-05-10 11:49:41.712
90.0, -2835.341135900156, 4968.703385436939, -53206.8077572355, -38436.32798627949, -29165.137310640494, -21217.63929338924, -28152.67034204845, -22634.0916912665, -0.23600000000000002, 0.98, 0.23, 192.0, 0.0, 0.0, 0.0, 0.0, 0.0, 0.0, 0.0, 0.0, 0.0, 1.6521761817123766E9, 0.0, 2022-05-10 11:49:41.712
91.0, -2824.1205601835923, 4970.782097671282, -53193.91080068479, -38424.906244862825, -29156.777758214208, -21204.63057811625, -28142.567353554652, -22610.71176656625, -0.23600000000000002, 0.98, 0.23, 192.0, 0.0, 0.0, 0.0, 0.0, 0.0, 0.0, 0.0, 0.0, 0.0, 1.6521761817123919E9, 0.0, 2022-05-10 11:49:41.712
92.0, -2817.705609524919, 4978.404042530542, -53191.58621926144, -38418.37953548188, -29163.282115850703, -21197.366261168274, -28151.195126914397, -22635.969237800746, -0.23600000000000002, 0.98, 0.23, 192.0, 0.0, 0.0, 0.0, 0.0, 0.0, 0.0, 0.0, 0.0, 0.0, 1.6521761817124157E9, 0.0, 2022-05-10 11:49:41.712
93.0, -2820.477225837377, 4983.6567024775395, -53197.77765247556, -38421.26291051661, -29184.44921784988, -21197.075688490357, -28186.376772687054, -22659.215052034266, -0.23600000000000002, 0.98, 0.23, 192.0, 0.0, 0.0, 0.0, 0.0, 0.0, 0.0, 0.0, 0.0, 0.0, 1.6521761817124352E9, 0.0, 2022-05-10 11:49:41.712
94.0, -2820.8125020042066, 4983.455536777441, -53195.16249837429, -38424.816837885, -29161.96336292784, -21193.499409377506, -28167.400141644495, -22629.844859819994, -0.23600000000000002, 0.98, 0.23, 192.0, 0.0, 0.0, 0.0, 0.0, 0.0, 0.0, 0.0, 0.0, 0.0, 1.6521761817124588E9, 0.0, 2022-05-10 11:49:41.712
95.0, -2807.692028008941, 4987.165926357023, -53179.49392551112, -38417.32900349248, -29143.23260107429, -21183.843455772814, -28117.62280674253, -22611.829353789017, -0.23600000000000002, 0.98, 0.23, 192.0, 0.0, 0.0, 0.0, 0.0, 0.0, 0.0, 0.0, 0.0, 0.0, 1.6521761817124822E9, 0.0, 2022-05-10 11:49:41.712
96.0, -2801.098263394626, 4985.131917611589, -53173.28014055254, -38412.74689587914, -29147.233563331793, -21175.86388300227, -28117.13106836451, -22617.41728990284, -0.23600000000000002, 0.98, 0.23, 192.0, 0.0, 0.0, 0.0, 0.0, 0.0, 0.0, 0.0, 0.0, 0.0, 1.652176181712516E9, 0.0, 2022-05-10 11:49:41.712
97.0, -2800.740635483341, 4986.473022278908, -53175.53766674253, -38412.74689587914, -29140.103356850548, -21178.52374059245, -28125.356510324065, -22621.57471437153, -0.24, 0.982, 0.23800000000000002, 192.0, 248.0, 128.0, 30.0, 176.0, 7.0, 112.0, 0.0, 0.0, 0.0, 1.652176181712546E9, 0.0, 2022-05-10 11:49:41.712
98.0, -2806.641496019542, 4984.193144344466, -53190.20041110521, -38424.30274776254, -29156.889516936484, -21180.602452826795, -28147.641199546004, -22664.758284659183, -0.24, 0.982, 0.23800000000000002, 192.0, 0.0, 0.0, 0.0, 0.0, 0.0, 0.0, 0.0, 0.0, 0.0, 1.6521761817125783E9, 0.0, 2022-05-10 11:49:41.712
99.0, -2813.347019356134, 4977.197048329956, -53194.357835573894, -38431.29884377705, -29156.286019836192, -21185.072801717855, -28144.66841753345, -22632.214144732257, -0.24, 0.982, 0.23800000000000002, 192.0, 0.0, 0.0, 0.0, 0.0, 0.0, 0.0, 0.0, 0.0, 0.0, 1.6521761817125993E9, 0.0, 2022-05-10 11:49:41.712
100.0, -2818.1079409251142, 4966.155286569034, -53191.80973670599, -38434.02575660059, -29144.327836552602, -21182.23413017203, -28137.33704535211, -22617.529048625118, -0.24, 0.982, 0.23800000000000002, 192.0, 0.0, 0.0, 0.0, 0.0, 0.0, 0.0, 0.0, 0.0, 0.0, 1.6521761817126248E9, 0.0, 2022-05-10 11:49:41.712
101.0, -2812.0059146888157, 4964.724774923894, -53185.215972091675, -38428.1695995533, -29143.81374643013, -21164.79976949689, -28132.352606338576, -22629.66604586435, -0.24, 0.982, 0.23800000000000002, 192.0, 0.0, 0.0, 0.0, 0.0, 0.0, 0.0, 0.0, 0.0, 0.0, 1.6521761817126615E9, 0.0, 2022-05-10 11:49:41.712
102.0, -2803.3334378401564, 4973.240789561366, -53175.82823942044, -38416.99372732565, -29129.978016612295, -21161.96109795107, -28126.09411789109, -22611.650539833372, -0.24, 0.982, 0.23800000000000002, 192.0, 0.0, 0.0, 0.0, 0.0, 0.0, 0.0, 0.0, 0.0, 0.0, 1.6521761817126913E9, 0.0, 2022-05-10 11:49:41.712
103.0, -2806.1721093859805, 4972.905513394537, -53176.99053013212, -38415.09382904695, -29128.927484622895, -21171.885272489224, -28125.691786490894, -22619.317188181543, -0.24, 0.982, 0.23800000000000002, 192.0, 0.0, 0.0, 0.0, 0.0, 0.0, 0.0, 0.0, 0.0, 0.0, 1.6521761817127142E9, 0.0, 2022-05-10 11:49:41.712
104.0, -2802.215850617391, 4978.336987297176, -53171.26848355156, -38407.65069814333, -29122.780754897685, -21168.688973032116, -28119.8356294436, -22627.67674060783, -0.24, 0.982, 0.23800000000000002, 192.0, 0.0, 0.0, 0.0, 0.0, 0.0, 0.0, 0.0, 0.0, 0.0, 1.6521761817127404E9, 0.0, 2022-05-10 11:49:41.712
105.0, -2793.2304493463575, 4983.321426310709, -53161.098439824396, -38395.35723869291, -29108.430934957378, -21158.04954267139, -28106.89396940398, -22619.496002137184, -0.24, 0.982, 0.23800000000000002, 192.0, 0.0, 0.0, 0.0, 0.0, 0.0, 0.0, 0.0, 0.0, 0.0, 1.652176181712758E9, 0.0, 2022-05-10 11:49:41.712
106.0, -2789.542411511232, 4980.505106509341, -53157.23158803363, -38388.24938395612, -29106.151057022937, -21153.46743505805, -28103.742373435784, -22614.019824745636, -0.24, 0.982, 0.23800000000000002, 192.0, 0.0, 0.0, 0.0, 0.0, 0.0, 0.0, 0.0, 0.0, 0.0, 1.652176182191444E9, 0.0, 2022-05-10 11:49:42.191
107.0, -2785.6755597204638, 4985.2436763338665, -53154.48232346563, -38380.22510769667, -29108.833266357575, -21144.817309953847, -28098.020326855225, -22601.435792617296, -0.23800000000000002, 0.9500000000000001, 0.244, 192.0, 248.0, 144.0, 29.0, 176.0, 7.0, 160.0, 0.0, 0.0, 0.0, 1.6521761821914656E9, 0.0, 2022-05-10 11:49:42.191
108.0, -2784.7144347088856, 4992.887972937581, -53156.09164906641, -38375.73240706115, -29109.28030124668, -21142.00099015248, -28098.84734140007, -22601.346385639477, -0.23800000000000002, 0.9500000000000001, 0.244, 192.0, 0.0, 0.0, 0.0, 0.0, 0.0, 0.0, 0.0, 0.0, 0.0, 1.652176182191471E9, 0.0, 2022-05-10 11:49:42.191
109.0, -2784.7591381977963, 4996.620714261618, -53151.107210052876, -38371.64203782583, -29105.61461515601, -21135.496632515984, -28093.035887841692, -22603.358042640455, -0.23800000000000002, 0.9500000000000001, 0.244, 192.0, 0.0, 0.0, 0.0, 0.0, 0.0, 0.0, 0.0, 0.0, 0.0, 1.6521761821914763E9, 0.0, 2022-05-10 11:49:42.191
110.0, -2775.5502194822097, 5000.733435241394, -53137.20442500168, -38361.293180143024, -29086.637984113455, -21125.304237044365, -28075.422713210908, -22590.259920389646, -0.23800000000000002, 0.9500000000000001, 0.244, 192.0, 0.0, 0.0, 0.0, 0.0, 0.0, 0.0, 0.0, 0.0, 0.0, 1.6521761821914816E9, 0.0, 2022-05-10 11:49:42.191
111.0, -2772.935065380939, 4998.140632884578, -53134.96925055615, -38358.74508127512, -29089.119027747995, -21134.937838904603, -28076.920280089413, -22587.689469777284, -0.23800000000000002, 0.9500000000000001, 0.244, 192.0, 0.0, 0.0, 0.0, 0.0, 0.0, 0.0, 0.0, 0.0, 0.0, 1.6521761821914868E9, 0.0, 2022-05-10 11:49:42.191
112.0, -2764.8213821436625, 5006.254316121855, -53124.21806147314, -38347.300988114, -29088.292013203147, -21129.75223419097, -28071.35469572004, -22572.155007380847, -0.23800000000000002, 0.9500000000000001, 0.244, 192.0, 0.0, 0.0, 0.0, 0.0, 0.0, 0.0, 0.0, 0.0, 0.0, 1.652176182191492E9, 0.0, 2022-05-10 11:49:42.191
113.0, -2740.7485533652966, 5036.362115903154, -53103.140366451786, -38323.56343550247, -29065.157957691907, -21104.36065248974, -28049.338227431566, -22543.097739588946, -0.23800000000000002, 0.9500000000000001, 0.244, 192.0, 0.0, 0.0, 0.0, 0.0, 0.0, 0.0, 0.0, 0.0, 0.0, 1.652176182191497E9, 0.0, 2022-05-10 11:49:42.191
114.0, -2747.767001124263, 5029.656592566561, -53115.41147415775, -38335.67808099724, -29080.37949566597, -21114.26247528344, -28066.325553217597, -22549.780911181082, -0.23800000000000002, 0.9500000000000001, 0.244, 192.0, 0.0, 0.0, 0.0, 0.0, 0.0, 0.0, 0.0, 0.0, 0.0, 1.6521761821915023E9, 0.0, 2022-05-10 11:49:42.191
115.0, -2743.095486533104, 5028.024915221324, -53107.409549642754, -38330.09014488341, -29079.664239843398, -21100.94083558808, -28063.93391656088, -22549.155062336336, -0.23800000000000002, 0.9500000000000001, 0.244, 192.0, 0.0, 0.0, 0.0, 0.0, 0.0, 0.0, 0.0, 0.0, 0.0, 1.6521761821915078E9, 0.0, 2022-05-10 11:49:42.191
116.0, -2729.6173846265538, 5039.558415360262, -53094.75846228105, -38319.24954882259, -29071.14822520593, -21087.46273368153, -28052.087491999566, -22544.774120423095, -0.23800000000000002, 0.9500000000000001, 0.244, 192.0, 0.0, 0.0, 0.0, 0.0, 0.0, 0.0, 0.0, 0.0, 0.0, 1.652176182191513E9, 0.0, 2022-05-10 11:49:42.191
117.0, -2722.8895095455064, 5051.740116088405, -53086.66713078823, -38309.30302253998, -29059.480614600256, -21090.480219182995, -28042.02920699468, -22528.03266382607, -0.234, 0.964, 0.23600000000000002, 192.0, 248.0, 176.0, 30.0, 32.0, 7.0, 96.0, 0.0, 0.0, 0.0, 1.6521761821915183E9, 0.0, 2022-05-10 11:49:42.191
118.0, -2720.9225560334394, 5059.406764436575, -53082.9790929531, -38305.14559807129, -29049.13175691745, -21102.259588510944, -28041.872744783494, -22516.83443985396, -0.234, 0.964, 0.23600000000000002, 192.0, 0.0, 0.0, 0.0, 0.0, 0.0, 0.0, 0.0, 0.0, 0.0, 1.6521761821915233E9, 0.0, 2022-05-10 11:49:42.191
119.0, -2724.7670560797524, 5058.043308024801, -53083.627293542304, -38307.44782775019, -29056.08314944305, -21093.8776843402, -28046.723073330293, -22501.67995711326, -0.234, 0.964, 0.23600000000000002, 192.0, 0.0, 0.0, 0.0, 0.0, 0.0, 0.0, 0.0, 0.0, 0.0, 1.6521761821915283E9, 0.0, 2022-05-10 11:49:42.191
120.0, -2721.101369989082, 5056.121058001645, -53080.140421407275, -38309.37007777335, -29058.56419307759, -21097.141039030677, -28040.419881393897, -22503.378689691865, -0.234, 0.964, 0.23600000000000002, 192.0, 0.0, 0.0, 0.0, 0.0, 0.0, 0.0, 0.0, 0.0, 0.0, 1.6521761821915336E9, 0.0, 2022-05-10 11:49:42.191
121.0, -2710.8642710285512, 5060.814924337259, -53074.73129924909, -38307.02314460554, -29049.08705342854, -21095.330547729798, -28028.685215554862, -22491.040526752535, -0.234, 0.964, 0.23600000000000002, 192.0, 0.0, 0.0, 0.0, 0.0, 0.0, 0.0, 0.0, 0.0, 0.0, 1.652176182191539E9, 0.0, 2022-05-10 11:49:42.191
122.0, -2702.549422091177, 5068.168648263055, -53069.41158406873, -38301.77048465854, -29036.79359397812, -21083.55117840185, -28030.540410344653, -22490.660547096795, -0.234, 0.964, 0.23600000000000002, 192.0, 0.0, 0.0, 0.0, 0.0, 0.0, 0.0, 0.0, 0.0, 0.0, 1.652176182191544E9, 0.0, 2022-05-10 11:49:42.191
123.0, -2698.9507912338727, 5077.109346045178, -53066.1258776338, -38299.80353114647, -29025.03657639463, -21078.566739388316, -28021.68911954035, -22473.807331777494, -0.234, 0.964, 0.23600000000000002, 192.0, 0.0, 0.0, 0.0, 0.0, 0.0, 0.0, 0.0, 0.0, 0.0, 1.6521761821915493E9, 0.0, 2022-05-10 11:49:42.191
124.0, -2709.8584425280624, 5069.420345952552, -53074.30661610444, -38309.37007777335, -29032.5020590427, -21096.850466352756, -28017.55404681612, -22494.393288420833, -0.234, 0.964, 0.23600000000000002, 192.0, 0.0, 0.0, 0.0, 0.0, 0.0, 0.0, 0.0, 0.0, 0.0, 1.6521761821915543E9, 0.0, 2022-05-10 11:49:42.191
125.0, -2718.843843799096, 5059.116191758656, -53080.140421407275, -38316.567339487956, -29046.673065027368, -21100.31498674333, -28009.797991490126, -22481.697497570218, -0.234, 0.964, 0.23600000000000002, 192.0, 0.0, 0.0, 0.0, 0.0, 0.0, 0.0, 0.0, 0.0, 0.0, 1.6521761821915617E9, 0.0, 2022-05-10 11:49:42.191
126.0, -2724.4988351462885, 5049.683755598517, -53085.84011624338, -38319.271900567044, -29046.158974904894, -21106.327606001807, -28012.569607802583, -22487.64306159533, -0.234, 0.964, 0.23600000000000002, 192.0, 0.0, 0.0, 0.0, 0.0, 0.0, 0.0, 0.0, 0.0, 0.0, 1.6521761821915667E9, 0.0, 2022-05-10 11:49:42.191
127.0, -2717.838015298607, 5055.76343009036, -53083.02379644201, -38310.93469988521, -29031.83150670904, -21103.779507133902, -28013.15075315842, -22467.615898563374, -0.222, 0.966, 0.24, 192.0, 249.0, 16.0, 30.0, 48.0, 7.0, 128.0, 0.0, 0.0, 0.0, 1.652176182191572E9, 0.0, 2022-05-10 11:49:42.191
128.0, -2717.189814709403, 5064.972348805946, -53088.14234592228, -38310.37590627383, -29039.40874807939, -21107.311082757842, -28010.40148859042, -22471.572157331964, -0.222, 0.966, 0.24, 192.0, 0.0, 0.0, 0.0, 0.0, 0.0, 0.0, 0.0, 0.0, 0.0, 1.6521761821915824E9, 0.0, 2022-05-10 11:49:42.191
129.0, -2722.1742537229366, 5064.190037750011, -53098.737072794094, -38318.98132788912, -29044.23672488174, -21114.2848270279, -28025.93595098686, -22497.321366944478, -0.222, 0.966, 0.24, 192.0, 0.0, 0.0, 0.0, 0.0, 0.0, 0.0, 0.0, 0.0, 0.0, 1.652176182191592E9, 0.0, 2022-05-10 11:49:42.191
130.0, -2715.87106178654, 5065.732308117426, -53095.07138670342, -38315.69562145419, -29042.11330915848, -21107.065213568832, -28022.851410252028, -22488.604186606906, -0.222, 0.966, 0.24, 192.0, 0.0, 0.0, 0.0, 0.0, 0.0, 0.0, 0.0, 0.0, 0.0, 1.6521761821916003E9, 0.0, 2022-05-10 11:49:42.191
131.0, -2704.449320369878, 5069.442697697008, -53084.38725285378, -38307.26901379455, -29042.336826603037, -21086.70277437005, -28004.59003503204, -22482.97154700417, -0.222, 0.966, 0.24, 192.0, 0.0, 0.0, 0.0, 0.0, 0.0, 0.0, 0.0, 0.0, 0.0, 1.6521761821916094E9, 0.0, 2022-05-10 11:49:42.191
132.0, -2702.4376633689003, 5069.956787819479, -53084.99074995408, -38307.760752172566, -29039.431099823847, -21074.498721897453, -27989.323793569067, -22484.558520860497, -0.222, 0.966, 0.24, 192.0, 0.0, 0.0, 0.0, 0.0, 0.0, 0.0, 0.0, 0.0, 0.0, 1.6521761821916184E9, 0.0, 2022-05-10 11:49:42.191
133.0, -2720.319058933146, 5059.183246992022, -53106.47077637563, -38323.38462154682, -29046.002512693707, -21106.2829025129, -28019.230427650265, -22512.1629252628, -0.222, 0.966, 0.24, 192.0, 0.0, 0.0, 0.0, 0.0, 0.0, 0.0, 0.0, 0.0, 0.0, 1.652176182191627E9, 0.0, 2022-05-10 11:49:42.191
134.0, -2728.3880386815117, 5054.757601589871, -53114.65151484627, -38328.72668847164, -29045.51077431569, -21130.534545246905, -28033.155564445922, -22520.522477689086, -0.222, 0.966, 0.24, 192.0, 0.0, 0.0, 0.0, 0.0, 0.0, 0.0, 0.0, 0.0, 0.0, 1.6521761821916344E9, 0.0, 2022-05-10 11:49:42.191
135.0, -2726.4434369139003, 5055.249339967888, -53111.6340293448, -38325.44098203671, -29040.481631813247, -21129.618123724238, -28022.762003274205, -22518.801393366026, -0.222, 0.966, 0.24, 192.0, 0.0, 0.0, 0.0, 0.0, 0.0, 0.0, 0.0, 0.0, 0.0, 1.6521761821916416E9, 0.0, 2022-05-10 11:49:42.191
136.0, -2727.516320647755, 5050.287252698809, -53113.82450030142, -38324.658670980774, -29049.779957506653, -21130.22162082453, -28025.198343419834, -22520.3660154779, -0.222, 0.966, 0.24, 192.0, 0.0, 0.0, 0.0, 0.0, 0.0, 0.0, 0.0, 0.0, 0.0, 1.6521761821916487E9, 0.0, 2022-05-10 11:49:42.191
137.0, -2728.320983448146, 5051.293081199298, -53118.83129105941, -38323.71989771365, -29054.56323082009, -21128.724053946025, -28022.40437536292, -22514.64396889734, -0.212, 0.9460000000000001, 0.24, 192.0, 249.0, 96.0, 29.0, 144.0, 7.0, 128.0, 0.0, 0.0, 0.0, 1.6521761821916552E9, 0.0, 2022-05-10 11:49:42.191
138.0, -2729.6173846265538, 5055.025822523335, -53118.00427651457, -38327.22912159313, -29044.102614415006, -21134.446100526584, -28029.60163707753, -22535.498146474143, -0.212, 0.9460000000000001, 0.24, 192.0, 0.0, 0.0, 0.0, 0.0, 0.0, 0.0, 0.0, 0.0, 0.0, 1.6521761821916616E9, 0.0, 2022-05-10 11:49:42.191
