%OpenBCI Raw EEG Data
%Number of channels = 8
%Sample Rate = 250 Hz
%Board = OpenBCI_GUI$BoardCytonSerial
Sample Index, EXG Channel 0, EXG Channel 1, EXG Channel 2, EXG Channel 3, EXG Channel 4, EXG Channel 5, EXG Channel 6, EXG Channel 7, Accel Channel 0, Accel Channel 1, Accel Channel 2, Other, Other, Other, Other, Other, Other, Other, Analog Channel 0, Analog Channel 1, Analog Channel 2, Timestamp, Other, Timestamp (Formatted)
0.0, 0.0, 0.0, 0.0, 0.0, 0.0, 0.0, 0.0, 0.0, 0.0, 0.0, 0.0, 192.0, 0.0, 0.0, 0.0, 0.0, 0.0, 0.0, 0.0, 0.0, 0.0, 1.654608984047676E9, 0.0, 2022-06-07 15:36:24.047
1.0, 39365.28883758651, 13760.58325297633, -19524.96403753329, -22249.999314546505, -6988.630531863038, -6067.4704393709235, 15639.493243633897, 5637.132303372897, 0.042, 0.928, 0.434, 192.0, 1.0, 80.0, 29.0, 0.0, 13.0, 144.0, 0.0, 0.0, 0.0, 1.654608984105772E9, 0.0, 2022-06-07 15:36:24.105
2.0, 39242.801277971426, 13734.05173230788, -19564.39251475245, -22267.97011708857, -7038.139645831543, -6058.529741588801, 15545.392399477054, 5625.554099745047, 0.042, 0.928, 0.434, 192.0, 0.0, 0.0, 0.0, 0.0, 0.0, 0.0, 0.0, 0.0, 0.0, 1.654608984105778E9, 0.0, 2022-06-07 15:36:24.105
3.0, 39193.04629481391, 13739.639668421707, -19554.11071230301, -22278.341326515834, -7045.292204057241, -6092.817317583242, 15531.176690003478, 5630.538538758581, 0.042, 0.928, 0.434, 192.0, 0.0, 0.0, 0.0, 0.0, 0.0, 0.0, 0.0, 0.0, 0.0, 1.654608984105781E9, 0.0, 2022-06-07 15:36:24.105
4.0, 39280.6204295898, 13768.361660046776, -19508.08847046953, -22272.485169468542, -6999.873459324058, -6134.7938936703085, 15552.70141991394, 5641.625004008413, 0.042, 0.928, 0.434, 192.0, 0.0, 0.0, 0.0, 0.0, 0.0, 0.0, 0.0, 0.0, 0.0, 1.654608984105783E9, 0.0, 2022-06-07 15:36:24.105
5.0, 39385.98655295212, 13786.757145733494, -19483.367441101964, -22253.374427959257, -6954.432362846418, -6125.204995298982, 15573.153266090545, 5645.73772498819, 0.042, 0.928, 0.434, 192.0, 0.0, 0.0, 0.0, 0.0, 0.0, 0.0, 0.0, 0.0, 0.0, 1.654608984105785E9, 0.0, 2022-06-07 15:36:24.105
6.0, 39372.17317487874, 13771.893235670716, -19503.595769834017, -22242.31031445388, -6976.024147990245, -6068.073936471216, 15587.570141264217, 5641.535597030592, 0.042, 0.928, 0.434, 192.0, 0.0, 0.0, 0.0, 0.0, 0.0, 0.0, 0.0, 0.0, 0.0, 1.654608984105787E9, 0.0, 2022-06-07 15:36:24.105
7.0, 39245.90817045071, 13735.728113142028, -19542.66661914189, -22264.617355420276, -7038.161997575999, -6050.281947884792, 15571.32042304521, 5631.499663770159, 0.042, 0.928, 0.434, 192.0, 0.0, 0.0, 0.0, 0.0, 0.0, 0.0, 0.0, 0.0, 0.0, 1.65460898410579E9, 0.0, 2022-06-07 15:36:24.105
8.0, 39183.85972784278, 13723.702874625073, -19541.884308085955, -22284.957442874605, -7052.78003844977, -6096.862983329652, 15558.60228045014, 5625.3529340449495, 0.04, 0.93, 0.428, 192.0, 1.0, 64.0, 29.0, 16.0, 13.0, 96.0, 0.0, 0.0, 0.0, 1.654608984105792E9, 0.0, 2022-06-07 15:36:24.105
9.0, 39282.989714502066, 13765.76885768996, -19489.357708615986, -22269.17711128916, -7000.611066891082, -6136.023239615351, 15591.772269221816, 5647.682326755801, 0.04, 0.93, 0.428, 192.0, 0.0, 0.0, 0.0, 0.0, 0.0, 0.0, 0.0, 0.0, 0.0, 1.654608984105794E9, 0.0, 2022-06-07 15:36:24.105
10.0, 39399.97874498114, 13794.379090592754, -19459.071094879044, -22236.767081828963, -6954.097086679589, -6102.428567699024, 15616.225077655921, 5670.570513078036, 0.04, 0.93, 0.428, 192.0, 0.0, 0.0, 0.0, 0.0, 0.0, 0.0, 0.0, 0.0, 0.0, 1.654608984105797E9, 0.0, 2022-06-07 15:36:24.105
11.0, 39375.45888131367, 13771.15562810369, -19495.795011019112, -22220.226790932036, -6978.371081158052, -6044.559901304234, 15604.110432161146, 5668.558856077058, 0.04, 0.93, 0.428, 192.0, 0.0, 0.0, 0.0, 0.0, 0.0, 0.0, 0.0, 0.0, 0.0, 1.654608984105799E9, 0.0, 2022-06-07 15:36:24.105
12.0, 39244.92469369468, 13741.33840100031, -19545.192366265343, -22246.199517989102, -7033.423427751473, -6039.91073845753, 15574.94140564697, 5651.616233779935, 0.04, 0.93, 0.428, 192.0, 0.0, 0.0, 0.0, 0.0, 0.0, 0.0, 0.0, 0.0, 0.0, 1.654608984105801E9, 0.0, 2022-06-07 15:36:24.105
13.0, 39184.195004009605, 13737.806825376372, -19545.05825579861, -22268.685372911143, -7049.024945381278, -6084.144840734582, 15560.457475239931, 5639.859216196444, 0.04, 0.93, 0.428, 192.0, 0.0, 0.0, 0.0, 0.0, 0.0, 0.0, 0.0, 0.0, 0.0, 1.654608984105804E9, 0.0, 2022-06-07 15:36:24.105
14.0, 39270.9197724962, 13768.2499013245, -19498.23135116474, -22258.247108250514, -7002.466261680873, -6116.756035894876, 15585.916112174526, 5654.276091370117, 0.04, 0.93, 0.428, 192.0, 0.0, 0.0, 0.0, 0.0, 0.0, 0.0, 0.0, 0.0, 0.0, 1.654608984105806E9, 0.0, 2022-06-07 15:36:24.105
15.0, 39375.86121271386, 13774.284872327433, -19481.534598056627, -22246.98182904504, -6962.3895838725075, -6112.263335259358, 15591.03466165479, 5653.694946014279, 0.04, 0.93, 0.428, 192.0, 0.0, 0.0, 0.0, 0.0, 0.0, 0.0, 0.0, 0.0, 0.0, 1.654608984105808E9, 0.0, 2022-06-07 15:36:24.105
16.0, 39363.90302943028, 13760.15856983168, -19507.686139069338, -22242.48912840952, -6971.710261310371, -6058.641500311077, 15587.994824408868, 5646.028297666108, 0.04, 0.93, 0.428, 192.0, 0.0, 0.0, 0.0, 0.0, 0.0, 0.0, 0.0, 0.0, 0.0, 1.654608984166149E9, 0.0, 2022-06-07 15:36:24.166
17.0, 39239.29205409194, 13729.849604350282, -19551.786130879656, -22269.40062873371, -7024.907413114001, -6047.5773868057, 15561.440951995964, 5630.717352714223, 0.04, 0.93, 0.428, 192.0, 0.0, 0.0, 0.0, 0.0, 0.0, 0.0, 0.0, 0.0, 0.0, 1.654608984166167E9, 0.0, 2022-06-07 15:36:24.166
18.0, 39182.78684410892, 13726.76506361545, -19551.652020412927, -22286.522064986475, -7037.312631286697, -6089.375148937124, 15559.853978139638, 5626.783445690089, 0.044, 0.924, 0.428, 192.0, 1.0, 96.0, 28.0, 224.0, 13.0, 96.0, 0.0, 0.0, 0.0, 1.65460898416617E9, 0.0, 2022-06-07 15:36:24.166
19.0, 39271.29975215194, 13759.644479709206, -19511.217714693274, -22275.279137525456, -6991.156278986487, -6134.190396570015, 15612.335874120698, 5645.067172654531, 0.044, 0.924, 0.428, 192.0, 0.0, 0.0, 0.0, 0.0, 0.0, 0.0, 0.0, 0.0, 0.0, 1.654608984166172E9, 0.0, 2022-06-07 15:36:24.166
20.0, 39376.1964888807, 13772.832008937838, -19488.284824882132, -22253.530890170445, -6960.400278615985, -6122.634544686622, 15586.631367997095, 5652.1750273913185, 0.044, 0.924, 0.428, 192.0, 0.0, 0.0, 0.0, 0.0, 0.0, 0.0, 0.0, 0.0, 0.0, 1.654608984166174E9, 0.0, 2022-06-07 15:36:24.166
21.0, 39354.783517692515, 13750.592023204807, -19516.649188595915, -22245.39485518871, -6981.366214915063, -6065.928169003507, 15575.969585891913, 5638.026373151109, 0.044, 0.924, 0.428, 192.0, 0.0, 0.0, 0.0, 0.0, 0.0, 0.0, 0.0, 0.0, 0.0, 1.65460898416619E9, 0.0, 2022-06-07 15:36:24.166
22.0, 39221.67887946116, 13714.896287309683, -19562.492616473748, -22271.21112003459, -7039.0113638653, -6058.417982866524, 15545.92884134398, 5620.100274097953, 0.044, 0.924, 0.428, 192.0, 0.0, 0.0, 0.0, 0.0, 0.0, 0.0, 0.0, 0.0, 0.0, 1.654608984166206E9, 0.0, 2022-06-07 15:36:24.166
23.0, 39159.33986417531, 13715.678598365617, -19560.659773428415, -22291.41709702219, -7060.49139028685, -6105.758977622864, 15535.64703889454, 5615.026428106597, 0.044, 0.924, 0.428, 192.0, 0.0, 0.0, 0.0, 0.0, 0.0, 0.0, 0.0, 0.0, 0.0, 1.654608984166209E9, 0.0, 2022-06-07 15:36:24.166
24.0, 39248.657435018715, 13745.384066746721, -19519.599618864017, -22268.64066942223, -7025.175634047465, -6147.936719410029, 15575.70136495845, 5627.252832323651, 0.044, 0.924, 0.428, 192.0, 0.0, 0.0, 0.0, 0.0, 0.0, 0.0, 0.0, 0.0, 0.0, 1.654608984166211E9, 0.0, 2022-06-07 15:36:24.166
25.0, 39370.25092485559, 13769.814523436371, -19484.48502832473, -22235.716549839563, -6980.5839038591275, -6123.841538887208, 15579.679975471494, 5645.223634865718, 0.044, 0.924, 0.428, 192.0, 0.0, 0.0, 0.0, 0.0, 0.0, 0.0, 0.0, 0.0, 0.0, 1.654608984166213E9, 0.0, 2022-06-07 15:36:24.166
26.0, 39358.42685203873, 13767.668755968662, -19504.087508212033, -22220.807936287874, -6997.682988367437, -6063.491828857878, 15566.626556709596, 5645.7824284771, 0.044, 0.924, 0.428, 192.0, 0.0, 0.0, 0.0, 0.0, 0.0, 0.0, 0.0, 0.0, 0.0, 1.654608984166215E9, 0.0, 2022-06-07 15:36:24.166
27.0, 39232.83239994435, 13746.43459873612, -19547.7628168777, -22241.25978246448, -7040.196006321431, -6052.427715352502, 15568.817027666215, 5639.836864451989, 0.044, 0.92, 0.432, 192.0, 1.0, 96.0, 28.0, 192.0, 13.0, 128.0, 0.0, 0.0, 0.0, 1.654608984166217E9, 0.0, 2022-06-07 15:36:24.166
28.0, 39169.33109394683, 13742.545395200897, -19552.59079368005, -22264.438541464635, -7052.444762282939, -6096.6394658850995, 15552.187329791466, 5634.003059149153, 0.044, 0.92, 0.432, 192.0, 0.0, 0.0, 0.0, 0.0, 0.0, 0.0, 0.0, 0.0, 0.0, 1.654608984166219E9, 0.0, 2022-06-07 15:36:24.166
29.0, 39255.60882754431, 13767.44523852411, -19510.368348403972, -22257.420093705667, -7022.761645646292, -6144.74041995292, 15549.706286156928, 5638.652221995857, 0.044, 0.92, 0.432, 192.0, 0.0, 0.0, 0.0, 0.0, 0.0, 0.0, 0.0, 0.0, 0.0, 1.654608984166222E9, 0.0, 2022-06-07 15:36:24.166
30.0, 39366.85345969837, 13782.398555564709, -19480.70758351178, -22231.02268350395, -6990.642188864016, -6129.317716278758, 15566.850074154148, 5642.407315064349, 0.044, 0.92, 0.432, 192.0, 0.0, 0.0, 0.0, 0.0, 0.0, 0.0, 0.0, 0.0, 0.0, 1.654608984166224E9, 0.0, 2022-06-07 15:36:24.166
31.0, 39353.8894479143, 13761.611433221273, -19503.52871460065, -22224.25010493399, -7002.555668658694, -6069.482096371901, 15583.815048195727, 5638.674573740313, 0.044, 0.92, 0.432, 192.0, 0.0, 0.0, 0.0, 0.0, 0.0, 0.0, 0.0, 0.0, 0.0, 1.654608984226365E9, 0.0, 2022-06-07 15:36:24.226
32.0, 39227.825609186366, 13727.636781649207, -19546.10878778801, -22251.228660491546, -7044.733410445859, -6055.445200853968, 15616.895629989582, 5636.26058533914, 0.044, 0.92, 0.432, 192.0, 0.0, 0.0, 0.0, 0.0, 0.0, 0.0, 0.0, 0.0, 0.0, 1.654608984226371E9, 0.0, 2022-06-07 15:36:24.226
33.0, 39167.25238171248, 13728.888479338704, -19538.643305139936, -22268.752428144508, -7052.556521005216, -6096.214782740448, 15587.771306964316, 5637.73580047319, 0.044, 0.92, 0.432, 192.0, 0.0, 0.0, 0.0, 0.0, 0.0, 0.0, 0.0, 0.0, 0.0, 1.654608984226374E9, 0.0, 2022-06-07 15:36:24.226
34.0, 39259.25216189053, 13770.172151347657, -19487.971900459757, -22250.133425013235, -7009.887040840035, -6136.649088460099, 15555.160111804023, 5643.279033098106, 0.044, 0.92, 0.432, 192.0, 0.0, 0.0, 0.0, 0.0, 0.0, 0.0, 0.0, 0.0, 0.0, 1.654608984226376E9, 0.0, 2022-06-07 15:36:24.226
35.0, 39376.26354411406, 13791.540419046929, -19460.61336524646, -22225.367692156757, -6974.213656689365, -6120.667591174554, 15568.41469626602, 5645.447152310271, 0.044, 0.92, 0.432, 192.0, 0.0, 0.0, 0.0, 0.0, 0.0, 0.0, 0.0, 0.0, 0.0, 1.654608984226378E9, 0.0, 2022-06-07 15:36:24.226
36.0, 39367.54636377649, 13768.62988098024, -19488.910673726878, -22223.53484911142, -6989.122270241055, -6067.895122515574, 15571.231016067388, 5637.199358606263, 0.044, 0.92, 0.432, 192.0, 0.0, 0.0, 0.0, 0.0, 0.0, 0.0, 0.0, 0.0, 0.0, 1.65460898422638E9, 0.0, 2022-06-07 15:36:24.226
37.0, 39236.76630696849, 13724.90986882566, -19540.43144469636, -22251.049846535905, -7040.754799932814, -6069.549151605267, 15553.573137947697, 5621.642544465369, 0.04, 0.924, 0.43, 192.0, 1.0, 64.0, 28.0, 224.0, 13.0, 112.0, 0.0, 0.0, 0.0, 1.654608984226383E9, 0.0, 2022-06-07 15:36:24.226
38.0, 39159.78689906441, 13718.204345489068, -19543.314819731095, -22258.53768092843, -7056.4233727959845, -6104.462576444456, 15552.120274558101, 5623.16246308833, 0.04, 0.924, 0.43, 192.0, 0.0, 0.0, 0.0, 0.0, 0.0, 0.0, 0.0, 0.0, 0.0, 1.654608984226385E9, 0.0, 2022-06-07 15:36:24.226
39.0, 39249.39504258574, 13761.700840199095, -19490.564702816573, -22245.037227277426, -7012.725712385859, -6132.491663991412, 15579.724678960405, 5646.341222088483, 0.04, 0.924, 0.43, 192.0, 0.0, 0.0, 0.0, 0.0, 0.0, 0.0, 0.0, 0.0, 0.0, 1.654608984226387E9, 0.0, 2022-06-07 15:36:24.226
40.0, 39369.60272426638, 13785.974834677558, -19455.360705299463, -22214.147116440192, -6966.077621707634, -6109.357608480169, 15603.261065871844, 5664.714356030746, 0.04, 0.924, 0.43, 192.0, 0.0, 0.0, 0.0, 0.0, 0.0, 0.0, 0.0, 0.0, 0.0, 1.65460898422639E9, 0.0, 2022-06-07 15:36:24.226
41.0, 39357.95746540516, 13766.640575723717, -19486.295519625608, -22210.81670651635, -6985.322473683653, -6059.53557008929, 15614.012254954847, 5652.934986702799, 0.04, 0.924, 0.43, 192.0, 0.0, 0.0, 0.0, 0.0, 0.0, 0.0, 0.0, 0.0, 0.0, 1.6546089842264E9, 0.0, 2022-06-07 15:36:24.226
42.0, 39229.18906559814, 13730.520156683942, -19539.224450495774, -22244.54548889941, -7047.370916291585, -6058.306224144248, 15605.473888572918, 5635.0982946274635, 0.04, 0.924, 0.43, 192.0, 0.0, 0.0, 0.0, 0.0, 0.0, 0.0, 0.0, 0.0, 0.0, 1.654608984226402E9, 0.0, 2022-06-07 15:36:24.226
43.0, 39159.49632638649, 13721.110072268257, -19543.06895054209, -22267.277213010457, -7061.5866257651605, -6105.378997967124, 15550.26507976831, 5632.818416693022, 0.04, 0.924, 0.43, 192.0, 0.0, 0.0, 0.0, 0.0, 0.0, 0.0, 0.0, 0.0, 0.0, 1.654608984226413E9, 0.0, 2022-06-07 15:36:24.226
44.0, 39242.980091927064, 13753.76597091746, -19500.53358084364, -22263.544471686422, -7021.822872379169, -6151.378888056146, 15546.107655299624, 5636.707620228246, 0.04, 0.924, 0.43, 192.0, 0.0, 0.0, 0.0, 0.0, 0.0, 0.0, 0.0, 0.0, 0.0, 1.654608984226428E9, 0.0, 2022-06-07 15:36:24.226
45.0, 39363.165421863254, 13778.643462496217, -19471.431609562827, -22238.331703940836, -6981.120345726054, -6129.697695934498, 15584.954987162948, 5650.386887834894, 0.04, 0.924, 0.43, 192.0, 0.0, 0.0, 0.0, 0.0, 0.0, 0.0, 0.0, 0.0, 0.0, 1.65460898422643E9, 0.0, 2022-06-07 15:36:24.226
46.0, 39367.568715520945, 13770.641537981217, -19493.71629878477, -22221.187915943614, -6990.821002819658, -6064.095325958172, 15624.897554504581, 5653.382021591905, 0.04, 0.924, 0.43, 192.0, 0.0, 0.0, 0.0, 0.0, 0.0, 0.0, 0.0, 0.0, 0.0, 1.654608984286681E9, 0.0, 2022-06-07 15:36:24.286
47.0, 39251.49610656454, 13744.802921390883, -19534.68704637135, -22236.565916128864, -7031.165901561488, -6040.313069857725, 15565.911300887026, 5645.849483710466, 0.034, 0.92, 0.434, 192.0, 1.0, 16.0, 28.0, 192.0, 13.0, 144.0, 0.0, 0.0, 0.0, 1.654608984286687E9, 0.0, 2022-06-07 15:36:24.286
48.0, 39189.872347101256, 13742.366581245255, -19531.602505636514, -22253.754407614997, -7049.807256437213, -6077.752241820364, 15553.327268758687, 5648.1293616449075, 0.034, 0.92, 0.434, 192.0, 0.0, 0.0, 0.0, 0.0, 0.0, 0.0, 0.0, 0.0, 0.0, 1.654608984286689E9, 0.0, 2022-06-07 15:36:24.286
49.0, 39271.5679730854, 13775.782439205937, -19480.19349338931, -22223.467793878055, -7007.517755927773, -6113.403274226579, 15577.51185625933, 5669.989367722198, 0.034, 0.92, 0.434, 192.0, 0.0, 0.0, 0.0, 0.0, 0.0, 0.0, 0.0, 0.0, 0.0, 1.654608984286691E9, 0.0, 2022-06-07 15:36:24.286
50.0, 39378.58812553741, 13798.245942383523, -19453.86313842096, -22199.55142731088, -6970.145639198499, -6099.567544408745, 15603.953969949958, 5682.841620783999, 0.034, 0.92, 0.434, 192.0, 0.0, 0.0, 0.0, 0.0, 0.0, 0.0, 0.0, 0.0, 0.0, 1.654608984286694E9, 0.0, 2022-06-07 15:36:24.286
51.0, 39367.09932888739, 13784.901950943704, -19478.33829859952, -22186.185084126602, -6984.830735305636, -6042.212968136427, 15610.748900264372, 5680.897019016388, 0.034, 0.92, 0.434, 192.0, 0.0, 0.0, 0.0, 0.0, 0.0, 0.0, 0.0, 0.0, 0.0, 1.654608984286696E9, 0.0, 2022-06-07 15:36:24.286
52.0, 39237.548618024426, 13749.00504934848, -19530.239049224743, -22213.92359899564, -7038.541977231739, -6031.350020331147, 15585.98316740789, 5662.16625716284, 0.034, 0.92, 0.434, 192.0, 0.0, 0.0, 0.0, 0.0, 0.0, 0.0, 0.0, 0.0, 0.0, 1.654608984286698E9, 0.0, 2022-06-07 15:36:24.286
53.0, 39176.95303880609, 13747.99922084799, -19530.216697480286, -22235.604791117286, -7050.723677959881, -6069.862076027641, 15569.12995208859, 5659.126419916919, 0.034, 0.92, 0.434, 192.0, 0.0, 0.0, 0.0, 0.0, 0.0, 0.0, 0.0, 0.0, 0.0, 1.6546089842867E9, 0.0, 2022-06-07 15:36:24.286
54.0, 39259.54273456845, 13779.090497385323, -19480.729935256237, -22227.06642473536, -7010.132910029043, -6113.291515504303, 15583.077440628702, 5671.777507278623, 0.034, 0.92, 0.434, 192.0, 0.0, 0.0, 0.0, 0.0, 0.0, 0.0, 0.0, 0.0, 0.0, 1.654608984286703E9, 0.0, 2022-06-07 15:36:24.286
55.0, 39384.421930840246, 13805.890238987236, -19445.23536506121, -22197.11508716525, -6961.2719966497425, -6089.643369870588, 15611.821783998226, 5688.071928986541, 0.034, 0.92, 0.434, 192.0, 0.0, 0.0, 0.0, 0.0, 0.0, 0.0, 0.0, 0.0, 0.0, 1.654608984286705E9, 0.0, 2022-06-07 15:36:24.286
56.0, 39380.59978253839, 13786.846552711315, -19474.98553693122, -22196.936273209605, -6970.2573979207755, -6035.328630844192, 15620.717778291439, 5679.153582948874, 0.034, 0.92, 0.434, 192.0, 0.0, 0.0, 0.0, 0.0, 0.0, 0.0, 0.0, 0.0, 0.0, 1.654608984286707E9, 0.0, 2022-06-07 15:36:24.286
57.0, 39245.438783817146, 13742.567746945351, -19529.859069569, -22216.717567052554, -7029.847148638624, -6032.557014531733, 15590.721737232416, 5656.757135004656, 0.032, 0.93, 0.434, 192.0, 1.0, 0.0, 29.0, 16.0, 13.0, 144.0, 0.0, 0.0, 0.0, 1.654608984286709E9, 0.0, 2022-06-07 15:36:24.286
58.0, 39175.43312018313, 13738.075046309836, -19533.725921359768, -22238.957552785585, -7050.455457026417, -6072.5219336178225, 15562.446780496453, 5650.49864655717, 0.032, 0.93, 0.434, 192.0, 0.0, 0.0, 0.0, 0.0, 0.0, 0.0, 0.0, 0.0, 0.0, 1.654608984286712E9, 0.0, 2022-06-07 15:36:24.286
59.0, 39262.783737514466, 13776.2518258395, -19486.96607195927, -22229.279247436436, -7004.723787870859, -6113.582088182222, 15575.053164369247, 5667.240103154195, 0.032, 0.93, 0.434, 192.0, 0.0, 0.0, 0.0, 0.0, 0.0, 0.0, 0.0, 0.0, 0.0, 1.654608984286714E9, 0.0, 2022-06-07 15:36:24.286
60.0, 39378.69988425969, 13792.747413247516, -19454.936022154812, -22203.597093057288, -6963.28365365072, -6095.030140284317, 15615.442766599986, 5679.712376560256, 0.032, 0.93, 0.434, 192.0, 0.0, 0.0, 0.0, 0.0, 0.0, 0.0, 0.0, 0.0, 0.0, 1.654608984286716E9, 0.0, 2022-06-07 15:36:24.286
61.0, 39369.379206821824, 13773.81548569387, -19483.769772502157, -22198.43384008811, -6981.969712015357, -6036.356811089136, 15633.234755186411, 5671.621045067435, 0.032, 0.93, 0.434, 192.0, 0.0, 0.0, 0.0, 0.0, 0.0, 0.0, 0.0, 0.0, 0.0, 1.654608984346039E9, 0.0, 2022-06-07 15:36:24.346
62.0, 39246.37755708427, 13733.2917729964, -19534.843508582533, -22226.909962524172, -7036.910299886501, -6032.199386620448, 15563.944347374958, 5650.230425623707, 0.032, 0.93, 0.434, 192.0, 0.0, 0.0, 0.0, 0.0, 0.0, 0.0, 0.0, 0.0, 0.0, 1.654608984346044E9, 0.0, 2022-06-07 15:36:24.346
63.0, 39178.29414347341, 13729.827252605826, -19537.90569757291, -22245.953648800096, -7052.221244838387, -6079.808602310253, 15574.315556802221, 5643.033163909097, 0.032, 0.93, 0.434, 192.0, 0.0, 0.0, 0.0, 0.0, 0.0, 0.0, 0.0, 0.0, 0.0, 1.654608984346047E9, 0.0, 2022-06-07 15:36:24.346
64.0, 39273.15494694173, 13767.825218179849, -19493.224560406754, -22233.07904399384, -7014.715017642381, -6123.372152253646, 15594.722699489916, 5660.445172839782, 0.032, 0.93, 0.434, 192.0, 0.0, 0.0, 0.0, 0.0, 0.0, 0.0, 0.0, 0.0, 0.0, 1.654608984346056E9, 0.0, 2022-06-07 15:36:24.346
65.0, 39404.02441072755, 13803.140974419233, -19452.633792475914, -22200.11022092226, -6962.56839782815, -6096.862983329652, 15588.08423138669, 5677.968940492742, 0.032, 0.93, 0.434, 192.0, 0.0, 0.0, 0.0, 0.0, 0.0, 0.0, 0.0, 0.0, 0.0, 1.654608984346058E9, 0.0, 2022-06-07 15:36:24.346
66.0, 39405.76784679507, 13800.570523806873, -19477.645394521405, -22189.828418472818, -6976.113554968066, -6036.468569811413, 15583.457420284441, 5672.492763101192, 0.032, 0.93, 0.434, 192.0, 0.0, 0.0, 0.0, 0.0, 0.0, 0.0, 0.0, 0.0, 0.0, 1.654608984346061E9, 0.0, 2022-06-07 15:36:24.346
67.0, 39280.06163597842, 13758.929223886636, -19528.92029630188, -22219.466831620557, -7032.43995099544, -6033.294622098759, 15572.259196312332, 5654.834884981499, 0.028, 0.926, 0.43, 192.0, 0.0, 224.0, 28.0, 240.0, 13.0, 112.0, 0.0, 0.0, 0.0, 1.654608984346063E9, 0.0, 2022-06-07 15:36:24.346
68.0, 39209.296013032916, 13755.643517451706, -19530.619028880483, -22245.841890077816, -7052.355355305119, -6072.3431196621805, 15562.692649685461, 5645.268338354628, 0.028, 0.926, 0.43, 192.0, 0.0, 0.0, 0.0, 0.0, 0.0, 0.0, 0.0, 0.0, 0.0, 1.654608984346065E9, 0.0, 2022-06-07 15:36:24.346
69.0, 39288.19767096015, 13781.973872420058, -19487.636624292925, -22249.239355235026, -7013.463319952884, -6112.531556192823, 15572.37095503461, 5651.25860586865, 0.028, 0.926, 0.43, 192.0, 0.0, 0.0, 0.0, 0.0, 0.0, 0.0, 0.0, 0.0, 0.0, 1.654608984346068E9, 0.0, 2022-06-07 15:36:24.346
70.0, 39408.94179450772, 13800.414061595686, -19460.27808907963, -22219.578590342833, -6973.699566566893, -6105.803681111775, 15595.03562391229, 5655.885416970899, 0.028, 0.926, 0.43, 192.0, 0.0, 0.0, 0.0, 0.0, 0.0, 0.0, 0.0, 0.0, 0.0, 1.65460898434607E9, 0.0, 2022-06-07 15:36:24.346
71.0, 39415.26733818857, 13784.901950943704, -19489.782391760637, -22214.437689118113, -6988.943456285412, -6056.741602032376, 15586.787830208283, 5644.329565087505, 0.028, 0.926, 0.43, 192.0, 0.0, 0.0, 0.0, 0.0, 0.0, 0.0, 0.0, 0.0, 0.0, 1.654608984346072E9, 0.0, 2022-06-07 15:36:24.346
72.0, 39295.26082220803, 13751.1955203051, -19536.49753767223, -22242.757349342985, -7046.007459879811, -6045.677488526999, 15550.175672790489, 5623.408332277338, 0.028, 0.926, 0.43, 192.0, 0.0, 0.0, 0.0, 0.0, 0.0, 0.0, 0.0, 0.0, 0.0, 1.654608984346075E9, 0.0, 2022-06-07 15:36:24.346
73.0, 39222.84117017283, 13740.91371785566, -19540.72201737428, -22264.08091355335, -7056.691593729448, -6082.267294200336, 15551.203853035433, 5627.118721856919, 0.028, 0.926, 0.43, 192.0, 0.0, 0.0, 0.0, 0.0, 0.0, 0.0, 0.0, 0.0, 0.0, 1.654608984346077E9, 0.0, 2022-06-07 15:36:24.346
74.0, 39300.804054832945, 13775.357756061287, -19493.313967384573, -22257.01776230547, -7002.399206447507, -6128.669515689554, 15597.874295458114, 5649.939852945788, 0.028, 0.926, 0.43, 192.0, 0.0, 0.0, 0.0, 0.0, 0.0, 0.0, 0.0, 0.0, 0.0, 1.654608984346079E9, 0.0, 2022-06-07 15:36:24.346
75.0, 39434.46748667568, 13800.391709851232, -19449.57160348554, -22221.947875255093, -6938.741438238792, -6105.06607354475, 15641.147272723589, 5675.577303836025, 0.028, 0.926, 0.43, 192.0, 0.0, 0.0, 0.0, 0.0, 0.0, 0.0, 0.0, 0.0, 0.0, 1.654608984346082E9, 0.0, 2022-06-07 15:36:24.346
76.0, 39432.589940141435, 13781.3033200864, -19475.23140612023, -22214.52709609593, -6955.192322157899, -6046.549206560756, 15649.976211783436, 5668.894132243888, 0.028, 0.926, 0.43, 192.0, 0.0, 0.0, 0.0, 0.0, 0.0, 0.0, 0.0, 0.0, 0.0, 1.654608984405766E9, 0.0, 2022-06-07 15:36:24.405
77.0, 39309.342421214875, 13756.738752930016, -19518.81730780808, -22233.704892838585, -7008.210660005887, -6025.00212490584, 15637.079255232724, 5656.734783260201, 0.032, 0.924, 0.428, 192.0, 1.0, 0.0, 28.0, 224.0, 13.0, 96.0, 0.0, 0.0, 0.0, 1.654608984405785E9, 0.0, 2022-06-07 15:36:24.405
78.0, 39244.611769272306, 13758.370430275254, -19523.265304954686, -22248.568802901365, -7026.337924759141, -6059.021479966817, 15588.732431975894, 5657.628853038413, 0.032, 0.924, 0.428, 192.0, 0.0, 0.0, 0.0, 0.0, 0.0, 0.0, 0.0, 0.0, 0.0, 1.654608984405789E9, 0.0, 2022-06-07 15:36:24.405
79.0, 39323.379316732804, 13783.292625342921, -19485.28969112512, -22247.07123602286, -6994.57609588815, -6106.988323567906, 15580.194065593967, 5666.12251593143, 0.032, 0.924, 0.428, 192.0, 0.0, 0.0, 0.0, 0.0, 0.0, 0.0, 0.0, 0.0, 0.0, 1.654608984405792E9, 0.0, 2022-06-07 15:36:24.405
80.0, 39436.6579576323, 13806.963122721092, -19460.47925477973, -22228.4969363805, -6955.974633213835, -6099.880468831118, 15612.559391565252, 5674.839696268999, 0.032, 0.924, 0.428, 192.0, 0.0, 0.0, 0.0, 0.0, 0.0, 0.0, 0.0, 0.0, 0.0, 1.654608984405796E9, 0.0, 2022-06-07 15:36:24.405
81.0, 39436.6579576323, 13793.39561383672, -19490.43059234984, -22224.741843312007, -6963.641281562005, -6056.987471221384, 15624.025836470824, 5672.448059612282, 0.032, 0.924, 0.428, 192.0, 0.0, 0.0, 0.0, 0.0, 0.0, 0.0, 0.0, 0.0, 0.0, 1.654608984405799E9, 0.0, 2022-06-07 15:36:24.405
82.0, 39313.20927300564, 13756.179959318633, -19540.274982485174, -22258.627087906254, -7016.346694987619, -6044.582253048689, 15601.584685037697, 5646.743553488678, 0.032, 0.924, 0.428, 192.0, 0.0, 0.0, 0.0, 0.0, 0.0, 0.0, 0.0, 0.0, 0.0, 1.654608984405803E9, 0.0, 2022-06-07 15:36:24.405
83.0, 39239.67203374768, 13754.168302317656, -19539.738540618247, -22262.963326330584, -7030.495349227828, -6070.778497550309, 15563.854940397137, 5645.916538943832, 0.032, 0.924, 0.428, 192.0, 0.0, 0.0, 0.0, 0.0, 0.0, 0.0, 0.0, 0.0, 0.0, 1.654608984405806E9, 0.0, 2022-06-07 15:36:24.405
84.0, 39314.01393580603, 13785.527799788451, -19493.649243551405, -22252.145082014213, -6993.726729598848, -6102.674436888032, 15580.059955127235, 5663.015623452142, 0.032, 0.924, 0.428, 192.0, 0.0, 0.0, 0.0, 0.0, 0.0, 0.0, 0.0, 0.0, 0.0, 1.65460898440581E9, 0.0, 2022-06-07 15:36:24.405
85.0, 39432.07585001896, 13811.947561734625, -19467.296536838596, -22233.280209693934, -6958.410973359463, -6089.956294292962, 15591.32523433271, 5663.954396719265, 0.032, 0.924, 0.428, 192.0, 0.0, 0.0, 0.0, 0.0, 0.0, 0.0, 0.0, 0.0, 0.0, 1.654608984405813E9, 0.0, 2022-06-07 15:36:24.405
86.0, 39441.57534141247, 13802.179849407656, -19486.653147536894, -22221.92552351064, -6964.960034484868, -6033.316973843214, 15599.505972803352, 5661.383946106905, 0.032, 0.924, 0.428, 192.0, 0.0, 0.0, 0.0, 0.0, 0.0, 0.0, 0.0, 0.0, 0.0, 1.654608984405822E9, 0.0, 2022-06-07 15:36:24.405
87.0, 39321.16649403173, 13751.061409838368, -19535.558764405105, -22248.59115464582, -7020.77234038977, -6020.151796359039, 15575.991937636369, 5648.218768622729, 0.04, 0.916, 0.436, 192.0, 1.0, 64.0, 28.0, 160.0, 13.0, 160.0, 0.0, 0.0, 0.0, 1.654608984405826E9, 0.0, 2022-06-07 15:36:24.405
88.0, 39243.58358902736, 13749.899119126692, -19537.995104550733, -22265.667887409676, -7038.25140455382, -6057.747430532865, 15567.207702065434, 5649.917501201332, 0.04, 0.916, 0.436, 192.0, 0.0, 0.0, 0.0, 0.0, 0.0, 0.0, 0.0, 0.0, 0.0, 1.654608984405829E9, 0.0, 2022-06-07 15:36:24.405
89.0, 39318.26076725254, 13789.305244601399, -19497.29257789762, -22254.469663437565, -7002.309799469686, -6097.354721707669, 15582.429240039497, 5661.428649595815, 0.04, 0.916, 0.436, 192.0, 0.0, 0.0, 0.0, 0.0, 0.0, 0.0, 0.0, 0.0, 0.0, 1.654608984405833E9, 0.0, 2022-06-07 15:36:24.405
90.0, 39441.84356234593, 13816.037930969946, -19467.22948160523, -22227.35699741328, -6961.204941416377, -6082.647273856077, 15613.94519972148, 5678.259513170661, 0.04, 0.916, 0.436, 192.0, 0.0, 0.0, 0.0, 0.0, 0.0, 0.0, 0.0, 0.0, 0.0, 1.654608984405837E9, 0.0, 2022-06-07 15:36:24.405
91.0, 39443.989329813645, 13804.01269245299, -19495.7503075302, -22217.701043808585, -6977.231142190832, -6029.181901118983, 15630.574897596229, 5673.565646835047, 0.04, 0.916, 0.436, 192.0, 0.0, 0.0, 0.0, 0.0, 0.0, 0.0, 0.0, 0.0, 0.0, 1.654608984466119E9, 0.0, 2022-06-07 15:36:24.466
92.0, 39309.45417993715, 13763.667793711162, -19551.54026169065, -22250.178128502146, -7027.410808492996, -6019.4588922809235, 15614.99573171088, 5653.605539036458, 0.04, 0.916, 0.436, 192.0, 0.0, 0.0, 0.0, 0.0, 0.0, 0.0, 0.0, 0.0, 0.0, 1.654608984466125E9, 0.0, 2022-06-07 15:36:24.466
93.0, 39224.38344054025, 13754.235357551022, -19556.21177628181, -22277.44725673762, -7025.980296847856, -6069.012709738339, 15560.546882217752, 5644.910710443343, 0.04, 0.916, 0.436, 192.0, 0.0, 0.0, 0.0, 0.0, 0.0, 0.0, 0.0, 0.0, 0.0, 1.654608984466128E9, 0.0, 2022-06-07 15:36:24.466
94.0, 39297.40658967574, 13784.63373001024, -19514.72693857276, -22276.195559048127, -6999.247610479309, -6119.25943127387, 15579.210588837934, 5652.8232279805225, 0.04, 0.916, 0.436, 192.0, 0.0, 0.0, 0.0, 0.0, 0.0, 0.0, 0.0, 0.0, 0.0, 1.654608984466131E9, 0.0, 2022-06-07 15:36:24.466
95.0, 39423.492780148124, 13813.802756524416, -19478.51711255516, -22255.430788449146, -6960.489685593807, -6109.089387546705, 15600.534153048297, 5659.975786206221, 0.04, 0.916, 0.436, 192.0, 0.0, 0.0, 0.0, 0.0, 0.0, 0.0, 0.0, 0.0, 0.0, 1.654608984466133E9, 0.0, 2022-06-07 15:36:24.466
96.0, 39426.59967262741, 13799.274122628465, -19502.254665166696, -22258.94001232863, -6965.943511240901, -6060.496695100867, 15602.94814144947, 5650.208073879251, 0.04, 0.916, 0.436, 192.0, 0.0, 0.0, 0.0, 0.0, 0.0, 0.0, 0.0, 0.0, 0.0, 1.654608984466136E9, 0.0, 2022-06-07 15:36:24.466
97.0, 39305.073238023906, 13763.220758822055, -19549.68506690086, -22273.49099796903, -7018.827738622158, -6049.969023462418, 15577.08717311468, 5638.719277229224, 0.042, 0.92, 0.436, 192.0, 1.0, 80.0, 28.0, 192.0, 13.0, 160.0, 0.0, 0.0, 0.0, 1.654608984466141E9, 0.0, 2022-06-07 15:36:24.466
98.0, 39218.34846953732, 13745.071142324347, -19562.82789264058, -22294.971024390583, -7045.113390101599, -6089.799832081775, 15552.477902469385, 5630.583242247491, 0.042, 0.92, 0.436, 192.0, 0.0, 0.0, 0.0, 0.0, 0.0, 0.0, 0.0, 0.0, 0.0, 1.654608984466144E9, 0.0, 2022-06-07 15:36:24.466
99.0, 39285.20253720314, 13772.116753115268, -19529.568496891083, -22293.89814065673, -7017.129006043555, -6134.905652392585, 15552.544957702752, 5632.773713204112, 0.042, 0.92, 0.436, 192.0, 0.0, 0.0, 0.0, 0.0, 0.0, 0.0, 0.0, 0.0, 0.0, 1.654608984466161E9, 0.0, 2022-06-07 15:36:24.466
100.0, 39408.6512218298, 13794.602608037307, -19499.930083743344, -22266.897233354717, -6975.532409612229, -6122.500434219889, 15574.561425991229, 5645.871835454922, 0.042, 0.92, 0.436, 192.0, 0.0, 0.0, 0.0, 0.0, 0.0, 0.0, 0.0, 0.0, 0.0, 1.654608984466164E9, 0.0, 2022-06-07 15:36:24.466
101.0, 39411.48989337563, 13778.241131096021, -19518.303217685607, -22247.428863934143, -6980.7627178147695, -6065.43643062549, 15582.205722594945, 5649.649280267869, 0.042, 0.92, 0.436, 192.0, 0.0, 0.0, 0.0, 0.0, 0.0, 0.0, 0.0, 0.0, 0.0, 1.654608984466166E9, 0.0, 2022-06-07 15:36:24.466
102.0, 39299.17237748771, 13756.559938974375, -19553.462511713806, -22252.636820392232, -7022.404017735007, -6041.38595359158, 15568.3252892882, 5644.709544743246, 0.042, 0.92, 0.436, 192.0, 0.0, 0.0, 0.0, 0.0, 0.0, 0.0, 0.0, 0.0, 0.0, 1.654608984466169E9, 0.0, 2022-06-07 15:36:24.466
103.0, 39228.25029233102, 13754.928261629137, -19551.607316924015, -22257.665962894676, -7043.995802878833, -6072.432526640002, 15555.204815292933, 5643.189626120285, 0.042, 0.92, 0.436, 192.0, 0.0, 0.0, 0.0, 0.0, 0.0, 0.0, 0.0, 0.0, 0.0, 1.654608984466171E9, 0.0, 2022-06-07 15:36:24.466
104.0, 39303.530967656494, 13793.44031732563, -19504.24397042322, -22240.119843497258, -7014.20092751991, -6108.240021257404, 15563.385553763575, 5652.666765769335, 0.042, 0.92, 0.436, 192.0, 0.0, 0.0, 0.0, 0.0, 0.0, 0.0, 0.0, 0.0, 0.0, 1.654608984466173E9, 0.0, 2022-06-07 15:36:24.466
105.0, 39430.17595174026, 13832.734684078061, -19463.116760625453, -22209.721471038043, -6965.004737973779, -6089.44220417049, 15597.85194371366, 5674.906751502365, 0.042, 0.92, 0.436, 192.0, 0.0, 0.0, 0.0, 0.0, 0.0, 0.0, 0.0, 0.0, 0.0, 1.654608984466175E9, 0.0, 2022-06-07 15:36:24.466
106.0, 39429.438344173235, 13817.803718781915, -19490.564702816573, -22214.035357717916, -6969.072755464645, -6042.145912903061, 15612.961722965447, 5672.112783445452, 0.042, 0.92, 0.436, 192.0, 0.0, 0.0, 0.0, 0.0, 0.0, 0.0, 0.0, 0.0, 0.0, 1.654608984526431E9, 0.0, 2022-06-07 15:36:24.526
107.0, 39314.438618950684, 13789.260541112488, -19530.663732369394, -22229.569820114353, -7011.943401329923, -6013.71449395591, 15620.158984680056, 5664.401431608371, 0.044, 0.926, 0.438, 192.0, 1.0, 96.0, 28.0, 240.0, 13.0, 176.0, 0.0, 0.0, 0.0, 1.654608984526487E9, 0.0, 2022-06-07 15:36:24.526
108.0, 39233.81587670039, 13780.230436352544, -19541.303162730117, -22245.953648800096, -7040.061895854699, -6041.564767547223, 15613.609923554652, 5659.372289105927, 0.044, 0.926, 0.438, 192.0, 0.0, 0.0, 0.0, 0.0, 0.0, 0.0, 0.0, 0.0, 0.0, 1.654608984526489E9, 0.0, 2022-06-07 15:36:24.526
109.0, 39297.048961764456, 13803.856230241803, -19504.44513612332, -22256.526023927454, -7009.663523395482, -6092.4149861830465, 15590.341757576676, 5659.014661194642, 0.044, 0.926, 0.438, 192.0, 0.0, 0.0, 0.0, 0.0, 0.0, 0.0, 0.0, 0.0, 0.0, 1.654608984526491E9, 0.0, 2022-06-07 15:36:24.526
110.0, 39421.190550469226, 13824.822166540882, -19472.057458407577, -22240.343360941813, -6964.0436129622, -6090.11275650415, 15615.465118344442, 5668.916483988343, 0.044, 0.926, 0.438, 192.0, 0.0, 0.0, 0.0, 0.0, 0.0, 0.0, 0.0, 0.0, 0.0, 1.654608984526493E9, 0.0, 2022-06-07 15:36:24.526
111.0, 39431.964091296686, 13813.288666401944, -19495.99617671921, -22231.6485323487, -6969.653900820483, -6033.764008732321, 15579.121181860111, 5663.2167891522395, 0.044, 0.926, 0.438, 192.0, 0.0, 0.0, 0.0, 0.0, 0.0, 0.0, 0.0, 0.0, 0.0, 1.654608984526496E9, 0.0, 2022-06-07 15:36:24.526
112.0, 39316.24911025156, 13781.750354975506, -19545.617049409993, -22257.88948033923, -7023.119273557577, -6021.247031837348, 15564.257271797333, 5647.905844200354, 0.044, 0.926, 0.438, 192.0, 0.0, 0.0, 0.0, 0.0, 0.0, 0.0, 0.0, 0.0, 0.0, 1.654608984526498E9, 0.0, 2022-06-07 15:36:24.526
113.0, 39233.681766233654, 13774.396631049709, -19547.40518896642, -22273.826274135863, -7042.788808678247, -6061.748392790365, 15545.280640754778, 5643.524902287114, 0.044, 0.926, 0.438, 192.0, 0.0, 0.0, 0.0, 0.0, 0.0, 0.0, 0.0, 0.0, 0.0, 1.6546089845265E9, 0.0, 2022-06-07 15:36:24.526
114.0, 39289.15879597173, 13799.721157517572, -19505.272150668163, -22264.907928098193, -7006.6460378940155, -6114.230288771426, 15555.2718705263, 5653.605539036458, 0.044, 0.926, 0.438, 192.0, 0.0, 0.0, 0.0, 0.0, 0.0, 0.0, 0.0, 0.0, 0.0, 1.654608984526515E9, 0.0, 2022-06-07 15:36:24.526
115.0, 39407.1536549513, 13826.476195630574, -19469.46465605076, -22235.649494606198, -6956.131095425021, -6114.990248082906, 15580.216417338423, 5664.69200428629, 0.044, 0.926, 0.438, 192.0, 0.0, 0.0, 0.0, 0.0, 0.0, 0.0, 0.0, 0.0, 0.0, 1.654608984526517E9, 0.0, 2022-06-07 15:36:24.526
116.0, 39412.6521840873, 13806.806660509905, -19498.410165120385, -22226.3958724017, -6958.746249526293, -6068.990357993885, 15590.542923276775, 5654.276091370117, 0.042, 0.922, 0.43, 192.0, 1.0, 80.0, 28.0, 208.0, 13.0, 112.0, 0.0, 0.0, 0.0, 1.65460898452652E9, 0.0, 2022-06-07 15:36:24.526
117.0, 39284.59904010285, 13760.739715187516, -19552.54609019114, -22252.12273026976, -7022.046389823722, -6057.501561343856, 15561.776228162793, 5633.198396348763, 0.042, 0.922, 0.43, 192.0, 0.0, 0.0, 0.0, 0.0, 0.0, 0.0, 0.0, 0.0, 0.0, 1.654608984526522E9, 0.0, 2022-06-07 15:36:24.526
118.0, 39198.79069313892, 13747.172206303145, -19558.134026304964, -22271.144064801225, -7046.275680813275, -6092.236172227404, 15550.93563210197, 5633.131341115397, 0.042, 0.922, 0.43, 192.0, 0.0, 0.0, 0.0, 0.0, 0.0, 0.0, 0.0, 0.0, 0.0, 1.654608984526524E9, 0.0, 2022-06-07 15:36:24.526
119.0, 39260.43680434666, 13763.15370358869, -19525.0087410222, -22282.208178306602, -7020.414712478485, -6148.897844421607, 15549.058085567724, 5630.382076547394, 0.042, 0.922, 0.43, 192.0, 0.0, 0.0, 0.0, 0.0, 0.0, 0.0, 0.0, 0.0, 0.0, 1.654608984526526E9, 0.0, 2022-06-07 15:36:24.526
120.0, 39395.64250655681, 13798.581218550351, -19483.836827735526, -22256.83894834983, -6970.927950254435, -6132.335201780224, 15572.259196312332, 5644.64248950988, 0.042, 0.922, 0.43, 192.0, 0.0, 0.0, 0.0, 0.0, 0.0, 0.0, 0.0, 0.0, 0.0, 1.654608984526528E9, 0.0, 2022-06-07 15:36:24.526
121.0, 39391.9991722106, 13785.416041066175, -19493.872760995957, -22229.68157883663, -6960.243816404798, -6056.227511909904, 15593.403946567054, 5659.1040681724635, 0.042, 0.922, 0.43, 192.0, 0.0, 0.0, 0.0, 0.0, 0.0, 0.0, 0.0, 0.0, 0.0, 1.654608984586639E9, 0.0, 2022-06-07 15:36:24.586
122.0, 39258.805127001426, 13745.048790579891, -19542.66661914189, -22236.387102173223, -7011.608125163094, -6036.848549467153, 15568.705268943939, 5643.100219142463, 0.042, 0.922, 0.43, 192.0, 0.0, 0.0, 0.0, 0.0, 0.0, 0.0, 0.0, 0.0, 0.0, 1.654608984586644E9, 0.0, 2022-06-07 15:36:24.586
123.0, 39181.57984990834, 13740.041999821902, -19550.735598890256, -22261.82338736336, -7046.521550002283, -6081.216762210937, 15569.822856166704, 5638.07107664002, 0.042, 0.922, 0.43, 192.0, 0.0, 0.0, 0.0, 0.0, 0.0, 0.0, 0.0, 0.0, 0.0, 1.654608984586646E9, 0.0, 2022-06-07 15:36:24.586
124.0, 39255.63117928877, 13768.138142602224, -19510.882438526445, -22260.102303040305, -7013.128043786054, -6130.770579668353, 15585.849056941159, 5646.0730011550195, 0.042, 0.922, 0.43, 192.0, 0.0, 0.0, 0.0, 0.0, 0.0, 0.0, 0.0, 0.0, 0.0, 1.654608984586649E9, 0.0, 2022-06-07 15:36:24.586
125.0, 39375.88356445832, 13792.769764991972, -19473.778542730637, -22231.916753282163, -6956.823999503136, -6119.438245229512, 15607.954932207458, 5666.12251593143, 0.042, 0.922, 0.43, 192.0, 0.0, 0.0, 0.0, 0.0, 0.0, 0.0, 0.0, 0.0, 0.0, 1.654608984586651E9, 0.0, 2022-06-07 15:36:24.586
126.0, 39383.08082617293, 13779.716346230072, -19491.27995863914, -22214.638854818208, -6951.079601178122, -6053.38884036408, 15610.95006596447, 5666.0331089536085, 0.032, 0.92, 0.44, 192.0, 1.0, 0.0, 28.0, 192.0, 13.0, 192.0, 0.0, 0.0, 0.0, 1.654608984586654E9, 0.0, 2022-06-07 15:36:24.586
127.0, 39262.60492355882, 13740.667848666651, -19544.745331376234, -22240.25395396399, -7020.168843289476, -6030.299488341748, 15575.455495769442, 5642.87670169791, 0.032, 0.92, 0.44, 192.0, 0.0, 0.0, 0.0, 0.0, 0.0, 0.0, 0.0, 0.0, 0.0, 1.654608984586656E9, 0.0, 2022-06-07 15:36:24.586
128.0, 39178.00357079549, 13734.76698813045, -19550.0650465566, -22253.30737272589, -7049.114352359099, -6059.110886944639, 15554.824835637193, 5642.384963319893, 0.032, 0.92, 0.44, 192.0, 0.0, 0.0, 0.0, 0.0, 0.0, 0.0, 0.0, 0.0, 0.0, 1.654608984586666E9, 0.0, 2022-06-07 15:36:24.586
129.0, 39231.08896387684, 13758.146912830702, -19513.34113041653, -22248.859375579283, -7021.219375278875, -6106.988323567906, 15565.151341575545, 5650.230425623707, 0.032, 0.92, 0.44, 192.0, 0.0, 0.0, 0.0, 0.0, 0.0, 0.0, 0.0, 0.0, 0.0, 1.654608984586668E9, 0.0, 2022-06-07 15:36:24.586
130.0, 39361.153764862276, 13790.132259146245, -19483.389792846418, -22227.78168055793, -6975.33124391213, -6101.422739198535, 15602.165830393533, 5660.109896672952, 0.032, 0.92, 0.44, 192.0, 0.0, 0.0, 0.0, 0.0, 0.0, 0.0, 0.0, 0.0, 0.0, 1.65460898458667E9, 0.0, 2022-06-07 15:36:24.586
131.0, 39393.586146066926, 13796.837782482837, -19490.743516772214, -22203.999424457485, -6967.418726374952, -6031.1935581199605, 15648.880976305125, 5678.4159753818485, 0.032, 0.92, 0.44, 192.0, 0.0, 0.0, 0.0, 0.0, 0.0, 0.0, 0.0, 0.0, 0.0, 1.654608984586673E9, 0.0, 2022-06-07 15:36:24.586
132.0, 39284.19670870265, 13770.552131003396, -19530.551973647114, -22221.903171766186, -7009.730578628848, -6004.863203151608, 15606.636179284595, 5675.644359069391, 0.032, 0.92, 0.44, 192.0, 0.0, 0.0, 0.0, 0.0, 0.0, 0.0, 0.0, 0.0, 0.0, 1.654608984586675E9, 0.0, 2022-06-07 15:36:24.586
133.0, 39204.98212635305, 13771.848532181804, -19535.603467894016, -22243.271439465458, -7031.836453895146, -6043.218796636916, 15578.60709173764, 5670.8387340115, 0.032, 0.92, 0.44, 192.0, 0.0, 0.0, 0.0, 0.0, 0.0, 0.0, 0.0, 0.0, 0.0, 1.654608984586677E9, 0.0, 2022-06-07 15:36:24.586
134.0, 39273.758444042025, 13809.243000655533, -19495.43738310783, -22234.531907383433, -6998.822927334658, -6096.281837973815, 15616.76151952285, 5670.235236911206, 0.032, 0.92, 0.44, 192.0, 0.0, 0.0, 0.0, 0.0, 0.0, 0.0, 0.0, 0.0, 0.0, 1.654608984586679E9, 0.0, 2022-06-07 15:36:24.586
135.0, 39398.123550191354, 13837.920288791693, -19472.81741771906, -22229.16748871416, -6965.541179840706, -6108.932925335518, 15579.478809771397, 5664.31202463055, 0.032, 0.92, 0.44, 192.0, 0.0, 0.0, 0.0, 0.0, 0.0, 0.0, 0.0, 0.0, 0.0, 1.654608984586682E9, 0.0, 2022-06-07 15:36:24.586
136.0, 39420.60940511339, 13835.59570736834, -19493.71629878477, -22214.48239260702, -6973.587807844617, -6051.243072896371, 15584.440897040475, 5663.5073618301585, 0.036000000000000004, 0.912, 0.442, 192.0, 1.0, 32.0, 28.0, 128.0, 13.0, 208.0, 0.0, 0.0, 0.0, 1.654608984645568E9, 0.0, 2022-06-07 15:36:24.645
137.0, 39319.02072656402, 13817.200221681622, -19533.703569615314, -22226.753500312985, -7011.5187181852725, -6015.681447467977, 15589.626501754106, 5662.970919963232, 0.036000000000000004, 0.912, 0.442, 192.0, 0.0, 0.0, 0.0, 0.0, 0.0, 0.0, 0.0, 0.0, 0.0, 1.654608984645586E9, 0.0, 2022-06-07 15:36:24.645
138.0, 39245.505839050515, 13830.45480614362, -19535.223488238276, -22238.868145807763, -7026.203814292409, -6042.503540814346, 15597.293150102276, 5667.128344431919, 0.036000000000000004, 0.912, 0.442, 192.0, 0.0, 0.0, 0.0, 0.0, 0.0, 0.0, 0.0, 0.0, 0.0, 1.654608984645588E9, 0.0, 2022-06-07 15:36:24.645
139.0, 39321.61352892083, 13876.834675888382, -19491.391717361417, -22226.977017757537, -6994.821965077158, -6088.257561714359, 15604.646874028072, 5681.679330072324, 0.036000000000000004, 0.912, 0.442, 192.0, 0.0, 0.0, 0.0, 0.0, 0.0, 0.0, 0.0, 0.0, 0.0, 1.65460898464559E9, 0.0, 2022-06-07 15:36:24.645
140.0, 39468.464489992206, 13928.2883916245, -19449.839824419003, -22186.945043438085, -6940.462522561851, -6075.673529586021, 15630.843118529692, 5702.220583226751, 0.036000000000000004, 0.912, 0.442, 192.0, 0.0, 0.0, 0.0, 0.0, 0.0, 0.0, 0.0, 0.0, 0.0, 1.654608984645592E9, 0.0, 2022-06-07 15:36:24.645
141.0, 39503.04263866456, 13937.407903362264, -19467.028315905132, -22162.15695883715, -6941.758923740259, -6018.944802158452, 15642.778950068827, 5704.589868139014, 0.036000000000000004, 0.912, 0.442, 192.0, 0.0, 0.0, 0.0, 0.0, 0.0, 0.0, 0.0, 0.0, 0.0, 1.654608984645595E9, 0.0, 2022-06-07 15:36:24.645
142.0, 39394.14493967831, 13910.138775126788, -19517.498554885216, -22179.18898811209, -7008.590639661627, -6002.940953128452, 15622.930600992513, 5689.614199353958, 0.036000000000000004, 0.912, 0.442, 192.0, 0.0, 0.0, 0.0, 0.0, 0.0, 0.0, 0.0, 0.0, 0.0, 1.654608984645597E9, 0.0, 2022-06-07 15:36:24.645
143.0, 39314.75154337306, 13919.772376987026, -19528.070930012578, -22194.187008641602, -7029.221299793876, -6036.423866322501, 15590.98995816588, 5683.534524862114, 0.036000000000000004, 0.912, 0.442, 192.0, 0.0, 0.0, 0.0, 0.0, 0.0, 0.0, 0.0, 0.0, 0.0, 1.654608984645599E9, 0.0, 2022-06-07 15:36:24.645
144.0, 39385.807738996475, 13960.988993762612, -19491.771697017157, -22190.700136506573, -6995.6713313664595, -6076.813468553241, 15590.98995816588, 5687.490783630703, 0.036000000000000004, 0.912, 0.442, 192.0, 0.0, 0.0, 0.0, 0.0, 0.0, 0.0, 0.0, 0.0, 0.0, 1.654608984645601E9, 0.0, 2022-06-07 15:36:24.645
145.0, 39533.9327495018, 14002.317369260476, -19442.57550747103, -22142.733292905486, -6934.114627136544, -6056.473381098912, 15631.021932485335, 5712.815310098566, 0.036000000000000004, 0.912, 0.442, 192.0, 0.0, 0.0, 0.0, 0.0, 0.0, 0.0, 0.0, 0.0, 0.0, 1.654608984645603E9, 0.0, 2022-06-07 15:36:24.645
146.0, 39559.6372556254, 14002.742052405127, -19456.61240298896, -22113.094879757748, -6938.808493472158, -5985.037205819751, 15659.341592710209, 5724.5499759376025, 0.036000000000000004, 0.912, 0.446, 192.0, 1.0, 32.0, 28.0, 128.0, 13.0, 240.0, 0.0, 0.0, 0.0, 1.654608984645605E9, 0.0, 2022-06-07 15:36:24.645
147.0, 39460.64137943285, 13991.365014477375, -19502.880514011445, -22134.5749061793, -6993.503212154295, -5954.4153159159805, 15636.520461621341, 5724.415865470871, 0.036000000000000004, 0.912, 0.446, 192.0, 0.0, 0.0, 0.0, 0.0, 0.0, 0.0, 0.0, 0.0, 0.0, 1.654608984645608E9, 0.0, 2022-06-07 15:36:24.645
148.0, 39381.09152091641, 13990.895627843813, -19509.13900245893, -22160.882909403197, -7021.174671789965, -5990.200458788927, 15634.70997032046, 5714.804615355089, 0.036000000000000004, 0.912, 0.446, 192.0, 0.0, 0.0, 0.0, 0.0, 0.0, 0.0, 0.0, 0.0, 0.0, 1.65460898464561E9, 0.0, 2022-06-07 15:36:24.645
149.0, 39447.275036248575, 14021.830442169958, -19461.976821658234, -22159.362990780235, -6990.105746997088, -6031.327668586692, 15610.167754908534, 5720.7501793802, 0.036000000000000004, 0.912, 0.446, 192.0, 0.0, 0.0, 0.0, 0.0, 0.0, 0.0, 0.0, 0.0, 0.0, 1.654608984645612E9, 0.0, 2022-06-07 15:36:24.645
150.0, 39570.67901738632, 14052.228814629176, -19422.637751416893, -22136.43010096909, -6940.75309523977, -6027.214947606915, 15620.583667824707, 5729.869691117966, 0.036000000000000004, 0.912, 0.446, 192.0, 0.0, 0.0, 0.0, 0.0, 0.0, 0.0, 0.0, 0.0, 0.0, 1.654608984645621E9, 0.0, 2022-06-07 15:36:24.645
151.0, 39607.93937539332, 14063.06941069, -19433.50069922217, -22119.643940883154, -6933.891109691991, -5973.123726025072, 15640.38731341211, 5729.020324828663, 0.036000000000000004, 0.912, 0.446, 192.0, 0.0, 0.0, 0.0, 0.0, 0.0, 0.0, 0.0, 0.0, 0.0, 1.65460898470587E9, 0.0, 2022-06-07 15:36:24.705
152.0, 39485.54122275606, 14019.550564235517, -19491.302310383595, -22155.183214567092, -6985.121307983555, -5970.240350990338, 15617.633237556605, 5701.237106470717, 0.036000000000000004, 0.912, 0.446, 192.0, 0.0, 0.0, 0.0, 0.0, 0.0, 0.0, 0.0, 0.0, 0.0, 1.654608984705875E9, 0.0, 2022-06-07 15:36:24.705
153.0, 39397.47534960215, 14008.374692007863, -19506.948531502312, -22187.280319604914, -7017.687799654937, -6011.993409632852, 15594.789754723282, 5683.802745795578, 0.036000000000000004, 0.912, 0.446, 192.0, 0.0, 0.0, 0.0, 0.0, 0.0, 0.0, 0.0, 0.0, 0.0, 1.654608984705877E9, 0.0, 2022-06-07 15:36:24.705
154.0, 39462.07189107798, 14042.215233113198, -19463.9437751703, -22179.904243934663, -6985.434232405929, -6054.998165964862, 15625.85867951616, 5692.899905788888, 0.036000000000000004, 0.912, 0.446, 192.0, 0.0, 0.0, 0.0, 0.0, 0.0, 0.0, 0.0, 0.0, 0.0, 1.654608984705879E9, 0.0, 2022-06-07 15:36:24.705
155.0, 39599.15513982238, 14072.680660805781, -19423.978856084213, -22152.702170932553, -6938.406162071963, -6051.868921741119, 15653.328973451731, 5707.160318751374, 0.036000000000000004, 0.912, 0.446, 192.0, 0.0, 0.0, 0.0, 0.0, 0.0, 0.0, 0.0, 0.0, 0.0, 1.654608984705881E9, 0.0, 2022-06-07 15:36:24.705
156.0, 39612.186206839826, 14064.499922335139, -19442.57550747103, -22148.43298774159, -6937.2662231047425, -5999.945819371441, 15627.177432439023, 5706.266248973161, 0.036000000000000004, 0.916, 0.44, 192.0, 1.0, 32.0, 28.0, 160.0, 13.0, 192.0, 0.0, 0.0, 0.0, 1.654608984705884E9, 0.0, 2022-06-07 15:36:24.705
157.0, 39490.123330369395, 14029.20651784021, -19492.08462143953, -22163.56511873783, -6988.630531863038, -5980.544505184234, 15602.411699582542, 5689.725958076234, 0.036000000000000004, 0.916, 0.44, 192.0, 0.0, 0.0, 0.0, 0.0, 0.0, 0.0, 0.0, 0.0, 0.0, 1.654608984705886E9, 0.0, 2022-06-07 15:36:24.705
158.0, 39399.93404149223, 14015.281381044553, -19502.00879597769, -22178.607842756253, -7005.394340204518, -6009.087682853661, 15596.533190790797, 5686.484955130214, 0.036000000000000004, 0.916, 0.44, 192.0, 0.0, 0.0, 0.0, 0.0, 0.0, 0.0, 0.0, 0.0, 0.0, 1.654608984705888E9, 0.0, 2022-06-07 15:36:24.705
159.0, 39452.48299270666, 14040.628259256871, -19467.073019394044, -22183.05583990286, -6971.754964799281, -6061.457820112446, 15608.670188030028, 5691.178821465829, 0.036000000000000004, 0.916, 0.44, 192.0, 0.0, 0.0, 0.0, 0.0, 0.0, 0.0, 0.0, 0.0, 0.0, 1.65460898470589E9, 0.0, 2022-06-07 15:36:24.705
160.0, 39584.96178209326, 14073.239454417164, -19428.426853230816, -22152.210432554537, -6925.509205521251, -6054.10409618665, 15632.452444130475, 5704.411054183371, 0.036000000000000004, 0.916, 0.44, 192.0, 0.0, 0.0, 0.0, 0.0, 0.0, 0.0, 0.0, 0.0, 0.0, 1.654608984705892E9, 0.0, 2022-06-07 15:36:24.705
161.0, 39620.65751798839, 14069.21614041521, -19438.507489980162, -22130.28337124388, -6935.522787037228, -5994.089662324151, 15642.555432624273, 5705.819214084055, 0.036000000000000004, 0.916, 0.44, 192.0, 0.0, 0.0, 0.0, 0.0, 0.0, 0.0, 0.0, 0.0, 0.0, 1.654608984705894E9, 0.0, 2022-06-07 15:36:24.705
162.0, 39506.7753799886, 14040.225927856676, -19482.42866783484, -22142.442720227566, -6984.607217861083, -5969.815667845687, 15611.173583409023, 5697.884344802421, 0.036000000000000004, 0.916, 0.44, 192.0, 0.0, 0.0, 0.0, 0.0, 0.0, 0.0, 0.0, 0.0, 0.0, 1.654608984705897E9, 0.0, 2022-06-07 15:36:24.705
163.0, 39412.383963153836, 14026.0102183831, -19493.76100227368, -22161.017019869927, -7010.378779218052, -6003.7232641843875, 15638.018028499846, 5702.153527993385, 0.036000000000000004, 0.916, 0.44, 192.0, 0.0, 0.0, 0.0, 0.0, 0.0, 0.0, 0.0, 0.0, 0.0, 1.654608984705899E9, 0.0, 2022-06-07 15:36:24.705
164.0, 39469.917353381796, 14045.478587803673, -19456.813568689056, -22158.491272746476, -6974.0124909892675, -6053.277081641803, 15648.165720482555, 5716.615106655969, 0.036000000000000004, 0.916, 0.44, 192.0, 0.0, 0.0, 0.0, 0.0, 0.0, 0.0, 0.0, 0.0, 0.0, 1.654608984705901E9, 0.0, 2022-06-07 15:36:24.705
165.0, 39598.194014810804, 14082.0236899881, -19416.46866994723, -22132.496193944957, -6918.960144395846, -6049.186712406482, 15647.38340942662, 5729.824987629055, 0.036000000000000004, 0.916, 0.44, 192.0, 0.0, 0.0, 0.0, 0.0, 0.0, 0.0, 0.0, 0.0, 0.0, 1.654608984705903E9, 0.0, 2022-06-07 15:36:24.705
166.0, 39612.47677951775, 14074.804076529035, -19437.099330079476, -22121.208562995027, -6925.285688076698, -5997.822403648187, 15630.261973173854, 5720.9736968247535, 0.04, 0.92, 0.438, 192.0, 1.0, 64.0, 28.0, 192.0, 13.0, 176.0, 0.0, 0.0, 0.0, 1.654608984766154E9, 0.0, 2022-06-07 15:36:24.766
167.0, 39499.73458048518, 14040.002410412124, -19480.037031178123, -22134.843127112763, -6973.207828188876, -5962.730164853355, 15616.985036967402, 5715.139891521918, 0.04, 0.92, 0.438, 192.0, 0.0, 0.0, 0.0, 0.0, 0.0, 0.0, 0.0, 0.0, 0.0, 1.654608984766171E9, 0.0, 2022-06-07 15:36:24.766
168.0, 39400.40342812579, 14020.377578780364, -19497.67255755336, -22164.638002471685, -7007.875383839058, -5995.073139080184, 15601.338815848687, 5707.026208284642, 0.04, 0.92, 0.438, 192.0, 0.0, 0.0, 0.0, 0.0, 0.0, 0.0, 0.0, 0.0, 0.0, 1.654608984766173E9, 0.0, 2022-06-07 15:36:24.766
169.0, 39448.81730661599, 14040.1141691344, -19466.357763571476, -22154.91499363363, -6986.261246950776, -6037.832026223186, 15599.349510592165, 5708.076740274041, 0.04, 0.92, 0.438, 192.0, 0.0, 0.0, 0.0, 0.0, 0.0, 0.0, 0.0, 0.0, 0.0, 1.654608984766176E9, 0.0, 2022-06-07 15:36:24.766
170.0, 39573.27181974314, 14066.131599680377, -19428.80683288656, -22126.975313064493, -6938.361458583053, -6033.093456398661, 15623.109414948156, 5720.660772402379, 0.04, 0.92, 0.438, 192.0, 0.0, 0.0, 0.0, 0.0, 0.0, 0.0, 0.0, 0.0, 0.0, 1.654608984766178E9, 0.0, 2022-06-07 15:36:24.766
171.0, 39610.88980566142, 14068.25501540363, -19437.591068457496, -22106.322301187793, -6931.4547695463625, -5969.5027434233125, 15642.354266924176, 5733.311859764083, 0.04, 0.92, 0.438, 192.0, 0.0, 0.0, 0.0, 0.0, 0.0, 0.0, 0.0, 0.0, 0.0, 1.654608984766188E9, 0.0, 2022-06-07 15:36:24.766
172.0, 39507.51298755562, 14040.091817389944, -19480.551121300596, -22121.946170562052, -6976.00179624579, -5944.111161722084, 15618.57201082373, 5720.169034024362, 0.04, 0.92, 0.438, 192.0, 0.0, 0.0, 0.0, 0.0, 0.0, 0.0, 0.0, 0.0, 0.0, 1.65460898476619E9, 0.0, 2022-06-07 15:36:24.766
173.0, 39405.253756672595, 14015.34843627792, -19498.946606987312, -22157.641906457175, -7008.367122217074, -5992.480336723368, 15591.928731433003, 5697.996103524698, 0.04, 0.92, 0.438, 192.0, 0.0, 0.0, 0.0, 0.0, 0.0, 0.0, 0.0, 0.0, 0.0, 1.654608984766192E9, 0.0, 2022-06-07 15:36:24.766
174.0, 39449.353748482914, 14035.554413265518, -19468.324717083542, -22166.649659472663, -6986.082432995133, -6057.05452645475, 15605.85386822866, 5698.823118069544, 0.04, 0.92, 0.438, 192.0, 0.0, 0.0, 0.0, 0.0, 0.0, 0.0, 0.0, 0.0, 0.0, 1.654608984766194E9, 0.0, 2022-06-07 15:36:24.766
175.0, 39581.36315123596, 14074.64761431785, -19425.387015984896, -22139.33582774828, -6933.935813180901, -6052.986508963884, 15634.888784276103, 5719.587888668524, 0.04, 0.92, 0.438, 192.0, 0.0, 0.0, 0.0, 0.0, 0.0, 0.0, 0.0, 0.0, 0.0, 1.654608984766197E9, 0.0, 2022-06-07 15:36:24.766
176.0, 39615.49426501921, 14066.533931080572, -19439.870946391937, -22126.3718159642, -6934.986345170301, -5998.515307726301, 15643.33774368021, 5717.598583412002, 0.042, 0.924, 0.44, 192.0, 1.0, 80.0, 28.0, 224.0, 13.0, 192.0, 0.0, 0.0, 0.0, 1.654608984766199E9, 0.0, 2022-06-07 15:36:24.766
177.0, 39506.90949045533, 14035.643820243338, -19483.948586457802, -22144.119101061715, -6972.850200277591, -5974.889513837042, 15634.441749386997, 5701.661789615368, 0.042, 0.924, 0.44, 192.0, 0.0, 0.0, 0.0, 0.0, 0.0, 0.0, 0.0, 0.0, 0.0, 1.654608984766201E9, 0.0, 2022-06-07 15:36:24.766
178.0, 39408.15948345178, 14023.149195092821, -19501.315891899576, -22171.18706359709, -7002.265095980775, -6013.110996855617, 15618.817880012737, 5695.64917035689, 0.042, 0.924, 0.44, 192.0, 0.0, 0.0, 0.0, 0.0, 0.0, 0.0, 0.0, 0.0, 0.0, 1.654608984766203E9, 0.0, 2022-06-07 15:36:24.766
179.0, 39477.20402207423, 14057.749695509638, -19458.735818712215, -22171.745857208476, -6971.66555782146, -6061.167247434527, 15606.56912405123, 5714.446987443804, 0.042, 0.924, 0.44, 192.0, 0.0, 0.0, 0.0, 0.0, 0.0, 0.0, 0.0, 0.0, 0.0, 1.654608984766205E9, 0.0, 2022-06-07 15:36:24.766
180.0, 39609.48164576074, 14093.288969193574, -19422.66010316135, -22142.867403372216, -6928.6384497449935, -6057.479209599401, 15627.847984772681, 5728.1933102838175, 0.042, 0.924, 0.44, 192.0, 0.0, 0.0, 0.0, 0.0, 0.0, 0.0, 0.0, 0.0, 0.0, 1.654608984766207E9, 0.0, 2022-06-07 15:36:24.766
181.0, 39628.03359365864, 14087.410460401828, -19436.65229519037, -22112.62549312419, -6930.828920701614, -5993.374406501581, 15634.128824964622, 5726.6063364274905, 0.042, 0.924, 0.44, 192.0, 0.0, 0.0, 0.0, 0.0, 0.0, 0.0, 0.0, 0.0, 0.0, 1.654608984826543E9, 0.0, 2022-06-07 15:36:24.826
182.0, 39522.15338017385, 14060.1189804219, -19482.13809515692, -22127.33294097578, -6979.488668380817, -5963.17719974246, 15611.620618298128, 5711.742426364712, 0.042, 0.924, 0.44, 192.0, 0.0, 0.0, 0.0, 0.0, 0.0, 0.0, 0.0, 0.0, 0.0, 1.654608984826549E9, 0.0, 2022-06-07 15:36:24.826
183.0, 39435.36155645389, 14059.671945532793, -19494.9009412409, -22142.018037082915, -7009.685875139938, -5990.133403555561, 15619.0861009462, 5710.51308041967, 0.042, 0.924, 0.44, 192.0, 0.0, 0.0, 0.0, 0.0, 0.0, 0.0, 0.0, 0.0, 0.0, 1.654608984826551E9, 0.0, 2022-06-07 15:36:24.826
184.0, 39484.669504722304, 14087.253998190643, -19460.591013502006, -22134.15022303465, -6984.964845772368, -6031.774703475798, 15650.691467606006, 5726.002839327198, 0.042, 0.924, 0.44, 192.0, 0.0, 0.0, 0.0, 0.0, 0.0, 0.0, 0.0, 0.0, 0.0, 1.654608984826553E9, 0.0, 2022-06-07 15:36:24.826
185.0, 39618.71291622078, 14119.596972417472, -19422.704806650258, -22110.390318678656, -6936.550967282173, -6033.831063965687, 15636.699275576982, 5732.596603941513, 0.042, 0.924, 0.44, 192.0, 0.0, 0.0, 0.0, 0.0, 0.0, 0.0, 0.0, 0.0, 0.0, 1.654608984826555E9, 0.0, 2022-06-07 15:36:24.826
186.0, 39658.32020739558, 14121.899202096369, -19428.784481142102, -22088.88794051265, -6937.46738880484, -5969.726260867866, 15652.837235073715, 5746.477037248259, 0.052000000000000005, 0.93, 0.438, 192.0, 1.0, 160.0, 29.0, 16.0, 13.0, 176.0, 0.0, 0.0, 0.0, 1.654608984826558E9, 0.0, 2022-06-07 15:36:24.826
187.0, 39540.25829318265, 14081.777820799092, -19479.925272455846, -22112.223161723992, -6979.980406758834, -5938.500873863802, 15625.702217304972, 5736.552862710102, 0.052000000000000005, 0.93, 0.438, 192.0, 0.0, 0.0, 0.0, 0.0, 0.0, 0.0, 0.0, 0.0, 0.0, 1.65460898482656E9, 0.0, 2022-06-07 15:36:24.826
188.0, 39434.04280353103, 14055.670983275293, -19505.29450241262, -22151.159900565137, -7015.296162998219, -5978.175220271972, 15610.748900264372, 5719.0961502905075, 0.052000000000000005, 0.93, 0.438, 192.0, 0.0, 0.0, 0.0, 0.0, 0.0, 0.0, 0.0, 0.0, 0.0, 1.654608984826562E9, 0.0, 2022-06-07 15:36:24.826
189.0, 39483.37310354389, 14079.944977753757, -19466.20130136029, -22146.24251678497, -6987.9823312738345, -6024.063351638717, 15630.083159218213, 5733.177749297351, 0.052000000000000005, 0.93, 0.438, 192.0, 0.0, 0.0, 0.0, 0.0, 0.0, 0.0, 0.0, 0.0, 0.0, 1.654608984826564E9, 0.0, 2022-06-07 15:36:24.826
190.0, 39609.5487009941, 14110.030425790601, -19426.169327040832, -22111.865533812706, -6930.314830579142, -6023.996296405351, 15657.799322342793, 5745.582967470046, 0.052000000000000005, 0.93, 0.438, 192.0, 0.0, 0.0, 0.0, 0.0, 0.0, 0.0, 0.0, 0.0, 0.0, 1.654608984826566E9, 0.0, 2022-06-07 15:36:24.826
191.0, 39644.73034676675, 14107.638789133882, -19435.31119052305, -22097.538065616856, -6924.838653187591, -5970.240350990338, 15659.676868877039, 5743.7054209358, 0.052000000000000005, 0.93, 0.438, 192.0, 0.0, 0.0, 0.0, 0.0, 0.0, 0.0, 0.0, 0.0, 0.0, 1.654608984826568E9, 0.0, 2022-06-07 15:36:24.826
192.0, 39538.17958094831, 14075.675794562792, -19478.8970922109, -22113.206638480027, -6972.71608981086, -5942.479484376846, 15633.57003135324, 5728.841510873021, 0.052000000000000005, 0.93, 0.438, 192.0, 0.0, 0.0, 0.0, 0.0, 0.0, 0.0, 0.0, 0.0, 0.0, 1.654608984826579E9, 0.0, 2022-06-07 15:36:24.826
193.0, 39435.383908198346, 14055.916852464301, -19498.119592442465, -22139.33582774828, -7006.735444871837, -5976.99057781584, 15605.697406017473, 5711.675371131346, 0.052000000000000005, 0.93, 0.438, 192.0, 0.0, 0.0, 0.0, 0.0, 0.0, 0.0, 0.0, 0.0, 0.0, 1.654608984826582E9, 0.0, 2022-06-07 15:36:24.826
194.0, 39478.321609296996, 14074.178227684288, -19465.150769370888, -22146.53308946289, -6982.662616093471, -6033.33932558767, 15595.817934968227, 5711.004818797686, 0.052000000000000005, 0.93, 0.438, 192.0, 0.0, 0.0, 0.0, 0.0, 0.0, 0.0, 0.0, 0.0, 0.0, 1.654608984826584E9, 0.0, 2022-06-07 15:36:24.826
195.0, 39602.954936379785, 14100.173306485809, -19428.024521830623, -22124.784842107874, -6937.959127182857, -6039.5307588017895, 15615.80039451127, 5719.409074712882, 0.052000000000000005, 0.93, 0.438, 192.0, 0.0, 0.0, 0.0, 0.0, 0.0, 0.0, 0.0, 0.0, 0.0, 1.654608984826586E9, 0.0, 2022-06-07 15:36:24.826
196.0, 39639.67885251986, 14097.491097151173, -19441.07794059252, -22109.94328378955, -6931.857100946558, -5986.847697120631, 15630.865470274148, 5717.263307245173, 0.058, 0.926, 0.44, 192.0, 1.0, 208.0, 28.0, 240.0, 13.0, 192.0, 0.0, 0.0, 0.0, 1.65460898488591E9, 0.0, 2022-06-07 15:36:24.885
197.0, 39538.64896758187, 14074.871131762402, -19483.412144590875, -22128.584638665277, -6971.3079299101755, -5957.790429328732, 15611.71002527595, 5708.657885629879, 0.058, 0.926, 0.44, 192.0, 0.0, 0.0, 0.0, 0.0, 0.0, 0.0, 0.0, 0.0, 0.0, 1.654608984885918E9, 0.0, 2022-06-07 15:36:24.885
198.0, 39438.177876255264, 14063.963480468212, -19493.559836573582, -22139.33582774828, -7002.667427380971, -5986.266551764793, 15588.75478372035, 5704.1875367388175, 0.058, 0.926, 0.44, 192.0, 0.0, 0.0, 0.0, 0.0, 0.0, 0.0, 0.0, 0.0, 0.0, 1.654608984885921E9, 0.0, 2022-06-07 15:36:24.885
199.0, 39484.13306285537, 14085.242341189665, -19457.305307067076, -22137.212412025026, -6980.539200370217, -6037.049715167251, 15595.929693690503, 5705.260420472672, 0.058, 0.926, 0.44, 192.0, 0.0, 0.0, 0.0, 0.0, 0.0, 0.0, 0.0, 0.0, 0.0, 1.654608984885923E9, 0.0, 2022-06-07 15:36:24.885
200.0, 39606.75473293719, 14111.170364757822, -19422.682454905804, -22119.152202505138, -6938.048534160678, -6044.895177471063, 15611.665321787039, 5709.1719757523515, 0.058, 0.926, 0.44, 192.0, 0.0, 0.0, 0.0, 0.0, 0.0, 0.0, 0.0, 0.0, 0.0, 1.654608984885925E9, 0.0, 2022-06-07 15:36:24.885
201.0, 39651.03353870315, 14109.583390901495, -19429.589143942492, -22091.212521936002, -6925.1739293544215, -5983.450231963424, 15658.827502587737, 5718.313839234572, 0.058, 0.926, 0.44, 192.0, 0.0, 0.0, 0.0, 0.0, 0.0, 0.0, 0.0, 0.0, 0.0, 1.654608984885927E9, 0.0, 2022-06-07 15:36:24.885
202.0, 39544.996863007174, 14074.424096873296, -19479.433534077827, -22111.99964427944, -6970.458563620873, -5958.237464217837, 15660.839159588715, 5705.84156582851, 0.058, 0.926, 0.44, 192.0, 0.0, 0.0, 0.0, 0.0, 0.0, 0.0, 0.0, 0.0, 0.0, 1.654608984885929E9, 0.0, 2022-06-07 15:36:24.885
203.0, 39435.316852964985, 14054.39693384134, -19498.67838605385, -22140.207545782036, -7001.86276458058, -5997.6212379480885, 15607.016158940336, 5692.765795322156, 0.058, 0.926, 0.44, 192.0, 0.0, 0.0, 0.0, 0.0, 0.0, 0.0, 0.0, 0.0, 0.0, 1.654608984885931E9, 0.0, 2022-06-07 15:36:24.885
204.0, 39478.098091852444, 14073.038288717067, -19467.251833349685, -22139.849917870753, -6983.71314808287, -6047.935014716985, 15569.822856166704, 5693.346940677994, 0.058, 0.926, 0.44, 192.0, 0.0, 0.0, 0.0, 0.0, 0.0, 0.0, 0.0, 0.0, 0.0, 1.654608984885934E9, 0.0, 2022-06-07 15:36:24.885
205.0, 39603.849006157994, 14104.241323976676, -19430.46086197625, -22118.504001915935, -6938.853196961069, -6047.5773868057, 15583.904455173548, 5698.577248880536, 0.06, 0.93, 0.438, 192.0, 1.0, 224.0, 29.0, 16.0, 13.0, 176.0, 0.0, 0.0, 0.0, 1.654608984885936E9, 0.0, 2022-06-07 15:36:24.885
206.0, 39637.778954241156, 14099.435698918785, -19443.022542360133, -22103.50598138642, -6935.366324826041, -5989.976941344374, 15601.003539681858, 5699.091339003007, 0.06, 0.93, 0.438, 192.0, 0.0, 0.0, 0.0, 0.0, 0.0, 0.0, 0.0, 0.0, 0.0, 1.654608984885938E9, 0.0, 2022-06-07 15:36:24.885
207.0, 39525.61790056442, 14057.056791431522, -19490.743516772214, -22129.143432276658, -6972.783145044225, -5958.103353751106, 15624.070539959735, 5709.12727226344, 0.06, 0.93, 0.438, 192.0, 0.0, 0.0, 0.0, 0.0, 0.0, 0.0, 0.0, 0.0, 0.0, 1.654608984885941E9, 0.0, 2022-06-07 15:36:24.885
208.0, 39426.018527271575, 14042.0140674131, -19504.19926693431, -22146.823662140807, -6998.219430234365, -5989.418147732991, 15623.154118437067, 5709.6413623859125, 0.06, 0.93, 0.438, 192.0, 0.0, 0.0, 0.0, 0.0, 0.0, 0.0, 0.0, 0.0, 0.0, 1.654608984885943E9, 0.0, 2022-06-07 15:36:24.885
209.0, 39479.79682443105, 14071.496018349651, -19460.300440824085, -22131.222144511004, -6968.111630453066, -6034.389857577069, 15636.319295921243, 5720.727827635745, 0.06, 0.93, 0.438, 192.0, 0.0, 0.0, 0.0, 0.0, 0.0, 0.0, 0.0, 0.0, 0.0, 1.654608984885946E9, 0.0, 2022-06-07 15:36:24.885
210.0, 39613.05792487358, 14105.73889085518, -19416.379262969407, -22110.546780889843, -6921.977629897312, -6039.687221012977, 15652.85958681817, 5732.618955685968, 0.06, 0.93, 0.438, 192.0, 0.0, 0.0, 0.0, 0.0, 0.0, 0.0, 0.0, 0.0, 0.0, 1.654608984885948E9, 0.0, 2022-06-07 15:36:24.885
211.0, 39644.88680897794, 14094.98770177218, -19432.47251897723, -22106.635225610164, -6925.285688076698, -5997.665941437, 15640.007333756368, 5718.045618301108, 0.06, 0.93, 0.438, 192.0, 0.0, 0.0, 0.0, 0.0, 0.0, 0.0, 0.0, 0.0, 0.0, 1.654608984945493E9, 0.0, 2022-06-07 15:36:24.945
212.0, 39532.45753436775, 14058.196730398742, -19483.009813190678, -22130.350426477245, -6976.135906712521, -5967.1558102555055, 15608.51372581884, 5693.07871974453, 0.06, 0.93, 0.438, 192.0, 0.0, 0.0, 0.0, 0.0, 0.0, 0.0, 0.0, 0.0, 0.0, 1.654608984945499E9, 0.0, 2022-06-07 15:36:24.945
213.0, 39430.86885581838, 14042.036419157555, -19496.733784286236, -22149.39411275317, -6999.046444779211, -5989.395795988536, 15589.470039542919, 5686.015568496653, 0.06, 0.93, 0.438, 192.0, 0.0, 0.0, 0.0, 0.0, 0.0, 0.0, 0.0, 0.0, 0.0, 1.654608984945501E9, 0.0, 2022-06-07 15:36:24.945
214.0, 39472.018417360596, 14065.371640368896, -19456.65710647787, -22143.984990594985, -6970.793839787703, -6032.914642443018, 15604.445708327976, 5702.466452415759, 0.06, 0.93, 0.438, 192.0, 0.0, 0.0, 0.0, 0.0, 0.0, 0.0, 0.0, 0.0, 0.0, 1.65460898494551E9, 0.0, 2022-06-07 15:36:24.945
215.0, 39600.76446542316, 14102.36377744243, -19412.288893734087, -22112.714900102008, -6922.759940953249, -6025.315049328215, 15647.249298959889, 5725.041714315619, 0.054, 0.916, 0.444, 192.0, 1.0, 176.0, 28.0, 160.0, 13.0, 224.0, 0.0, 0.0, 0.0, 1.654608984945512E9, 0.0, 2022-06-07 15:36:24.945
216.0, 39640.19294264233, 14107.996417045168, -19436.048798090076, -22103.95301627553, -6928.616098000539, -5982.466755207391, 15648.85862456067, 5717.643286900912, 0.054, 0.916, 0.444, 192.0, 0.0, 0.0, 0.0, 0.0, 0.0, 0.0, 0.0, 0.0, 0.0, 1.654608984945514E9, 0.0, 2022-06-07 15:36:24.945
217.0, 39533.10573495695, 14064.20934965722, -19491.794048761614, -22135.468975957512, -6983.891962038513, -5972.542580669235, 15618.303789890266, 5696.4314814128265, 0.054, 0.916, 0.444, 192.0, 0.0, 0.0, 0.0, 0.0, 0.0, 0.0, 0.0, 0.0, 0.0, 1.654608984945516E9, 0.0, 2022-06-07 15:36:24.945
218.0, 39403.42091362726, 14005.87129662887, -19508.043766980623, -22169.5330345074, -7013.5750786751605, -6003.946781628941, 15592.778097722305, 5688.2730946866395, 0.054, 0.916, 0.444, 192.0, 0.0, 0.0, 0.0, 0.0, 0.0, 0.0, 0.0, 0.0, 0.0, 1.654608984945519E9, 0.0, 2022-06-07 15:36:24.945
219.0, 39410.349954408404, 13993.376671478352, -19478.740629999713, -22159.87708090271, -6990.753947586292, -6050.259596140337, 15590.162943621033, 5695.358597678972, 0.054, 0.916, 0.444, 192.0, 0.0, 0.0, 0.0, 0.0, 0.0, 0.0, 0.0, 0.0, 0.0, 1.654608984945521E9, 0.0, 2022-06-07 15:36:24.945
220.0, 39522.64511855187, 14009.536982719539, -19436.585239957007, -22137.167708536115, -6935.545138781684, -6051.7348112743875, 15617.56618232324, 5715.296353733105, 0.054, 0.916, 0.444, 192.0, 0.0, 0.0, 0.0, 0.0, 0.0, 0.0, 0.0, 0.0, 0.0, 1.654608984945523E9, 0.0, 2022-06-07 15:36:24.945
221.0, 39535.22915068021, 13971.091982256412, -19450.957411641768, -22127.80232760934, -6933.444074802885, -6002.583325217167, 15628.786758039805, 5717.777397367644, 0.054, 0.916, 0.444, 192.0, 0.0, 0.0, 0.0, 0.0, 0.0, 0.0, 0.0, 0.0, 0.0, 1.654608984945525E9, 0.0, 2022-06-07 15:36:24.945
222.0, 39391.26156464357, 13895.27486506401, -19505.920351257366, -22151.897508132162, -6983.444927149407, -5974.934217325952, 15617.409720112053, 5702.712321604768, 0.054, 0.916, 0.444, 192.0, 0.0, 0.0, 0.0, 0.0, 0.0, 0.0, 0.0, 0.0, 0.0, 1.654608984945527E9, 0.0, 2022-06-07 15:36:24.945
223.0, 39256.1676211557, 13844.40229468373, -19527.221563723277, -22182.00530791346, -7019.274773511264, -6002.829194406176, 15594.789754723282, 5692.654036599879, 0.054, 0.916, 0.444, 192.0, 0.0, 0.0, 0.0, 0.0, 0.0, 0.0, 0.0, 0.0, 0.0, 1.654608984945529E9, 0.0, 2022-06-07 15:36:24.945
224.0, 39259.18510665716, 13825.537422363452, -19498.588979076027, -22189.470790561532, -6992.899715054002, -6056.898064243564, 15616.202725911466, 5700.477147159237, 0.054, 0.916, 0.444, 192.0, 0.0, 0.0, 0.0, 0.0, 0.0, 0.0, 0.0, 0.0, 0.0, 1.654608984945531E9, 0.0, 2022-06-07 15:36:24.945
225.0, 39364.484174786114, 13826.900878775226, -19466.0448391491, -22177.5349590224, -6938.920252194435, -6063.402421880058, 15654.312450207764, 5714.737560121723, 0.054, 0.916, 0.436, 192.0, 1.0, 176.0, 28.0, 160.0, 13.0, 160.0, 0.0, 0.0, 0.0, 1.654608984945534E9, 0.0, 2022-06-07 15:36:24.945
226.0, 39367.88163994332, 13775.849494439304, -19480.75228700069, -22169.644793229676, -6935.768656226237, -6015.837909679164, 15665.130694524134, 5705.707455361779, 0.054, 0.916, 0.436, 192.0, 0.0, 0.0, 0.0, 0.0, 0.0, 0.0, 0.0, 0.0, 0.0, 1.654608985005844E9, 0.0, 2022-06-07 15:36:25.005
227.0, 39218.035545114944, 13701.440537147588, -19531.043712025134, -22180.284223590403, -6987.311778940175, -5986.020682575784, 15618.817880012737, 5688.988350509209, 0.054, 0.916, 0.436, 192.0, 0.0, 0.0, 0.0, 0.0, 0.0, 0.0, 0.0, 0.0, 0.0, 1.654608985005867E9, 0.0, 2022-06-07 15:36:25.005
228.0, 39079.767653914416, 13655.306536591834, -19556.323535004085, -22219.06450022036, -7024.639192180538, -6020.732941714877, 15564.257271797333, 5673.40918462386, 0.054, 0.916, 0.436, 192.0, 0.0, 0.0, 0.0, 0.0, 0.0, 0.0, 0.0, 0.0, 0.0, 1.65460898500587E9, 0.0, 2022-06-07 15:36:25.005
229.0, 39101.35943905824, 13652.84784470175, -19518.99612176372, -22220.472660121046, -6996.855973822591, -6070.420869639024, 15567.967661376913, 5679.824135282533, 0.054, 0.916, 0.436, 192.0, 0.0, 0.0, 0.0, 0.0, 0.0, 0.0, 0.0, 0.0, 0.0, 1.654608985005872E9, 0.0, 2022-06-07 15:36:25.005
230.0, 39217.43204801465, 13669.477542576498, -19473.71148749727, -22190.275453361923, -6952.577168056628, -6070.443221383479, 15604.780984494804, 5697.303199446583, 0.054, 0.916, 0.436, 192.0, 0.0, 0.0, 0.0, 0.0, 0.0, 0.0, 0.0, 0.0, 0.0, 1.654608985005874E9, 0.0, 2022-06-07 15:36:25.005
231.0, 39241.70604249311, 13658.726353493495, -19486.630795792436, -22176.86440668874, -6946.51984530924, -6019.347133558647, 15609.452499085965, 5697.772586080145, 0.054, 0.916, 0.436, 192.0, 0.0, 0.0, 0.0, 0.0, 0.0, 0.0, 0.0, 0.0, 0.0, 1.654608985005876E9, 0.0, 2022-06-07 15:36:25.005
232.0, 39116.20099737657, 13598.64486439763, -19546.466415699295, -22213.320101895348, -7006.288409982731, -6011.5910782326555, 15580.439934782975, 5669.184704921807, 0.054, 0.916, 0.436, 192.0, 0.0, 0.0, 0.0, 0.0, 0.0, 0.0, 0.0, 0.0, 0.0, 1.654608985005878E9, 0.0, 2022-06-07 15:36:25.005
233.0, 39006.141007678634, 13563.39616339161, -19565.73361941977, -22243.182032487635, -7048.4438000254395, -6057.792134021775, 15566.98418462088, 5652.040916924586, 0.054, 0.916, 0.436, 192.0, 0.0, 0.0, 0.0, 0.0, 0.0, 0.0, 0.0, 0.0, 0.0, 1.654608985005881E9, 0.0, 2022-06-07 15:36:25.005
234.0, 39045.25656047542, 13575.756678075395, -19530.86489806949, -22247.182994745137, -7022.180500290454, -6106.630695656621, 15559.876329884093, 5663.283844385605, 0.054, 0.916, 0.436, 192.0, 0.0, 0.0, 0.0, 0.0, 0.0, 0.0, 0.0, 0.0, 0.0, 1.654608985005883E9, 0.0, 2022-06-07 15:36:25.005
235.0, 39177.75770160648, 13604.568076678286, -19491.771697017157, -22230.039206747915, -6969.922121753946, -6100.372207209135, 15581.08813537218, 5681.478164372225, 0.056, 0.912, 0.438, 192.0, 1.0, 192.0, 28.0, 128.0, 13.0, 176.0, 0.0, 0.0, 0.0, 1.654608985005893E9, 0.0, 2022-06-07 15:36:25.005
236.0, 39226.03746962994, 13597.527277174864, -19510.547162359617, -22228.07225323585, -6967.239912419309, -6059.200293922459, 15580.909321416537, 5670.011719466654, 0.056, 0.912, 0.438, 192.0, 0.0, 0.0, 0.0, 0.0, 0.0, 0.0, 0.0, 0.0, 0.0, 1.654608985005895E9, 0.0, 2022-06-07 15:36:25.005
237.0, 39133.1883231626, 13570.280500683844, -19555.63063092597, -22232.65436084919, -7006.511927427284, -6029.986563919373, 15563.98905086387, 5658.545274561081, 0.056, 0.912, 0.438, 192.0, 0.0, 0.0, 0.0, 0.0, 0.0, 0.0, 0.0, 0.0, 0.0, 1.654608985005897E9, 0.0, 2022-06-07 15:36:25.005
238.0, 39039.08747900576, 13567.955919260494, -19565.174825808386, -22251.005143046994, -7026.404979992507, -6048.314994372725, 15562.715001429917, 5663.686175785801, 0.056, 0.912, 0.438, 192.0, 0.0, 0.0, 0.0, 0.0, 0.0, 0.0, 0.0, 0.0, 0.0, 1.654608985005899E9, 0.0, 2022-06-07 15:36:25.005
239.0, 39081.04170334837, 13601.572942921275, -19531.669560869883, -22256.21309950508, -7001.706302369393, -6101.8697740876405, 15580.41758303852, 5671.151658433874, 0.056, 0.912, 0.438, 192.0, 0.0, 0.0, 0.0, 0.0, 0.0, 0.0, 0.0, 0.0, 0.0, 1.654608985005902E9, 0.0, 2022-06-07 15:36:25.005
240.0, 39208.75957116599, 13645.449417287044, -19498.09724069801, -22241.63976212022, -6963.171894928443, -6119.63941092961, 15589.693556987473, 5671.889266000899, 0.056, 0.912, 0.438, 192.0, 0.0, 0.0, 0.0, 0.0, 0.0, 0.0, 0.0, 0.0, 0.0, 1.654608985005904E9, 0.0, 2022-06-07 15:36:25.005
241.0, 39264.43776660416, 13650.053876644835, -19507.797897791614, -22220.472660121046, -6957.941586725901, -6069.750317305365, 15587.74895521986, 5665.742536275689, 0.056, 0.912, 0.438, 192.0, 0.0, 0.0, 0.0, 0.0, 0.0, 0.0, 0.0, 0.0, 0.0, 1.654608985066183E9, 0.0, 2022-06-07 15:36:25.066
242.0, 39182.8986028312, 13640.2191090845, -19546.309953488108, -22223.266628177957, -6995.179592988443, -6029.472473796902, 15581.80339119475, 5658.209998394251, 0.056, 0.912, 0.438, 192.0, 0.0, 0.0, 0.0, 0.0, 0.0, 0.0, 0.0, 0.0, 0.0, 1.654608985066188E9, 0.0, 2022-06-07 15:36:25.066
243.0, 39087.12137784021, 13630.183175824068, -19572.595604967548, -22250.31223896888, -7036.060933597199, -6058.954424733452, 15558.803446150238, 5644.329565087505, 0.056, 0.912, 0.438, 192.0, 0.0, 0.0, 0.0, 0.0, 0.0, 0.0, 0.0, 0.0, 0.0, 1.65460898506619E9, 0.0, 2022-06-07 15:36:25.066
244.0, 39140.02795696592, 13660.112161649724, -19533.323589959575, -22247.853547078794, -7008.098901283611, -6110.832823614219, 15565.754838675839, 5652.64441402488, 0.056, 0.912, 0.438, 192.0, 0.0, 0.0, 0.0, 0.0, 0.0, 0.0, 0.0, 0.0, 0.0, 1.654608985066193E9, 0.0, 2022-06-07 15:36:25.066
245.0, 39280.08398772287, 13701.686406336596, -19490.989385961224, -22231.35795967078, -6960.690851293904, -6120.622887685644, 15595.817934968227, 5662.546236818581, 0.042, 0.924, 0.436, 192.0, 1.0, 80.0, 28.0, 224.0, 13.0, 160.0, 0.0, 0.0, 0.0, 1.654608985066195E9, 0.0, 2022-06-07 15:36:25.066
246.0, 39335.29279652749, 13707.788432572894, -19494.31979588506, -22201.78660175641, -6953.940624468401, -6066.196389936971, 15655.586499641717, 5665.831943253511, 0.042, 0.924, 0.436, 192.0, 0.0, 0.0, 0.0, 0.0, 0.0, 0.0, 0.0, 0.0, 0.0, 1.654608985066197E9, 0.0, 2022-06-07 15:36:25.066
247.0, 39253.887743221254, 13692.410432387644, -19530.48491841375, -22214.5941513293, -6986.060081250678, -6024.689200483465, 15601.361167593142, 5664.356728119461, 0.042, 0.924, 0.436, 192.0, 0.0, 0.0, 0.0, 0.0, 0.0, 0.0, 0.0, 0.0, 0.0, 1.654608985066199E9, 0.0, 2022-06-07 15:36:25.066
248.0, 39157.842297296804, 13682.285092149388, -19547.82987211107, -22240.365712686267, -7013.798596119714, -6051.377183363103, 15559.630460695083, 5659.238178639195, 0.042, 0.924, 0.436, 192.0, 0.0, 0.0, 0.0, 0.0, 0.0, 0.0, 0.0, 0.0, 0.0, 1.654608985066201E9, 0.0, 2022-06-07 15:36:25.066
249.0, 39190.29703024591, 13703.943932526581, -19528.29444745713, -22254.112035526283, -7004.343808215119, -6115.3702277386465, 15557.21647229391, 5654.968995448232, 0.042, 0.924, 0.436, 192.0, 0.0, 0.0, 0.0, 0.0, 0.0, 0.0, 0.0, 0.0, 0.0, 1.654608985066204E9, 0.0, 2022-06-07 15:36:25.066
250.0, 39317.45610445215, 13736.599831175785, -19494.878589496446, -22240.63393361973, -6963.149543183988, -6122.075751075238, 15570.381649778086, 5657.852370482966, 0.042, 0.924, 0.436, 192.0, 0.0, 0.0, 0.0, 0.0, 0.0, 0.0, 0.0, 0.0, 0.0, 1.654608985066206E9, 0.0, 2022-06-07 15:36:25.066
251.0, 39371.92730568973, 13742.701857412083, -19495.39267961892, -22217.119898452747, -6947.525673809729, -6053.455895597446, 15585.960815663437, 5666.055460698064, 0.042, 0.924, 0.436, 192.0, 0.0, 0.0, 0.0, 0.0, 0.0, 0.0, 0.0, 0.0, 0.0, 1.654608985066208E9, 0.0, 2022-06-07 15:36:25.066
252.0, 39277.669999321704, 13702.669883092629, -19545.572345921082, -22235.850660306296, -6992.296217953708, -6023.437502793969, 15572.974452134902, 5653.382021591905, 0.042, 0.924, 0.436, 192.0, 0.0, 0.0, 0.0, 0.0, 0.0, 0.0, 0.0, 0.0, 0.0, 1.65460898506621E9, 0.0, 2022-06-07 15:36:25.066
253.0, 39174.29318121591, 13688.27535966341, -19567.834683398567, -22261.443407707622, -7025.3767997475625, -6052.315956630226, 15556.344754260153, 5646.788256977589, 0.042, 0.924, 0.436, 192.0, 0.0, 0.0, 0.0, 0.0, 0.0, 0.0, 0.0, 0.0, 0.0, 1.654608985066212E9, 0.0, 2022-06-07 15:36:25.066
254.0, 39214.414562513186, 13711.409415174654, -19533.725921359768, -22261.97984957455, -6989.591656874616, -6101.758015365364, 15572.46036201243, 5656.35480360446, 0.042, 0.924, 0.436, 192.0, 0.0, 0.0, 0.0, 0.0, 0.0, 0.0, 0.0, 0.0, 0.0, 1.654608985066215E9, 0.0, 2022-06-07 15:36:25.066
255.0, 39344.300549542975, 13738.186805032112, -19492.28578713963, -22246.333628455835, -6934.204034114366, -6113.470329459945, 15590.453516298952, 5662.88151298541, 0.032, 0.93, 0.43, 192.0, 1.0, 0.0, 29.0, 16.0, 13.0, 112.0, 0.0, 0.0, 0.0, 1.654608985066217E9, 0.0, 2022-06-07 15:36:25.066
0.0, 39390.23338439863, 13735.683409653117, -19500.444173865817, -22239.806919074887, -6934.4499033033735, -6067.872770771119, 15606.479717073407, 5656.131286159907, 0.032, 0.93, 0.43, 192.0, 0.0, 0.0, 0.0, 0.0, 0.0, 0.0, 0.0, 0.0, 0.0, 1.65460898512632E9, 0.0, 2022-06-07 15:36:25.126
1.0, 39299.127673998795, 13720.014836789947, -19550.042694812142, -22251.78745410293, -6988.116441740566, -6043.062334425728, 15587.41367905303, 5639.613347007436, 0.032, 0.93, 0.43, 192.0, 0.0, 0.0, 0.0, 0.0, 0.0, 0.0, 0.0, 0.0, 0.0, 1.654608985126325E9, 0.0, 2022-06-07 15:36:25.126
2.0, 39189.291201745415, 13702.692234837084, -19578.429410270383, -22275.54735845892, -7030.316535272185, -6081.484983144401, 15569.062896855225, 5631.387905047883, 0.032, 0.93, 0.43, 192.0, 0.0, 0.0, 0.0, 0.0, 0.0, 0.0, 0.0, 0.0, 0.0, 1.654608985126327E9, 0.0, 2022-06-07 15:36:25.126
3.0, 39225.63513822974, 13731.324819484333, -19543.04659879763, -22278.430733493657, -6996.967732544867, -6121.40519874158, 15586.94429241947, 5650.744515746179, 0.032, 0.93, 0.43, 192.0, 0.0, 0.0, 0.0, 0.0, 0.0, 0.0, 0.0, 0.0, 0.0, 1.654608985126329E9, 0.0, 2022-06-07 15:36:25.126
4.0, 39367.45695679867, 13779.090497385323, -19486.787258003624, -22243.941991799118, -6932.482949791307, -6113.962067837962, 15619.287266646299, 5679.0641759710525, 0.032, 0.93, 0.43, 192.0, 0.0, 0.0, 0.0, 0.0, 0.0, 0.0, 0.0, 0.0, 0.0, 1.654608985126332E9, 0.0, 2022-06-07 15:36:25.126
5.0, 39413.25568118759, 13776.117715372768, -19494.230388907243, -22226.977017757537, -6930.426589301418, -6065.212913180937, 15622.37180738113, 5676.337263147505, 0.032, 0.93, 0.43, 192.0, 0.0, 0.0, 0.0, 0.0, 0.0, 0.0, 0.0, 0.0, 0.0, 1.654608985126334E9, 0.0, 2022-06-07 15:36:25.126
6.0, 39330.68833716969, 13756.917566885659, -19534.15060450442, -22234.93423878363, -6975.711223567871, -6030.7241714863985, 15631.200746440978, 5665.02728045312, 0.032, 0.93, 0.43, 192.0, 0.0, 0.0, 0.0, 0.0, 0.0, 0.0, 0.0, 0.0, 0.0, 1.654608985126336E9, 0.0, 2022-06-07 15:36:25.126
7.0, 39226.39509754123, 13742.880671367726, -19553.30604950262, -22256.347209971813, -7011.295200740719, -6054.640538053577, 15582.540998761773, 5653.806704736556, 0.032, 0.93, 0.43, 192.0, 0.0, 0.0, 0.0, 0.0, 0.0, 0.0, 0.0, 0.0, 0.0, 1.654608985126338E9, 0.0, 2022-06-07 15:36:25.126
8.0, 39249.75267049702, 13749.630898193229, -19531.177822491863, -22267.79130313293, -7003.963828559378, -6115.191413783004, 15542.419617464499, 5642.742591231178, 0.032, 0.93, 0.43, 192.0, 0.0, 0.0, 0.0, 0.0, 0.0, 0.0, 0.0, 0.0, 0.0, 1.654608985126341E9, 0.0, 2022-06-07 15:36:25.126
9.0, 39385.29364887401, 13791.451012069108, -19482.56277830157, -22243.249087721004, -6952.510112823262, -6125.316754021258, 15566.850074154148, 5656.734783260201, 0.032, 0.93, 0.426, 192.0, 1.0, 0.0, 29.0, 16.0, 13.0, 80.0, 0.0, 0.0, 0.0, 1.654608985126343E9, 0.0, 2022-06-07 15:36:25.126
10.0, 39436.59090239894, 13785.661910255183, -19489.402412104897, -22231.045035248404, -6942.51888305174, -6076.29937843077, 15587.056051141746, 5660.9816147067095, 0.032, 0.93, 0.426, 192.0, 0.0, 0.0, 0.0, 0.0, 0.0, 0.0, 0.0, 0.0, 0.0, 1.654608985126345E9, 0.0, 2022-06-07 15:36:25.126
11.0, 39337.237398295096, 13740.310220755366, -19537.48101442826, -22258.180053017146, -6982.863781793569, -6047.800904250254, 15588.75478372035, 5651.660937268846, 0.032, 0.93, 0.426, 192.0, 0.0, 0.0, 0.0, 0.0, 0.0, 0.0, 0.0, 0.0, 0.0, 1.654608985126347E9, 0.0, 2022-06-07 15:36:25.126
12.0, 39218.54963523742, 13723.85933683626, -19559.765703650202, -22272.351059001812, -7018.805386877702, -6069.616206838633, 15563.60907120813, 5643.681364498301, 0.032, 0.93, 0.426, 192.0, 0.0, 0.0, 0.0, 0.0, 0.0, 0.0, 0.0, 0.0, 0.0, 1.65460898512635E9, 0.0, 2022-06-07 15:36:25.126
13.0, 39248.88095246327, 13754.257709295478, -19526.23808696724, -22275.16737880318, -7000.454604679895, -6113.582088182222, 15572.505065501342, 5657.561797805047, 0.032, 0.93, 0.426, 192.0, 0.0, 0.0, 0.0, 0.0, 0.0, 0.0, 0.0, 0.0, 0.0, 1.654608985126352E9, 0.0, 2022-06-07 15:36:25.126
14.0, 39376.732930747625, 13790.244017868521, -19482.0486881791, -22253.01680004797, -6952.286595378709, -6120.68994291901, 15625.523403349329, 5671.129306689419, 0.032, 0.93, 0.426, 192.0, 0.0, 0.0, 0.0, 0.0, 0.0, 0.0, 0.0, 0.0, 0.0, 1.654608985126354E9, 0.0, 2022-06-07 15:36:25.126
15.0, 39421.21290221369, 13779.604587507796, -19497.225522664252, -22243.49495691001, -6945.983403442312, -6074.019500496328, 15607.99963569637, 5661.987443207198, 0.032, 0.93, 0.426, 192.0, 0.0, 0.0, 0.0, 0.0, 0.0, 0.0, 0.0, 0.0, 0.0, 1.654608985185318E9, 0.0, 2022-06-07 15:36:25.185
16.0, 39323.46872371063, 13746.166377802656, -19543.404226708917, -22257.665962894676, -6983.891962038513, -6041.38595359158, 15564.167864819512, 5650.766867490634, 0.032, 0.93, 0.426, 192.0, 0.0, 0.0, 0.0, 0.0, 0.0, 0.0, 0.0, 0.0, 0.0, 1.654608985185324E9, 0.0, 2022-06-07 15:36:25.185
17.0, 39221.36595503878, 13736.28690675341, -19556.30118325963, -22270.987602590038, -7011.786939118736, -6064.072974213716, 15560.07749558419, 5648.68815525629, 0.032, 0.93, 0.426, 192.0, 0.0, 0.0, 0.0, 0.0, 0.0, 0.0, 0.0, 0.0, 0.0, 1.654608985185327E9, 0.0, 2022-06-07 15:36:25.185
18.0, 39246.93635069566, 13758.348078530798, -19529.43438642435, -22279.21304454959, -6997.928857556446, -6121.606364441677, 15558.132893816579, 5646.743553488678, 0.032, 0.93, 0.426, 192.0, 0.0, 0.0, 0.0, 0.0, 0.0, 0.0, 0.0, 0.0, 0.0, 1.654608985185329E9, 0.0, 2022-06-07 15:36:25.185
19.0, 39358.98564565011, 13789.260541112488, -19496.890246497424, -22268.752428144508, -6961.1602379274655, -6140.940623395518, 15559.071667083701, 5639.54629177407, 0.034, 0.936, 0.43, 192.0, 1.0, 16.0, 29.0, 64.0, 13.0, 112.0, 0.0, 0.0, 0.0, 1.654608985185331E9, 0.0, 2022-06-07 15:36:25.185
20.0, 39405.03023922804, 13783.24792185401, -19506.456793124296, -22251.228660491546, -6957.427496603429, -6093.242000727892, 15573.667356213016, 5640.373306318916, 0.034, 0.936, 0.43, 192.0, 0.0, 0.0, 0.0, 0.0, 0.0, 0.0, 0.0, 0.0, 0.0, 1.654608985185346E9, 0.0, 2022-06-07 15:36:25.185
21.0, 39311.711706127135, 13743.14889230119, -19546.9134505884, -22259.40939896219, -6989.52460164125, -6054.640538053577, 15571.968623634413, 5641.35678307495, 0.034, 0.936, 0.43, 192.0, 0.0, 0.0, 0.0, 0.0, 0.0, 0.0, 0.0, 0.0, 0.0, 1.654608985185349E9, 0.0, 2022-06-07 15:36:25.185
22.0, 39207.57492870986, 13729.961363072558, -19572.68501194537, -22286.767934175485, -7030.651811439016, -6083.541343634289, 15546.152358788535, 5625.867024167422, 0.034, 0.936, 0.43, 192.0, 0.0, 0.0, 0.0, 0.0, 0.0, 0.0, 0.0, 0.0, 0.0, 1.654608985185357E9, 0.0, 2022-06-07 15:36:25.185
23.0, 39247.09281290684, 13761.991412877014, -19540.63261039646, -22296.423887780176, -7009.305895484197, -6138.101951849694, 15554.55661470373, 5630.158559102841, 0.034, 0.936, 0.43, 192.0, 0.0, 0.0, 0.0, 0.0, 0.0, 0.0, 0.0, 0.0, 0.0, 1.65460898518536E9, 0.0, 2022-06-07 15:36:25.185
24.0, 39359.90206717278, 13780.968043919569, -19485.267339380665, -22270.048829322914, -6945.446961575385, -6140.940623395518, 15617.432071856509, 5660.534579817603, 0.034, 0.936, 0.43, 192.0, 0.0, 0.0, 0.0, 0.0, 0.0, 0.0, 0.0, 0.0, 0.0, 1.654608985185362E9, 0.0, 2022-06-07 15:36:25.185
25.0, 39387.81939599745, 13768.406363535687, -19491.928159228344, -22243.31614295437, -6932.594708513583, -6086.983512280406, 15625.724569049427, 5661.9203879738325, 0.034, 0.936, 0.43, 192.0, 0.0, 0.0, 0.0, 0.0, 0.0, 0.0, 0.0, 0.0, 0.0, 1.654608985185364E9, 0.0, 2022-06-07 15:36:25.185
26.0, 39287.54947037095, 13737.069217809347, -19547.29343024414, -22270.093532811825, -6982.304988182186, -6061.39076487908, 15564.547844475252, 5635.433570794293, 0.034, 0.936, 0.43, 192.0, 0.0, 0.0, 0.0, 0.0, 0.0, 0.0, 0.0, 0.0, 0.0, 1.654608985185366E9, 0.0, 2022-06-07 15:36:25.185
27.0, 39177.89181207321, 13719.076063522823, -19565.331288019574, -22290.523027243977, -7020.392360734029, -6080.523858132823, 15554.64602168155, 5632.930175415298, 0.034, 0.936, 0.43, 192.0, 0.0, 0.0, 0.0, 0.0, 0.0, 0.0, 0.0, 0.0, 0.0, 1.654608985185369E9, 0.0, 2022-06-07 15:36:25.185
28.0, 39205.78678915343, 13735.839871864304, -19535.49170917174, -22292.668794711684, -7005.573154160161, -6127.7530941668865, 15573.421487024008, 5643.435495309293, 0.028, 0.932, 0.428, 192.0, 0.0, 224.0, 29.0, 32.0, 13.0, 96.0, 0.0, 0.0, 0.0, 1.654608985185371E9, 0.0, 2022-06-07 15:36:25.185
29.0, 39346.91570364424, 13771.44620078161, -19483.367441101964, -22260.236413507035, -6939.791970228192, -6131.731704679931, 15602.791679238282, 5667.59773106548, 0.028, 0.932, 0.428, 192.0, 0.0, 0.0, 0.0, 0.0, 0.0, 0.0, 0.0, 0.0, 0.0, 1.654608985185373E9, 0.0, 2022-06-07 15:36:25.185
30.0, 39405.9019572618, 13771.781476948438, -19483.367441101964, -22234.598962616798, -6925.889185176991, -6074.354776663158, 15601.160001893044, 5669.207056666262, 0.028, 0.932, 0.428, 192.0, 0.0, 0.0, 0.0, 0.0, 0.0, 0.0, 0.0, 0.0, 0.0, 1.65460898524556E9, 0.0, 2022-06-07 15:36:25.245
31.0, 39309.58829040388, 13734.565822430352, -19538.688008628847, -22255.989582060527, -6992.519735398261, -6047.175055405504, 15569.621690466607, 5644.664841254335, 0.028, 0.932, 0.428, 192.0, 0.0, 0.0, 0.0, 0.0, 0.0, 0.0, 0.0, 0.0, 0.0, 1.654608985245567E9, 0.0, 2022-06-07 15:36:25.245
32.0, 39191.548727935406, 13718.114938511246, -19565.8677298865, -22279.101285827313, -7034.786884163247, -6076.478192386412, 15548.052257067235, 5634.494797527171, 0.028, 0.932, 0.428, 192.0, 0.0, 0.0, 0.0, 0.0, 0.0, 0.0, 0.0, 0.0, 0.0, 1.65460898524557E9, 0.0, 2022-06-07 15:36:25.245
33.0, 39216.26975730297, 13741.226642278034, -19534.329418460064, -22279.4589137386, -7012.546898430217, -6125.741437165909, 15567.162998576523, 5646.989422677687, 0.028, 0.932, 0.428, 192.0, 0.0, 0.0, 0.0, 0.0, 0.0, 0.0, 0.0, 0.0, 0.0, 1.654608985245574E9, 0.0, 2022-06-07 15:36:25.245
34.0, 39342.80298266446, 13774.217817094066, -19487.14488591491, -22258.515329183978, -6959.215636159854, -6133.005754113884, 15598.790716980782, 5666.413088609349, 0.028, 0.932, 0.428, 192.0, 0.0, 0.0, 0.0, 0.0, 0.0, 0.0, 0.0, 0.0, 0.0, 1.654608985245577E9, 0.0, 2022-06-07 15:36:25.245
35.0, 39403.912652005274, 13773.994299649514, -19488.508342326684, -22237.080006251337, -6945.692830764393, -6088.1905064809935, 15611.0841764312, 5667.329510132016, 0.028, 0.932, 0.428, 192.0, 0.0, 0.0, 0.0, 0.0, 0.0, 0.0, 0.0, 0.0, 0.0, 1.65460898524558E9, 0.0, 2022-06-07 15:36:25.245
36.0, 39313.85747359484, 13747.90981387017, -19524.226429966264, -22230.68740733712, -6975.085374723122, -6043.062334425728, 15612.313522376244, 5662.769754263134, 0.028, 0.932, 0.428, 192.0, 0.0, 0.0, 0.0, 0.0, 0.0, 0.0, 0.0, 0.0, 0.0, 1.654608985245584E9, 0.0, 2022-06-07 15:36:25.245
37.0, 39187.748931378, 13718.293752466889, -19556.59175593755, -22268.037172321936, -7019.811215378191, -6073.05837548475, 15578.18240859299, 5642.183797619796, 0.028, 0.932, 0.428, 192.0, 0.0, 0.0, 0.0, 0.0, 0.0, 0.0, 0.0, 0.0, 0.0, 1.654608985245587E9, 0.0, 2022-06-07 15:36:25.245
38.0, 39202.34462050732, 13730.184880517112, -19533.68121787086, -22281.60468120631, -7011.384607718541, -6131.932870380029, 15565.17369332, 5638.3840010623935, 0.026000000000000002, 0.93, 0.43, 192.0, 0.0, 208.0, 29.0, 16.0, 13.0, 112.0, 0.0, 0.0, 0.0, 1.65460898524559E9, 0.0, 2022-06-07 15:36:25.245
39.0, 39323.40166847726, 13760.58325297633, -19494.38685111843, -22258.291811739426, -6967.955168241879, -6140.538291995322, 15600.221228625922, 5654.901940214866, 0.026000000000000002, 0.93, 0.43, 192.0, 0.0, 0.0, 0.0, 0.0, 0.0, 0.0, 0.0, 0.0, 0.0, 1.654608985245593E9, 0.0, 2022-06-07 15:36:25.245
40.0, 39377.8952214593, 13754.905909884681, -19507.23910418023, -22242.846756320807, -6964.155371684476, -6090.649198371077, 15587.525437775308, 5652.331489602505, 0.026000000000000002, 0.93, 0.43, 192.0, 0.0, 0.0, 0.0, 0.0, 0.0, 0.0, 0.0, 0.0, 0.0, 1.654608985245597E9, 0.0, 2022-06-07 15:36:25.245
41.0, 39297.183072231186, 13729.536679927907, -19547.15931977741, -22246.512442411477, -6997.504174411795, -6044.515197815323, 15572.259196312332, 5648.4199343228265, 0.026000000000000002, 0.93, 0.43, 192.0, 0.0, 0.0, 0.0, 0.0, 0.0, 0.0, 0.0, 0.0, 0.0, 1.6546089852456E9, 0.0, 2022-06-07 15:36:25.245
42.0, 39193.001591324995, 13720.752444356973, -19563.20787229632, -22263.544471686422, -7019.185366533443, -6057.76978227732, 15564.212568308421, 5650.722164001723, 0.026000000000000002, 0.93, 0.43, 192.0, 0.0, 0.0, 0.0, 0.0, 0.0, 0.0, 0.0, 0.0, 0.0, 1.654608985245604E9, 0.0, 2022-06-07 15:36:25.245
43.0, 39213.78871366844, 13744.042962079402, -19533.81532833759, -22268.663021166685, -7001.751005858303, -6111.950410836985, 15559.004611850336, 5655.281919870606, 0.026000000000000002, 0.93, 0.43, 192.0, 0.0, 0.0, 0.0, 0.0, 0.0, 0.0, 0.0, 0.0, 0.0, 1.654608985245633E9, 0.0, 2022-06-07 15:36:25.245
44.0, 39331.89533137027, 13768.920453658158, -19494.34214762952, -22250.602811646797, -6958.478028592829, -6128.334239522725, 15584.575007507206, 5669.698795044279, 0.026000000000000002, 0.93, 0.43, 192.0, 0.0, 0.0, 0.0, 0.0, 0.0, 0.0, 0.0, 0.0, 0.0, 1.654608985245637E9, 0.0, 2022-06-07 15:36:25.245
45.0, 39389.115797175866, 13768.875750169249, -19493.626891806947, -22228.45223289159, -6945.402258086474, -6076.791116808787, 15606.055033928757, 5675.957283491764, 0.026000000000000002, 0.93, 0.43, 192.0, 0.0, 0.0, 0.0, 0.0, 0.0, 0.0, 0.0, 0.0, 0.0, 1.654608985305791E9, 0.0, 2022-06-07 15:36:25.305
46.0, 39304.06740952342, 13737.136273042712, -19537.816290595092, -22239.248125463502, -6989.323435941153, -6039.709572757432, 15585.066745885224, 5662.12155367393, 0.026000000000000002, 0.93, 0.43, 192.0, 0.0, 0.0, 0.0, 0.0, 0.0, 0.0, 0.0, 0.0, 0.0, 1.654608985305809E9, 0.0, 2022-06-07 15:36:25.305
47.0, 39189.24649825651, 13719.344284456289, -19562.291450773653, -22265.377314731755, -7025.399151492018, -6063.357718391147, 15565.84424565366, 5654.745478003679, 0.026000000000000002, 0.93, 0.43, 192.0, 0.0, 0.0, 0.0, 0.0, 0.0, 0.0, 0.0, 0.0, 0.0, 1.654608985305812E9, 0.0, 2022-06-07 15:36:25.305
48.0, 39206.56910020937, 13737.471549209542, -19530.14964224692, -22269.579442689355, -7004.410863448485, -6117.851271373185, 15573.779114935294, 5660.758097262156, 0.026000000000000002, 0.936, 0.428, 192.0, 0.0, 208.0, 29.0, 64.0, 13.0, 96.0, 0.0, 0.0, 0.0, 1.654608985305815E9, 0.0, 2022-06-07 15:36:25.305
49.0, 39337.371508761826, 13776.989433406525, -19476.572510787548, -22240.656285364188, -6952.219540145343, -6125.629678443633, 15600.981187937403, 5679.421803882337, 0.026000000000000002, 0.936, 0.428, 192.0, 0.0, 0.0, 0.0, 0.0, 0.0, 0.0, 0.0, 0.0, 0.0, 1.654608985305818E9, 0.0, 2022-06-07 15:36:25.305
50.0, 39396.69303854621, 13768.853398424793, -19478.315946855062, -22218.371596142246, -6938.517920794239, -6075.1594394635495, 15617.834403256704, 5683.132193461918, 0.026000000000000002, 0.936, 0.428, 192.0, 0.0, 0.0, 0.0, 0.0, 0.0, 0.0, 0.0, 0.0, 0.0, 1.654608985305821E9, 0.0, 2022-06-07 15:36:25.305
51.0, 39296.98190653109, 13729.849604350282, -19529.143813746432, -22234.93423878363, -6983.020244004756, -6043.062334425728, 15602.501106560363, 5665.362556619949, 0.026000000000000002, 0.936, 0.428, 192.0, 0.0, 0.0, 0.0, 0.0, 0.0, 0.0, 0.0, 0.0, 0.0, 1.654608985305824E9, 0.0, 2022-06-07 15:36:25.305
52.0, 39181.02105629695, 13708.794261073383, -19556.25647977072, -22261.711628641086, -7023.1416253020325, -6066.10698295915, 15582.786867950783, 5654.298443114572, 0.026000000000000002, 0.936, 0.428, 192.0, 0.0, 0.0, 0.0, 0.0, 0.0, 0.0, 0.0, 0.0, 0.0, 1.654608985305827E9, 0.0, 2022-06-07 15:36:25.305
53.0, 39191.36991397976, 13724.775758358928, -19533.077720770565, -22273.64746018022, -7014.782072875747, -6122.612192942166, 15577.780077192794, 5650.632757023902, 0.026000000000000002, 0.936, 0.428, 192.0, 0.0, 0.0, 0.0, 0.0, 0.0, 0.0, 0.0, 0.0, 0.0, 1.65460898530583E9, 0.0, 2022-06-07 15:36:25.305
54.0, 39323.87105511082, 13761.320860543354, -19483.121571912954, -22244.389026688223, -6960.243816404798, -6131.910518635574, 15605.496240317374, 5670.615216566946, 0.026000000000000002, 0.936, 0.428, 192.0, 0.0, 0.0, 0.0, 0.0, 0.0, 0.0, 0.0, 0.0, 0.0, 1.654608985305833E9, 0.0, 2022-06-07 15:36:25.305
55.0, 39388.534651820024, 13765.00889837848, -19482.272205623653, -22222.886648522217, -6938.89790044998, -6078.9145325320405, 15657.62050838715, 5677.2983881590835, 0.026000000000000002, 0.936, 0.428, 192.0, 0.0, 0.0, 0.0, 0.0, 0.0, 0.0, 0.0, 0.0, 0.0, 1.654608985305836E9, 0.0, 2022-06-07 15:36:25.305
56.0, 39300.044095521465, 13732.129482284723, -19528.29444745713, -22239.136366741226, -6982.103822482089, -6043.039982681273, 15605.786812995293, 5661.383946106905, 0.026000000000000002, 0.936, 0.428, 192.0, 0.0, 0.0, 0.0, 0.0, 0.0, 0.0, 0.0, 0.0, 0.0, 1.654608985305839E9, 0.0, 2022-06-07 15:36:25.305
57.0, 39184.08324528733, 13706.067348249835, -19556.658811170913, -22266.204329276603, -7027.321401515174, -6063.380070135602, 15561.93269037398, 5653.672594269824, 0.026000000000000002, 0.936, 0.428, 192.0, 0.0, 0.0, 0.0, 0.0, 0.0, 0.0, 0.0, 0.0, 0.0, 1.654608985305842E9, 0.0, 2022-06-07 15:36:25.305
58.0, 39202.67989667415, 13723.188784502601, -19530.73078760276, -22267.903061855206, -7013.217450763876, -6111.168099781049, 15559.675164183995, 5660.668690284335, 0.026000000000000002, 0.928, 0.428, 192.0, 0.0, 208.0, 29.0, 0.0, 13.0, 96.0, 0.0, 0.0, 0.0, 1.654608985305845E9, 0.0, 2022-06-07 15:36:25.305
59.0, 39317.031421307496, 13747.038095836413, -19492.53165632864, -22251.630991891743, -6963.5071710952725, -6129.138902323116, 15593.001615166857, 5674.9514549912765, 0.026000000000000002, 0.928, 0.428, 192.0, 0.0, 0.0, 0.0, 0.0, 0.0, 0.0, 0.0, 0.0, 0.0, 1.654608985305848E9, 0.0, 2022-06-07 15:36:25.305
60.0, 39372.8437272124, 13749.34032551531, -19494.72212728526, -22229.21219220307, -6941.736571995803, -6077.416965653535, 15618.706121290461, 5684.003911495675, 0.026000000000000002, 0.928, 0.428, 192.0, 0.0, 0.0, 0.0, 0.0, 0.0, 0.0, 0.0, 0.0, 0.0, 1.654608985366121E9, 0.0, 2022-06-07 15:36:25.366
61.0, 39279.32402841139, 13712.705816353062, -19546.35465697702, -22246.244221478013, -6986.2835986952305, -6044.537549559778, 15602.009368182347, 5670.391699122393, 0.026000000000000002, 0.928, 0.428, 192.0, 0.0, 0.0, 0.0, 0.0, 0.0, 0.0, 0.0, 0.0, 0.0, 1.654608985366128E9, 0.0, 2022-06-07 15:36:25.366
62.0, 39165.732463089524, 13692.388080643188, -19569.935747377367, -22268.41715197768, -7020.392360734029, -6065.749355047865, 15587.145458119567, 5666.077812442519, 0.026000000000000002, 0.928, 0.428, 192.0, 0.0, 0.0, 0.0, 0.0, 0.0, 0.0, 0.0, 0.0, 0.0, 1.654608985366131E9, 0.0, 2022-06-07 15:36:25.366
63.0, 39181.110463274774, 13703.988636015492, -19543.67244764238, -22276.061448581393, -7007.048369294211, -6122.187509797515, 15580.238769082878, 5663.753231019167, 0.026000000000000002, 0.928, 0.428, 192.0, 0.0, 0.0, 0.0, 0.0, 0.0, 0.0, 0.0, 0.0, 0.0, 1.654608985366135E9, 0.0, 2022-06-07 15:36:25.366
64.0, 39297.026610019995, 13728.843775849793, -19499.348938387506, -22256.816596605375, -6961.562569327662, -6135.933832637529, 15599.237751869889, 5670.145829933385, 0.026000000000000002, 0.928, 0.428, 192.0, 0.0, 0.0, 0.0, 0.0, 0.0, 0.0, 0.0, 0.0, 0.0, 1.654608985366149E9, 0.0, 2022-06-07 15:36:25.366
65.0, 39352.66010196925, 13723.792281602893, -19500.46652561027, -22236.58826787332, -6942.720048751838, -6081.06029999975, 15613.319350876733, 5670.749327033678, 0.026000000000000002, 0.928, 0.428, 192.0, 0.0, 0.0, 0.0, 0.0, 0.0, 0.0, 0.0, 0.0, 0.0, 1.654608985366152E9, 0.0, 2022-06-07 15:36:25.366
66.0, 39263.23077240357, 13686.487220106987, -19545.572345921082, -22250.55810815789, -6987.602351618094, -6046.660965283033, 15585.89376043007, 5649.5375215455915, 0.026000000000000002, 0.928, 0.428, 192.0, 0.0, 0.0, 0.0, 0.0, 0.0, 0.0, 0.0, 0.0, 0.0, 1.654608985366156E9, 0.0, 2022-06-07 15:36:25.366
67.0, 39140.989081977496, 13657.98874592647, -19571.790942167157, -22277.40255324871, -7026.62849743706, -6071.046718483773, 15558.490521727863, 5633.466617282226, 0.026000000000000002, 0.928, 0.428, 192.0, 0.0, 0.0, 0.0, 0.0, 0.0, 0.0, 0.0, 0.0, 0.0, 1.654608985366159E9, 0.0, 2022-06-07 15:36:25.366
68.0, 39148.87924777022, 13662.034411672881, -19547.047561055133, -22284.868035896783, -7010.781110618247, -6121.4946057194, 15562.290318285266, 5642.094390641974, 0.028, 0.928, 0.428, 192.0, 0.0, 224.0, 29.0, 0.0, 13.0, 96.0, 0.0, 0.0, 0.0, 1.654608985366163E9, 0.0, 2022-06-07 15:36:25.366
69.0, 39254.670054277194, 13679.357013625744, -19510.480107126252, -22272.08283806835, -6967.508133352773, -6138.772504183353, 15574.650832969051, 5653.762001247645, 0.028, 0.928, 0.428, 192.0, 0.0, 0.0, 0.0, 0.0, 0.0, 0.0, 0.0, 0.0, 0.0, 1.654608985366167E9, 0.0, 2022-06-07 15:36:25.366
70.0, 39300.15585424374, 13667.443533831065, -19518.414976407883, -22263.298602497413, -6956.913406480958, -6101.892125832096, 15584.887931929581, 5647.682326755801, 0.028, 0.928, 0.428, 192.0, 0.0, 0.0, 0.0, 0.0, 0.0, 0.0, 0.0, 0.0, 0.0, 1.65460898536617E9, 0.0, 2022-06-07 15:36:25.366
71.0, 39212.26879504547, 13624.148204821135, -19564.101942074532, -22278.587195704844, -6993.816136576669, -6066.710480059443, 15581.401059794553, 5639.121608629419, 0.028, 0.928, 0.428, 192.0, 0.0, 0.0, 0.0, 0.0, 0.0, 0.0, 0.0, 0.0, 0.0, 1.654608985366174E9, 0.0, 2022-06-07 15:36:25.366
72.0, 39095.83855817778, 13592.296968972323, -19593.114506377522, -22305.521047773487, -7034.339849274141, -6089.44220417049, 15562.022097351803, 5624.682381711291, 0.028, 0.928, 0.428, 192.0, 0.0, 0.0, 0.0, 0.0, 0.0, 0.0, 0.0, 0.0, 0.0, 1.654608985366178E9, 0.0, 2022-06-07 15:36:25.366
73.0, 39097.6266977342, 13599.114251031191, -19566.29241303115, -22302.212989594103, -7018.24659326632, -6141.9017484070955, 15577.601263237151, 5635.165349860829, 0.028, 0.928, 0.428, 192.0, 0.0, 0.0, 0.0, 0.0, 0.0, 0.0, 0.0, 0.0, 0.0, 1.654608985366182E9, 0.0, 2022-06-07 15:36:25.366
74.0, 39200.623536184255, 13614.916934361094, -19514.10108972801, -22274.765047402983, -6961.0931826941, -6155.357498569191, 15604.378653094609, 5655.751306504168, 0.028, 0.928, 0.428, 192.0, 0.0, 0.0, 0.0, 0.0, 0.0, 0.0, 0.0, 0.0, 0.0, 1.654608985366185E9, 0.0, 2022-06-07 15:36:25.366
75.0, 39267.1199759388, 13629.087940345758, -19507.686139069338, -22253.709704126086, -6940.0378394172, -6091.990303038395, 15576.327213803199, 5657.919425716332, 0.028, 0.928, 0.428, 192.0, 0.0, 0.0, 0.0, 0.0, 0.0, 0.0, 0.0, 0.0, 0.0, 1.654608985425519E9, 0.0, 2022-06-07 15:36:25.425
76.0, 39180.88694583022, 13603.137565033147, -19553.14958729143, -22259.610564662285, -6973.029014233233, -6042.794113492265, 15598.678958258506, 5652.68911751379, 0.028, 0.928, 0.428, 192.0, 0.0, 0.0, 0.0, 0.0, 0.0, 0.0, 0.0, 0.0, 0.0, 1.654608985425538E9, 0.0, 2022-06-07 15:36:25.425
77.0, 39038.863961561205, 13558.970517989459, -19586.9230731634, -22280.397687005723, -7015.854956609602, -6071.381994650602, 15554.55661470373, 5646.184759877296, 0.028, 0.928, 0.428, 192.0, 0.0, 0.0, 0.0, 0.0, 0.0, 0.0, 0.0, 0.0, 0.0, 1.654608985425542E9, 0.0, 2022-06-07 15:36:25.425
78.0, 39051.20212450053, 13578.863570554682, -19561.17386355089, -22292.557035989408, -7009.484709439839, -6129.541233723311, 15542.64313490905, 5650.11866690143, 0.034, 0.93, 0.428, 192.0, 1.0, 16.0, 29.0, 16.0, 13.0, 96.0, 0.0, 0.0, 0.0, 1.654608985425545E9, 0.0, 2022-06-07 15:36:25.425
79.0, 39180.909297574675, 13628.149167078634, -19513.542296116626, -22271.814617134885, -6961.763735027759, -6148.02612638785, 15564.972527619902, 5665.787239764601, 0.034, 0.93, 0.428, 192.0, 0.0, 0.0, 0.0, 0.0, 0.0, 0.0, 0.0, 0.0, 0.0, 1.654608985425548E9, 0.0, 2022-06-07 15:36:25.425
80.0, 39251.67492052018, 13633.245364814446, -19515.24102869523, -22250.133425013235, -6950.543159311195, -6094.627808884122, 15593.873333200614, 5670.682271800312, 0.034, 0.93, 0.428, 192.0, 0.0, 0.0, 0.0, 0.0, 0.0, 0.0, 0.0, 0.0, 0.0, 1.654608985425552E9, 0.0, 2022-06-07 15:36:25.425
81.0, 39170.71690210306, 13591.291140471834, -19561.375029250983, -22259.856433851295, -6989.412842918974, -6044.649308282055, 15586.27374008581, 5664.893169986388, 0.034, 0.93, 0.428, 192.0, 0.0, 0.0, 0.0, 0.0, 0.0, 0.0, 0.0, 0.0, 0.0, 1.654608985425555E9, 0.0, 2022-06-07 15:36:25.425
82.0, 39053.83963034626, 13569.252320438902, -19586.63250048548, -22292.378222033767, -7028.841320138135, -6061.815448023731, 15545.615916921606, 5646.050649410564, 0.034, 0.93, 0.428, 192.0, 0.0, 0.0, 0.0, 0.0, 0.0, 0.0, 0.0, 0.0, 0.0, 1.654608985425558E9, 0.0, 2022-06-07 15:36:25.425
83.0, 39073.26329627792, 13591.179381749556, -19560.570366450593, -22298.480248270065, -7023.052218324211, -6121.092274319205, 15542.464320953408, 5644.731896487701, 0.034, 0.93, 0.428, 192.0, 0.0, 0.0, 0.0, 0.0, 0.0, 0.0, 0.0, 0.0, 0.0, 1.654608985425562E9, 0.0, 2022-06-07 15:36:25.425
84.0, 39203.46220773008, 13635.189966582057, -19517.655017096404, -22264.818521120374, -6975.66652007896, -6133.452789002989, 15573.399135279553, 5663.797934508078, 0.034, 0.93, 0.428, 192.0, 0.0, 0.0, 0.0, 0.0, 0.0, 0.0, 0.0, 0.0, 0.0, 1.654608985425565E9, 0.0, 2022-06-07 15:36:25.425
85.0, 39276.21713593211, 13648.355144066232, -19518.01264500769, -22244.947820299607, -6954.767639013248, -6084.457765156957, 15593.873333200614, 5668.64826305488, 0.034, 0.93, 0.428, 192.0, 0.0, 0.0, 0.0, 0.0, 0.0, 0.0, 0.0, 0.0, 0.0, 1.654608985425587E9, 0.0, 2022-06-07 15:36:25.425
86.0, 39198.120140805266, 13622.248306542435, -19562.11263681801, -22259.96819257357, -6993.279694709742, -6046.236282138381, 15577.914187659526, 5656.779486749111, 0.034, 0.93, 0.428, 192.0, 0.0, 0.0, 0.0, 0.0, 0.0, 0.0, 0.0, 0.0, 0.0, 1.654608985425599E9, 0.0, 2022-06-07 15:36:25.425
87.0, 39086.741398184466, 13608.703149402518, -19587.548922008147, -22284.84568415233, -7033.177558562465, -6066.10698295915, 15546.174710532989, 5643.837826709489, 0.034, 0.93, 0.428, 192.0, 0.0, 0.0, 0.0, 0.0, 0.0, 0.0, 0.0, 0.0, 0.0, 1.654608985425603E9, 0.0, 2022-06-07 15:36:25.425
88.0, 39104.712200726535, 13637.22397532749, -19562.78318915167, -22289.874826654774, -7018.336000244141, -6113.738550393409, 15549.50512045683, 5648.263472111639, 0.032, 0.926, 0.424, 192.0, 1.0, 0.0, 28.0, 240.0, 13.0, 64.0, 0.0, 0.0, 0.0, 1.654608985425606E9, 0.0, 2022-06-07 15:36:25.425
89.0, 39232.63123424426, 13676.406583357642, -19513.89992402791, -22268.12657929976, -6969.1398106980105, -6128.8706813896515, 15576.148399847556, 5664.669652541835, 0.032, 0.926, 0.424, 192.0, 0.0, 0.0, 0.0, 0.0, 0.0, 0.0, 0.0, 0.0, 0.0, 1.65460898542561E9, 0.0, 2022-06-07 15:36:25.425
90.0, 39297.47364490911, 13683.939121239082, -19514.414014150385, -22249.86520407977, -6952.040726189701, -6084.927151790518, 15597.024929168812, 5668.3800421214155, 0.032, 0.926, 0.424, 192.0, 0.0, 0.0, 0.0, 0.0, 0.0, 0.0, 0.0, 0.0, 0.0, 1.65460898548527E9, 0.0, 2022-06-07 15:36:25.485
91.0, 39210.346545022316, 13661.542673294864, -19567.812331654113, -22274.206253791603, -6990.530430141739, -6057.546264832767, 15570.202835822445, 5646.922367444321, 0.032, 0.926, 0.424, 192.0, 0.0, 0.0, 0.0, 0.0, 0.0, 0.0, 0.0, 0.0, 0.0, 1.654608985485277E9, 0.0, 2022-06-07 15:36:25.485
92.0, 39096.330296555796, 13643.46011203052, -19590.029965642687, -22288.958405132104, -7024.370971247074, -6072.052546984261, 15538.418655206999, 5638.8533876959555, 0.032, 0.926, 0.424, 192.0, 0.0, 0.0, 0.0, 0.0, 0.0, 0.0, 0.0, 0.0, 0.0, 1.654608985485281E9, 0.0, 2022-06-07 15:36:25.485
93.0, 39105.136883871186, 13648.153978366136, -19566.73944792026, -22287.393783020234, -7011.429311207451, -6124.132111565127, 15531.355503959121, 5639.479236540704, 0.032, 0.926, 0.424, 192.0, 0.0, 0.0, 0.0, 0.0, 0.0, 0.0, 0.0, 0.0, 0.0, 1.654608985485284E9, 0.0, 2022-06-07 15:36:25.485
94.0, 39236.45338254612, 13680.586359570785, -19520.694854342324, -22269.758256644996, -6960.713203038359, -6143.265204818869, 15559.026963594792, 5653.046745425075, 0.032, 0.926, 0.424, 192.0, 0.0, 0.0, 0.0, 0.0, 0.0, 0.0, 0.0, 0.0, 0.0, 1.654608985485288E9, 0.0, 2022-06-07 15:36:25.485
95.0, 39308.94008981468, 13691.09167946478, -19515.621008350972, -22243.49495691001, -6941.3789440845185, -6096.125375762627, 15604.557467050252, 5657.472390827226, 0.032, 0.926, 0.424, 192.0, 0.0, 0.0, 0.0, 0.0, 0.0, 0.0, 0.0, 0.0, 0.0, 1.654608985485291E9, 0.0, 2022-06-07 15:36:25.485
96.0, 39233.905283678214, 13667.890568720171, -19558.49165421625, -22251.54158491392, -6982.3496916710965, -6054.528779331301, 15576.170751592012, 5642.988460420187, 0.032, 0.926, 0.424, 192.0, 0.0, 0.0, 0.0, 0.0, 0.0, 0.0, 0.0, 0.0, 0.0, 1.654608985485295E9, 0.0, 2022-06-07 15:36:25.485
97.0, 39129.388526605195, 13649.718600478007, -19582.408020783427, -22273.781570646952, -7023.208680535398, -6069.191523693982, 15517.676236352472, 5629.800931191556, 0.032, 0.926, 0.424, 192.0, 0.0, 0.0, 0.0, 0.0, 0.0, 0.0, 0.0, 0.0, 0.0, 1.654608985485298E9, 0.0, 2022-06-07 15:36:25.485
98.0, 39131.199017906074, 13670.796295499362, -19558.357543749516, -22278.69895442712, -7017.240764765831, -6119.97468709644, 15524.247649222334, 5636.417047550327, 0.03, 0.93, 0.424, 192.0, 0.0, 240.0, 29.0, 16.0, 13.0, 64.0, 0.0, 0.0, 0.0, 1.654608985485302E9, 0.0, 2022-06-07 15:36:25.485
99.0, 39245.39408032824, 13702.692234837084, -19517.52090662967, -22263.097436797314, -6972.76079329977, -6146.237986831426, 15558.624632194595, 5649.805742479056, 0.03, 0.93, 0.424, 192.0, 0.0, 0.0, 0.0, 0.0, 0.0, 0.0, 0.0, 0.0, 0.0, 1.654608985485305E9, 0.0, 2022-06-07 15:36:25.485
100.0, 39317.992546319074, 13709.062482006846, -19511.061252482086, -22238.197593474102, -6948.978537199323, -6097.533535663311, 15591.861676199636, 5663.753231019167, 0.03, 0.93, 0.424, 192.0, 0.0, 0.0, 0.0, 0.0, 0.0, 0.0, 0.0, 0.0, 0.0, 1.654608985485309E9, 0.0, 2022-06-07 15:36:25.485
101.0, 39235.24638834553, 13673.634967045185, -19560.59271819505, -22254.246145993013, -6991.715072597871, -6055.288738642781, 15574.60612948014, 5650.4762948127145, 0.03, 0.93, 0.424, 192.0, 0.0, 0.0, 0.0, 0.0, 0.0, 0.0, 0.0, 0.0, 0.0, 1.654608985485312E9, 0.0, 2022-06-07 15:36:25.485
102.0, 39114.859892709246, 13652.981955168481, -19594.567369767115, -22282.699916684618, -7038.586680720649, -6077.864000542641, 15542.084341297668, 5632.2819748260945, 0.03, 0.93, 0.424, 192.0, 0.0, 0.0, 0.0, 0.0, 0.0, 0.0, 0.0, 0.0, 0.0, 1.654608985485316E9, 0.0, 2022-06-07 15:36:25.485
103.0, 39129.8355614943, 13680.295786892866, -19559.139854805453, -22262.248070508012, -7011.429311207451, -6112.285687003814, 15560.703344428939, 5659.841675739489, 0.03, 0.93, 0.424, 192.0, 0.0, 0.0, 0.0, 0.0, 0.0, 0.0, 0.0, 0.0, 0.0, 1.654608985485319E9, 0.0, 2022-06-07 15:36:25.485
104.0, 39251.09377516434, 13711.252952963467, -19511.66474958238, -22241.68446560913, -6955.728764024826, -6125.361457510168, 15599.66243501454, 5680.807612038567, 0.03, 0.93, 0.424, 192.0, 0.0, 0.0, 0.0, 0.0, 0.0, 0.0, 0.0, 0.0, 0.0, 1.654608985485323E9, 0.0, 2022-06-07 15:36:25.485
105.0, 39326.821485378925, 13719.031360033914, -19508.937836758832, -22217.63398857522, -6943.390601085496, -6075.24884644137, 15609.1842781525, 5683.020434739642, 0.03, 0.93, 0.424, 192.0, 0.0, 0.0, 0.0, 0.0, 0.0, 0.0, 0.0, 0.0, 0.0, 1.65460898554549E9, 0.0, 2022-06-07 15:36:25.545
106.0, 39249.640911774746, 13689.214132930534, -19551.897889601933, -22222.35020665529, -6983.735499827326, -6030.880633697586, 15583.166847606522, 5672.716280545746, 0.03, 0.93, 0.424, 192.0, 0.0, 0.0, 0.0, 0.0, 0.0, 0.0, 0.0, 0.0, 0.0, 1.654608985545497E9, 0.0, 2022-06-07 15:36:25.545
107.0, 39125.27580562542, 13664.090772162768, -19584.486733017773, -22247.87589882325, -7028.617802693582, -6047.465628083423, 15559.809274650726, 5665.45196359777, 0.03, 0.93, 0.424, 192.0, 0.0, 0.0, 0.0, 0.0, 0.0, 0.0, 0.0, 0.0, 0.0, 1.654608985545507E9, 0.0, 2022-06-07 15:36:25.545
108.0, 39129.05325043837, 13687.828324774306, -19556.524700704183, -22252.435654692134, -7013.843299608625, -6093.174945494527, 15561.239786295866, 5673.722109046234, 0.04, 0.93, 0.422, 192.0, 1.0, 64.0, 29.0, 16.0, 13.0, 48.0, 0.0, 0.0, 0.0, 1.65460898554551E9, 0.0, 2022-06-07 15:36:25.545
109.0, 39250.84790597533, 13723.14408101369, -19516.09039498453, -22240.96920978656, -6967.172857185943, -6115.102006805183, 15570.158132333534, 5679.868838771444, 0.04, 0.93, 0.422, 192.0, 0.0, 0.0, 0.0, 0.0, 0.0, 0.0, 0.0, 0.0, 0.0, 1.654608985545514E9, 0.0, 2022-06-07 15:36:25.545
110.0, 39332.11884881483, 13731.257764250966, -19512.84939203851, -22223.467793878055, -6945.782237742214, -6069.303282416258, 15584.284434829287, 5683.065138228552, 0.04, 0.93, 0.422, 192.0, 0.0, 0.0, 0.0, 0.0, 0.0, 0.0, 0.0, 0.0, 0.0, 1.654608985545517E9, 0.0, 2022-06-07 15:36:25.545
111.0, 39254.446536832635, 13696.120821967224, -19551.115578546, -22232.140270726715, -6978.840467791613, -6028.466645296413, 15584.79852495176, 5676.2478561696835, 0.04, 0.93, 0.422, 192.0, 0.0, 0.0, 0.0, 0.0, 0.0, 0.0, 0.0, 0.0, 0.0, 1.654608985545521E9, 0.0, 2022-06-07 15:36:25.545
112.0, 39132.5848260623, 13667.175312897602, -19577.378878280982, -22259.342343728822, -7022.180500290454, -6048.1585321615385, 15566.067763098214, 5665.653129297868, 0.04, 0.93, 0.422, 192.0, 0.0, 0.0, 0.0, 0.0, 0.0, 0.0, 0.0, 0.0, 0.0, 1.654608985545525E9, 0.0, 2022-06-07 15:36:25.545
113.0, 39126.46044808155, 13672.606786800241, -19562.470264729294, -22281.247053295025, -7018.715979899881, -6106.183660767515, 15566.917129387515, 5655.416030337337, 0.04, 0.93, 0.422, 192.0, 0.0, 0.0, 0.0, 0.0, 0.0, 0.0, 0.0, 0.0, 0.0, 1.654608985545528E9, 0.0, 2022-06-07 15:36:25.545
114.0, 39238.53209478046, 13699.920618524626, -19517.72207232977, -22249.73109361304, -6972.0455374772, -6131.776408168842, 15579.925844660504, 5666.994233965187, 0.04, 0.93, 0.422, 192.0, 0.0, 0.0, 0.0, 0.0, 0.0, 0.0, 0.0, 0.0, 0.0, 1.654608985545532E9, 0.0, 2022-06-07 15:36:25.545
115.0, 39314.34921197286, 13710.314179696345, -19509.049595481112, -22225.948837512595, -6946.273976120231, -6090.380977437613, 15577.578911492696, 5671.3751758784265, 0.04, 0.93, 0.422, 192.0, 0.0, 0.0, 0.0, 0.0, 0.0, 0.0, 0.0, 0.0, 0.0, 1.654608985545535E9, 0.0, 2022-06-07 15:36:25.545
116.0, 39249.19387688564, 13688.029490474402, -19557.038790826653, -22240.119843497258, -6982.528505626739, -6052.762991519331, 15564.547844475252, 5654.790181492589, 0.04, 0.93, 0.422, 192.0, 0.0, 0.0, 0.0, 0.0, 0.0, 0.0, 0.0, 0.0, 0.0, 1.654608985545539E9, 0.0, 2022-06-07 15:36:25.545
117.0, 39131.57899756182, 13668.516417564919, -19587.995956897255, -22267.50073045501, -7025.130930558555, -6073.080727229206, 15548.052257067235, 5643.904881942854, 0.038, 0.932, 0.422, 192.0, 1.0, 48.0, 29.0, 32.0, 13.0, 48.0, 0.0, 0.0, 0.0, 1.654608985545542E9, 0.0, 2022-06-07 15:36:25.545
118.0, 39132.383660362204, 13678.172371169612, -19557.932860604866, -22270.62997467875, -7008.210660005887, -6121.516957463856, 15586.027870896802, 5652.778524491611, 0.038, 0.932, 0.422, 192.0, 0.0, 0.0, 0.0, 0.0, 0.0, 0.0, 0.0, 0.0, 0.0, 1.654608985545546E9, 0.0, 2022-06-07 15:36:25.545
119.0, 39258.782775256965, 13721.19947924608, -19504.33337740104, -22245.26074472198, -6956.689889036405, -6139.778332683842, 15591.928731433003, 5670.682271800312, 0.038, 0.932, 0.422, 192.0, 0.0, 0.0, 0.0, 0.0, 0.0, 0.0, 0.0, 0.0, 0.0, 1.65460898554555E9, 0.0, 2022-06-07 15:36:25.545
120.0, 39333.12467731532, 13736.57747943133, -19495.795011019112, -22219.220962431547, -6938.920252194435, -6094.136070506104, 15583.949158662459, 5675.867876513944, 0.038, 0.932, 0.422, 192.0, 0.0, 0.0, 0.0, 0.0, 0.0, 0.0, 0.0, 0.0, 0.0, 1.654608985605847E9, 0.0, 2022-06-07 15:36:25.605
121.0, 39254.08890892135, 13701.932275525603, -19541.124348774476, -22226.418224146157, -6979.242799191809, -6052.807695008242, 15592.219304110922, 5667.9106554878545, 0.038, 0.932, 0.422, 192.0, 0.0, 0.0, 0.0, 0.0, 0.0, 0.0, 0.0, 0.0, 0.0, 1.654608985605861E9, 0.0, 2022-06-07 15:36:25.605
122.0, 39133.27773014042, 13680.56400782633, -19569.935747377367, -22250.51340466898, -7022.292259012731, -6061.994261979373, 15574.337908546677, 5661.138076917896, 0.038, 0.932, 0.422, 192.0, 0.0, 0.0, 0.0, 0.0, 0.0, 0.0, 0.0, 0.0, 0.0, 1.654608985605866E9, 0.0, 2022-06-07 15:36:25.605
123.0, 39142.06196571136, 13700.85939179175, -19537.39160745044, -22249.909907568683, -7006.869555338569, -6102.6297333991215, 15563.117332830112, 5669.832905511011, 0.038, 0.932, 0.422, 192.0, 0.0, 0.0, 0.0, 0.0, 0.0, 0.0, 0.0, 0.0, 0.0, 1.654608985605871E9, 0.0, 2022-06-07 15:36:25.605
124.0, 39264.14719392624, 13728.91083108316, -19491.03408945013, -22226.798203801896, -6956.891054736502, -6119.661762674065, 15582.585702250684, 5689.3906819094045, 0.038, 0.932, 0.422, 192.0, 0.0, 0.0, 0.0, 0.0, 0.0, 0.0, 0.0, 0.0, 0.0, 1.654608985605875E9, 0.0, 2022-06-07 15:36:25.605
125.0, 39339.606683207356, 13732.710627640561, -19490.09531618301, -22204.133534924214, -6935.858063204058, -6069.43739288299, 15603.842211227682, 5695.64917035689, 0.038, 0.932, 0.422, 192.0, 0.0, 0.0, 0.0, 0.0, 0.0, 0.0, 0.0, 0.0, 0.0, 1.654608985605898E9, 0.0, 2022-06-07 15:36:25.605
126.0, 39266.002388716035, 13704.547429626875, -19537.458662683806, -22214.437689118113, -6972.3137584106635, -6021.984639404373, 15595.728527990404, 5688.586019109013, 0.038, 0.932, 0.422, 192.0, 0.0, 0.0, 0.0, 0.0, 0.0, 0.0, 0.0, 0.0, 0.0, 1.654608985605903E9, 0.0, 2022-06-07 15:36:25.605
127.0, 39135.2893871414, 13676.60774905774, -19573.646136956948, -22249.86520407977, -7016.637267665537, -6036.647383767055, 15566.760667176328, 5676.5384288476025, 0.044, 0.932, 0.424, 192.0, 1.0, 96.0, 29.0, 32.0, 13.0, 64.0, 0.0, 0.0, 0.0, 1.654608985605909E9, 0.0, 2022-06-07 15:36:25.605
128.0, 39127.846256237775, 13681.94981598256, -19558.469302471793, -22257.844776850317, -7014.29033449773, -6090.090404759694, 15552.969640847403, 5670.8387340115, 0.044, 0.932, 0.424, 192.0, 0.0, 0.0, 0.0, 0.0, 0.0, 0.0, 0.0, 0.0, 0.0, 1.654608985605941E9, 0.0, 2022-06-07 15:36:25.605
129.0, 39247.51749605149, 13713.421072175632, -19512.536467616137, -22232.989637016017, -6963.99890947329, -6108.39648346859, 15578.025946381802, 5683.489821373203, 0.044, 0.932, 0.424, 192.0, 0.0, 0.0, 0.0, 0.0, 0.0, 0.0, 0.0, 0.0, 0.0, 1.654608985605944E9, 0.0, 2022-06-07 15:36:25.605
130.0, 39320.4288864647, 13725.043979292392, -19509.988368748232, -22217.00813973047, -6944.664650519449, -6068.140991704583, 15587.547789519764, 5678.639492826402, 0.044, 0.932, 0.424, 192.0, 0.0, 0.0, 0.0, 0.0, 0.0, 0.0, 0.0, 0.0, 0.0, 1.654608985605948E9, 0.0, 2022-06-07 15:36:25.605
131.0, 39248.90330420772, 13702.915752281637, -19547.874575599977, -22223.087814222316, -6972.201999688387, -6022.386970804569, 15592.107545388646, 5677.544257348091, 0.044, 0.932, 0.424, 192.0, 0.0, 0.0, 0.0, 0.0, 0.0, 0.0, 0.0, 0.0, 0.0, 1.654608985605951E9, 0.0, 2022-06-07 15:36:25.605
132.0, 39125.45461958106, 13671.288033877378, -19584.911416162424, -22258.671791395165, -7025.15328230301, -6049.186712406482, 15571.141609089567, 5662.8368094965, 0.044, 0.932, 0.424, 192.0, 0.0, 0.0, 0.0, 0.0, 0.0, 0.0, 0.0, 0.0, 0.0, 1.654608985605955E9, 0.0, 2022-06-07 15:36:25.605
133.0, 39118.57028228883, 13674.439629845576, -19565.800674653136, -22272.75339040201, -7025.019171836278, -6115.929021350029, 15546.264117510811, 5651.2362541241955, 0.044, 0.932, 0.424, 192.0, 0.0, 0.0, 0.0, 0.0, 0.0, 0.0, 0.0, 0.0, 0.0, 1.654608985605958E9, 0.0, 2022-06-07 15:36:25.605
134.0, 39238.66620524719, 13704.055691248857, -19514.168144961375, -22254.112035526283, -6974.236008433821, -6152.138847367626, 15558.89285312806, 5658.053536183064, 0.044, 0.932, 0.424, 192.0, 0.0, 0.0, 0.0, 0.0, 0.0, 0.0, 0.0, 0.0, 0.0, 1.654608985605962E9, 0.0, 2022-06-07 15:36:25.605
135.0, 39318.19371201917, 13719.791319345393, -19499.48304885424, -22223.892477022706, -6945.268147619742, -6113.336218993213, 15588.307748831243, 5669.095297943985, 0.044, 0.932, 0.424, 192.0, 0.0, 0.0, 0.0, 0.0, 0.0, 0.0, 0.0, 0.0, 0.0, 1.654608985666188E9, 0.0, 2022-06-07 15:36:25.666
136.0, 39249.37269084129, 13695.137345211191, -19535.134081260454, -22222.10433746628, -6973.677214822437, -6062.217779423926, 15594.99092042338, 5663.395603107882, 0.044, 0.932, 0.424, 192.0, 0.0, 0.0, 0.0, 0.0, 0.0, 0.0, 0.0, 0.0, 0.0, 1.654608985666194E9, 0.0, 2022-06-07 15:36:25.666
137.0, 39128.896788227175, 13676.317176379822, -19558.379895493974, -22240.96920978656, -6996.833622078136, -6067.872770771119, 15574.248501568854, 5659.260530383651, 0.038, 0.93, 0.424, 192.0, 1.0, 48.0, 29.0, 16.0, 13.0, 64.0, 0.0, 0.0, 0.0, 1.654608985666197E9, 0.0, 2022-06-07 15:36:25.666
138.0, 39124.292328869386, 13686.062536962336, -19538.039808039644, -22251.630991891743, -6996.475994166851, -6117.761864395365, 15568.280585799288, 5660.69104202879, 0.038, 0.93, 0.424, 192.0, 0.0, 0.0, 0.0, 0.0, 0.0, 0.0, 0.0, 0.0, 0.0, 1.6546089856662E9, 0.0, 2022-06-07 15:36:25.666
139.0, 39241.90720819321, 13707.363749428243, -19500.868857010468, -22244.59019238832, -6961.607272816572, -6145.522731008856, 15575.41079228053, 5665.519018831136, 0.038, 0.93, 0.424, 192.0, 0.0, 0.0, 0.0, 0.0, 0.0, 0.0, 0.0, 0.0, 0.0, 1.654608985666204E9, 0.0, 2022-06-07 15:36:25.666
140.0, 39322.68641265469, 13712.527002397419, -19492.442249350817, -22229.12278522525, -6937.020353915734, -6096.594762396188, 15624.361112637653, 5677.097222458986, 0.038, 0.93, 0.424, 192.0, 0.0, 0.0, 0.0, 0.0, 0.0, 0.0, 0.0, 0.0, 0.0, 1.654608985666207E9, 0.0, 2022-06-07 15:36:25.666
141.0, 39241.28135934846, 13671.08686817728, -19543.113654031, -22232.430843404632, -6979.6451305920045, -6056.24986365436, 15597.449612313463, 5658.791143750089, 0.038, 0.93, 0.424, 192.0, 0.0, 0.0, 0.0, 0.0, 0.0, 0.0, 0.0, 0.0, 0.0, 1.654608985666211E9, 0.0, 2022-06-07 15:36:25.666
142.0, 39121.207788134554, 13664.046068673859, -19575.031945113176, -22258.001239061505, -7023.3204392576745, -6069.102116716161, 15542.30785874222, 5646.005945921654, 0.038, 0.93, 0.424, 192.0, 0.0, 0.0, 0.0, 0.0, 0.0, 0.0, 0.0, 0.0, 0.0, 1.654608985666214E9, 0.0, 2022-06-07 15:36:25.666
143.0, 39122.50418931296, 13690.219961431023, -19548.478072700273, -22265.444369965124, -7009.484709439839, -6108.374131724136, 15551.203853035433, 5659.819323995033, 0.038, 0.93, 0.424, 192.0, 0.0, 0.0, 0.0, 0.0, 0.0, 0.0, 0.0, 0.0, 0.0, 1.654608985666218E9, 0.0, 2022-06-07 15:36:25.666
144.0, 39243.94121693864, 13719.009008289459, -19499.23717966523, -22243.472605165556, -6956.868702992047, -6126.16612031056, 15587.726603475405, 5686.999045252686, 0.038, 0.93, 0.424, 192.0, 0.0, 0.0, 0.0, 0.0, 0.0, 0.0, 0.0, 0.0, 0.0, 1.654608985666221E9, 0.0, 2022-06-07 15:36:25.666
145.0, 39320.183017275696, 13725.71453162605, -19491.816400506068, -22216.739918797008, -6932.594708513583, -6077.6851865869985, 15605.116260661634, 5689.949475520787, 0.038, 0.93, 0.424, 192.0, 0.0, 0.0, 0.0, 0.0, 0.0, 0.0, 0.0, 0.0, 0.0, 1.654608985666225E9, 0.0, 2022-06-07 15:36:25.666
146.0, 39247.271626862486, 13698.959493513048, -19534.128252759965, -22222.909000266674, -6974.034842733722, -6029.919508686007, 15591.280530843798, 5676.270207914139, 0.038, 0.93, 0.424, 192.0, 0.0, 0.0, 0.0, 0.0, 0.0, 0.0, 0.0, 0.0, 0.0, 1.654608985666228E9, 0.0, 2022-06-07 15:36:25.666
147.0, 39116.91625319913, 13668.717583265017, -19566.87355838699, -22250.289887224422, -7019.72180840037, -6045.610433293633, 15580.238769082878, 5665.608425808958, 0.034, 0.934, 0.422, 192.0, 1.0, 16.0, 29.0, 48.0, 13.0, 48.0, 0.0, 0.0, 0.0, 1.654608985666231E9, 0.0, 2022-06-07 15:36:25.666
148.0, 39114.18934037559, 13686.66603406263, -19543.270116242187, -22252.54741341441, -7010.714055384881, -6094.560753650756, 15575.32138530271, 5672.939797990299, 0.034, 0.934, 0.422, 192.0, 0.0, 0.0, 0.0, 0.0, 0.0, 0.0, 0.0, 0.0, 0.0, 1.654608985666235E9, 0.0, 2022-06-07 15:36:25.666
149.0, 39233.77117321148, 13718.114938511246, -19499.460697109782, -22231.983808515528, -6966.122325196544, -6121.159329552571, 15582.764516206327, 5683.176896950829, 0.034, 0.934, 0.422, 192.0, 0.0, 0.0, 0.0, 0.0, 0.0, 0.0, 0.0, 0.0, 0.0, 1.654608985666238E9, 0.0, 2022-06-07 15:36:25.666
150.0, 39314.55037767296, 13716.259743721455, -19499.05836570959, -22207.642758803697, -6943.591766785595, -6080.769727321831, 15599.684786758995, 5685.300312674083, 0.034, 0.934, 0.422, 192.0, 0.0, 0.0, 0.0, 0.0, 0.0, 0.0, 0.0, 0.0, 0.0, 1.654608985725576E9, 0.0, 2022-06-07 15:36:25.725
151.0, 39241.929559937664, 13680.049917703858, -19543.71715113129, -22212.470735606043, -6973.833677033625, -6029.7853982192755, 15601.271760615322, 5674.862048013455, 0.034, 0.934, 0.422, 192.0, 0.0, 0.0, 0.0, 0.0, 0.0, 0.0, 0.0, 0.0, 0.0, 1.654608985725581E9, 0.0, 2022-06-07 15:36:25.725
152.0, 39104.98042166, 13650.612670256218, -19578.809389926122, -22248.25587847899, -7024.907413114001, -6047.376221105603, 15582.496295272864, 5661.540408318092, 0.034, 0.934, 0.422, 192.0, 0.0, 0.0, 0.0, 0.0, 0.0, 0.0, 0.0, 0.0, 0.0, 1.654608985725584E9, 0.0, 2022-06-07 15:36:25.725
153.0, 39099.459540779535, 13668.963452454025, -19556.68116291537, -22249.30641046839, -7017.866613610579, -6103.322637477236, 15549.281603012278, 5658.768792005634, 0.034, 0.934, 0.422, 192.0, 0.0, 0.0, 0.0, 0.0, 0.0, 0.0, 0.0, 0.0, 0.0, 1.654608985725586E9, 0.0, 2022-06-07 15:36:25.725
154.0, 39225.56808299638, 13732.017723562447, -19506.926179757855, -22225.43474739012, -6965.6752903074375, -6129.742399423409, 15557.439989738465, 5672.001024723176, 0.034, 0.934, 0.422, 192.0, 0.0, 0.0, 0.0, 0.0, 0.0, 0.0, 0.0, 0.0, 0.0, 1.654608985725588E9, 0.0, 2022-06-07 15:36:25.725
