%OpenBCI Raw EEG Data
%Number of channels = 8
%Sample Rate = 250 Hz
%Board = OpenBCI_GUI$BoardCytonSerial
Sample Index, EXG Channel 0, EXG Channel 1, EXG Channel 2, EXG Channel 3, EXG Channel 4, EXG Channel 5, EXG Channel 6, EXG Channel 7, Accel Channel 0, Accel Channel 1, Accel Channel 2, Other, Other, Other, Other, Other, Other, Other, Analog Channel 0, Analog Channel 1, Analog Channel 2, Timestamp, Other, Timestamp (Formatted)
0.0, 0.0, 0.0, 0.0, 0.0, 0.0, 0.0, 0.0, 0.0, -0.068, 0.922, 0.41000000000000003, 192.0, 253.0, 224.0, 28.0, 208.0, 12.0, 208.0, 0.0, 0.0, 0.0, 1.654675427790198E9, 0.0, 2022-06-08 10:03:47.790
1.0, 29575.671801051118, 32623.108640087685, -21656.51579576919, -15994.438945584172, 9368.800743675321, 2301.961457963164, 37710.38802986003, 1398.123967423912, -0.068, 0.922, 0.41000000000000003, 192.0, 0.0, 0.0, 0.0, 0.0, 0.0, 0.0, 0.0, 0.0, 0.0, 1.6546754277902265E9, 0.0, 2022-06-08 10:03:47.790
2.0, 29588.412295390644, 32628.830686668243, -21629.47018497827, -16000.317454375918, 9381.317720570292, 2319.462873871669, 37683.16360511346, 1386.9704469407138, -0.068, 0.922, 0.41000000000000003, 192.0, 0.0, 0.0, 0.0, 0.0, 0.0, 0.0, 0.0, 0.0, 0.0, 1.6546754277902436E9, 0.0, 2022-06-08 10:03:47.790
3.0, 29596.302461183368, 32619.800581908297, -21615.65680690489, -15998.350500863851, 9390.727804985978, 2334.4161909122695, 37619.349374693564, 1381.0472346600575, -0.068, 0.922, 0.41000000000000003, 192.0, 0.0, 0.0, 0.0, 0.0, 0.0, 0.0, 0.0, 0.0, 0.0, 1.654675427790264E9, 0.0, 2022-06-08 10:03:47.790
4.0, 29610.71933635704, 32629.143611090614, -21610.04651904661, -15990.773259493502, 9407.133985416172, 2340.9652520376744, 37611.369801923014, 1405.1200634384231, -0.068, 0.922, 0.41000000000000003, 192.0, 0.0, 0.0, 0.0, 0.0, 0.0, 0.0, 0.0, 0.0, 0.0, 1.6546754277902915E9, 0.0, 2022-06-08 10:03:47.790
5.0, 29609.24412122299, 32640.766518207376, -21632.42061524637, -16025.440815143684, 9399.489688812459, 2328.4929786316134, 37670.110186351565, 1420.7439328126827, -0.068, 0.922, 0.41000000000000003, 192.0, 0.0, 0.0, 0.0, 0.0, 0.0, 0.0, 0.0, 0.0, 0.0, 1.654675427790308E9, 0.0, 2022-06-08 10:03:47.790
6.0, 29575.068303950826, 32608.758820147377, -21682.108543170518, -16068.758495898068, 9348.371249243171, 2282.537792031502, 37716.35594562959, 1364.8645716744152, -0.068, 0.922, 0.41000000000000003, 192.0, 0.0, 0.0, 0.0, 0.0, 0.0, 0.0, 0.0, 0.0, 0.0, 1.6546754277903264E9, 0.0, 2022-06-08 10:03:47.790
7.0, 29581.61736507623, 32612.08923007122, -21664.495368539738, -16039.8353385729, 9354.786199901844, 2296.172356149239, 37686.44931154839, 1329.615870668396, -0.068, 0.922, 0.41000000000000003, 192.0, 0.0, 0.0, 0.0, 0.0, 0.0, 0.0, 0.0, 0.0, 0.0, 1.6546754277903397E9, 0.0, 2022-06-08 10:03:47.790
8.0, 29609.959377045558, 32635.89383791612, -21614.74038538222, -15993.388413594774, 9405.636418537668, 2340.5182171485685, 37629.51941842073, 1371.123060121901, -0.07200000000000001, 0.9380000000000001, 0.39, 192.0, 253.0, 192.0, 29.0, 80.0, 12.0, 48.0, 0.0, 0.0, 0.0, 1.6546754277903576E9, 0.0, 2022-06-08 10:03:47.790
9.0, 29631.43940346711, 32656.524498048366, -21593.662690360867, -15980.312643088419, 9433.978430506997, 2363.6075691709007, 37624.69144161838, 1420.6992293237722, -0.07200000000000001, 0.9380000000000001, 0.39, 192.0, 0.0, 0.0, 0.0, 0.0, 0.0, 0.0, 0.0, 0.0, 0.0, 1.6546754277903757E9, 0.0, 2022-06-08 10:03:47.790
10.0, 29615.61436839275, 32645.102756631706, -21630.833641390043, -16058.543748681994, 9403.356540603227, 2331.957499022186, 37678.134462611015, 1403.9354209822918, -0.07200000000000001, 0.9380000000000001, 0.39, 192.0, 0.0, 0.0, 0.0, 0.0, 0.0, 0.0, 0.0, 0.0, 0.0, 1.6546754277903917E9, 0.0, 2022-06-08 10:03:47.790
11.0, 29598.828208306815, 32626.93078838954, -21650.6596387219, -16032.436911158195, 9374.813362933799, 2314.1655104357615, 37724.02259397777, 1384.0870719059792, -0.07200000000000001, 0.9380000000000001, 0.39, 192.0, 0.0, 0.0, 0.0, 0.0, 0.0, 0.0, 0.0, 0.0, 0.0, 1.6546754277904072E9, 0.0, 2022-06-08 10:03:47.790
12.0, 29611.166371246145, 32629.07655585725, -21623.23404827524, -15975.775238963992, 9391.845392208743, 2336.5172548910687, 37701.626146033545, 1391.127871409401, -0.07200000000000001, 0.9380000000000001, 0.39, 192.0, 0.0, 0.0, 0.0, 0.0, 0.0, 0.0, 0.0, 0.0, 0.0, 1.654675427790426E9, 0.0, 2022-06-08 10:03:47.790
13.0, 29627.930179587627, 32632.094041358716, -21592.768620582658, -15963.526483002483, 9417.7734157769, 2352.99049055463, 37644.60684592806, 1397.0510836900573, -0.07200000000000001, 0.9380000000000001, 0.39, 192.0, 0.0, 0.0, 0.0, 0.0, 0.0, 0.0, 0.0, 0.0, 0.0, 1.6546754277904503E9, 0.0, 2022-06-08 10:03:47.790
14.0, 29639.173107048646, 32636.586741994233, -21589.617024614457, -15971.439000539662, 9428.368142648715, 2360.500676691613, 37634.45915394535, 1421.9732787577248, -0.07200000000000001, 0.9380000000000001, 0.39, 192.0, 0.0, 0.0, 0.0, 0.0, 0.0, 0.0, 0.0, 0.0, 0.0, 1.6546754277904706E9, 0.0, 2022-06-08 10:03:47.790
15.0, 29625.695005142094, 32630.775288435852, -21627.48087972175, -16019.875230774313, 9399.467337068003, 2332.851568800398, 37684.77293071424, 1424.2308049477108, -0.07200000000000001, 0.9380000000000001, 0.39, 192.0, 0.0, 0.0, 0.0, 0.0, 0.0, 0.0, 0.0, 0.0, 0.0, 1.654675427790492E9, 0.0, 2022-06-08 10:03:47.790
16.0, 29595.698964083072, 32600.421619465546, -21674.844226222544, -16055.861539347356, 9361.670537194079, 2287.008140922563, 37739.311187185194, 1372.419461300309, -0.07200000000000001, 0.9380000000000001, 0.39, 192.0, 0.0, 0.0, 0.0, 0.0, 0.0, 0.0, 0.0, 0.0, 0.0, 1.6546754277905104E9, 0.0, 2022-06-08 10:03:47.790
17.0, 29629.56185693286, 32620.135858075126, -21633.404092002405, -16019.025864485011, 9396.315741099805, 2325.6766588302444, 37726.95067250141, 1367.2338565866778, -0.068, 0.9540000000000001, 0.378, 192.0, 253.0, 224.0, 29.0, 208.0, 11.0, 208.0, 0.0, 0.0, 0.0, 1.6546754277905316E9, 0.0, 2022-06-08 10:03:47.790
18.0, 29669.23620334103, 32642.17467810806, -21568.002887726176, -15971.461352284117, 9436.548881119357, 2363.920493593275, 37658.35316876807, 1391.932534209792, -0.068, 0.9540000000000001, 0.378, 192.0, 0.0, 0.0, 0.0, 0.0, 0.0, 0.0, 0.0, 0.0, 0.0, 1.654675427790559E9, 0.0, 2022-06-08 10:03:47.790
19.0, 29677.662811000686, 32644.588666509233, -21575.781294796623, -15983.620701267804, 9442.852073055754, 2369.37431924037, 37642.572837182626, 1433.5067788966633, -0.068, 0.9540000000000001, 0.378, 192.0, 0.0, 0.0, 0.0, 0.0, 0.0, 0.0, 0.0, 0.0, 0.0, 1.6546754277905793E9, 0.0, 2022-06-08 10:03:47.790
20.0, 29633.696929657097, 32608.200026535993, -21640.37783627246, -16056.532091681016, 9390.213714863505, 2325.1849204522277, 37702.16258790047, 1413.9937059871802, -0.068, 0.9540000000000001, 0.378, 192.0, 0.0, 0.0, 0.0, 0.0, 0.0, 0.0, 0.0, 0.0, 0.0, 1.654675427790601E9, 0.0, 2022-06-08 10:03:47.790
21.0, 29603.700888598072, 32576.751122087375, -21675.090095411553, -16013.236762671086, 9350.38290624415, 2296.753501505077, 37753.929228058965, 1371.7042054777392, -0.068, 0.9540000000000001, 0.378, 192.0, 0.0, 0.0, 0.0, 0.0, 0.0, 0.0, 0.0, 0.0, 0.0, 1.6546754277906182E9, 0.0, 2022-06-08 10:03:47.790
22.0, 29629.114822043757, 32598.365258975657, -21636.28746703714, -16005.659521300737, 9375.461563523002, 2324.5590716074794, 37732.49390512633, 1355.968577381203, -0.068, 0.9540000000000001, 0.378, 192.0, 0.0, 0.0, 0.0, 0.0, 0.0, 0.0, 0.0, 0.0, 0.0, 1.6546754277906802E9, 0.0, 2022-06-08 10:03:47.790
23.0, 29673.81831095437, 32640.051262384804, -21576.7424198082, -15945.019238593488, 9430.96094500553, 2376.795098399532, 37670.55722124067, 1389.965580697725, -0.068, 0.9540000000000001, 0.378, 192.0, 0.0, 0.0, 0.0, 0.0, 0.0, 0.0, 0.0, 0.0, 0.0, 1.6546754277907052E9, 0.0, 2022-06-08 10:03:47.790
24.0, 29677.774569722962, 32646.77913746585, -21580.341050665505, -15955.390448020751, 9438.940517776075, 2381.2654472905933, 37658.64374144599, 1436.6360231204062, -0.068, 0.9540000000000001, 0.378, 192.0, 0.0, 0.0, 0.0, 0.0, 0.0, 0.0, 0.0, 0.0, 0.0, 1.6546754277907257E9, 0.0, 2022-06-08 10:03:47.790
25.0, 29658.864993913772, 32639.134840862138, -21612.28169349214, -15991.35440484934, 9410.553802317834, 2351.1576475092947, 37712.042058949715, 1435.9431190422915, -0.068, 0.9540000000000001, 0.378, 192.0, 0.0, 0.0, 0.0, 0.0, 0.0, 0.0, 0.0, 0.0, 0.0, 1.654675427790748E9, 0.0, 2022-06-08 10:03:47.790
26.0, 29634.032205823925, 32616.760744662377, -21645.13875784144, -16053.738123624102, 9380.177781603072, 2317.630030826334, 37766.915591587494, 1402.6837232927946, -0.068, 0.9540000000000001, 0.378, 192.0, 0.0, 0.0, 0.0, 0.0, 0.0, 0.0, 0.0, 0.0, 0.0, 1.6546754277907624E9, 0.0, 2022-06-08 10:03:47.790
27.0, 29648.67259844215, 32624.6509104551, -21620.976522085253, -16027.184251211198, 9394.728767243478, 2336.9642897801746, 37749.81650707919, 1387.6633510188283, -0.064, 0.9560000000000001, 0.368, 192.0, 254.0, 0.0, 29.0, 224.0, 11.0, 128.0, 0.0, 0.0, 0.0, 1.6546754277907743E9, 0.0, 2022-06-08 10:03:47.790
28.0, 29680.16620637968, 32657.93265794905, -21576.11657096345, -15950.785988662958, 9434.760741562932, 2375.6104559434007, 37683.78945395821, 1403.1754616708115, -0.064, 0.9560000000000001, 0.368, 192.0, 0.0, 0.0, 0.0, 0.0, 0.0, 0.0, 0.0, 0.0, 0.0, 1.654675427790798E9, 0.0, 2022-06-08 10:03:47.790
29.0, 29673.371276065267, 32658.580858538255, -21589.21469321426, -15959.950203889633, 9431.475035128002, 2370.5366099520456, 37667.15975608346, 1417.2347089331997, -0.064, 0.9560000000000001, 0.368, 192.0, 0.0, 0.0, 0.0, 0.0, 0.0, 0.0, 0.0, 0.0, 0.0, 1.6546754277908096E9, 0.0, 2022-06-08 10:03:47.790
30.0, 29643.419938495153, 32639.291303073325, -21636.868612392977, -16001.971483465612, 9391.711281742011, 2323.1956151957056, 37718.88169275304, 1399.6662377913283, -0.064, 0.9560000000000001, 0.368, 192.0, 0.0, 0.0, 0.0, 0.0, 0.0, 0.0, 0.0, 0.0, 0.0, 1.6546754277908213E9, 0.0, 2022-06-08 10:03:47.790
31.0, 29621.559932417862, 32624.136820332627, -21665.680010995868, -16022.959771509144, 9360.575301715768, 2293.6913125147003, 37768.50256544382, 1372.4865165336748, -0.064, 0.9560000000000001, 0.368, 192.0, 0.0, 0.0, 0.0, 0.0, 0.0, 0.0, 0.0, 0.0, 0.0, 1.6546754277908332E9, 0.0, 2022-06-08 10:03:47.790
32.0, 29648.426729253144, 32637.436108283535, -21622.98817908623, -15988.426326325694, 9393.410014320614, 2328.023591998052, 37757.37139670508, 1379.8402404594708, -0.064, 0.9560000000000001, 0.368, 192.0, 0.0, 0.0, 0.0, 0.0, 0.0, 0.0, 0.0, 0.0, 0.0, 1.6546754277908452E9, 0.0, 2022-06-08 10:03:47.790
33.0, 29681.57436628036, 32655.4069108256, -21576.56360585256, -15960.352535289829, 9434.760741562932, 2367.3850139838473, 37695.81469247516, 1398.615705801929, -0.064, 0.9560000000000001, 0.368, 192.0, 0.0, 0.0, 0.0, 0.0, 0.0, 0.0, 0.0, 0.0, 0.0, 1.6546754277908568E9, 0.0, 2022-06-08 10:03:47.790
34.0, 29689.57629079536, 32656.21157362599, -21580.27399543214, -15958.899671900235, 9447.903567302654, 2372.1682872972833, 37679.00618064478, 1428.5670433720402, -0.064, 0.9560000000000001, 0.368, 192.0, 0.0, 0.0, 0.0, 0.0, 0.0, 0.0, 0.0, 0.0, 0.0, 1.6546754277908683E9, 0.0, 2022-06-08 10:03:47.790
35.0, 29682.49078780303, 32647.673207244065, -21611.432327202838, -15971.886035428768, 9429.552785104846, 2347.0002230406076, 37726.034250978744, 1438.222996976733, -0.064, 0.9560000000000001, 0.368, 192.0, 0.0, 0.0, 0.0, 0.0, 0.0, 0.0, 0.0, 0.0, 0.0, 1.654675427790882E9, 0.0, 2022-06-08 10:03:47.790
36.0, 29644.984560607027, 32617.185427807028, -21639.28260079415, -16031.140509979787, 9380.535409514358, 2296.5970392938902, 37776.437434725456, 1395.3299993669987, -0.064, 0.9560000000000001, 0.368, 192.0, 0.0, 0.0, 0.0, 0.0, 0.0, 0.0, 0.0, 0.0, 0.0, 1.6546754277909007E9, 0.0, 2022-06-08 10:03:47.790
37.0, 29647.778528663937, 32616.40311675109, -21629.13490881144, -16034.850899559367, 9385.385738061159, 2309.2257749111386, 37758.80190835022, 1360.6400919723621, -0.062, 0.9540000000000001, 0.364, 192.0, 254.0, 16.0, 29.0, 208.0, 11.0, 96.0, 0.0, 0.0, 0.0, 1.6546754277909207E9, 0.0, 2022-06-08 10:03:47.790
38.0, 29678.221604612067, 32634.93271290454, -21592.925082793845, -15992.762564750024, 9422.646096068156, 2347.3578509518925, 37692.08195115113, 1370.2066385992337, -0.062, 0.9540000000000001, 0.364, 192.0, 0.0, 0.0, 0.0, 0.0, 0.0, 0.0, 0.0, 0.0, 0.0, 1.6546754277909417E9, 0.0, 2022-06-08 10:03:47.790
39.0, 29691.25267162951, 32642.621712997166, -21586.443076901804, -15986.817000724914, 9443.455570156048, 2359.919531335775, 37683.40947430247, 1416.385342643898, -0.062, 0.9540000000000001, 0.364, 192.0, 0.0, 0.0, 0.0, 0.0, 0.0, 0.0, 0.0, 0.0, 0.0, 1.6546754277909777E9, 0.0, 2022-06-08 10:03:47.790
40.0, 29662.553031748896, 32624.092116843716, -21636.28746703714, -16053.313440479451, 9405.681122026577, 2329.632917598834, 37741.412251163994, 1413.7254850537165, -0.062, 0.9540000000000001, 0.364, 192.0, 0.0, 0.0, 0.0, 0.0, 0.0, 0.0, 0.0, 0.0, 0.0, 1.6546754277910154E9, 0.0, 2022-06-08 10:03:47.791
41.0, 29628.176048776633, 32596.621822908146, -21683.82962749358, -16083.80121991649, 9358.496589481425, 2288.3268938454266, 37791.01077211032, 1379.6390747593732, -0.062, 0.9540000000000001, 0.364, 192.0, 0.0, 0.0, 0.0, 0.0, 0.0, 0.0, 0.0, 0.0, 0.0, 1.6546754277910368E9, 0.0, 2022-06-08 10:03:47.791
42.0, 29615.748478859485, 32577.35461918767, -21679.001650691232, -15993.567227550415, 9342.112760795684, 2282.180164120217, 37774.202260279926, 1343.7868766530605, -0.062, 0.9540000000000001, 0.364, 192.0, 0.0, 0.0, 0.0, 0.0, 0.0, 0.0, 0.0, 0.0, 0.0, 1.6546754277910564E9, 0.0, 2022-06-08 10:03:47.791
43.0, 29665.39170329472, 32621.02992785334, -21607.23019924524, -15960.508997501016, 9400.316703357305, 2344.340365450426, 37709.829236248646, 1365.2221995857, -0.062, 0.9540000000000001, 0.364, 192.0, 0.0, 0.0, 0.0, 0.0, 0.0, 0.0, 0.0, 0.0, 0.0, 1.6546754277910864E9, 0.0, 2022-06-08 10:03:47.791
44.0, 29690.62682278476, 32647.874372944163, -21580.83278904352, -15945.421569993685, 9434.87250028521, 2379.432604245258, 37687.566898771154, 1416.2288804327109, -0.062, 0.9540000000000001, 0.364, 192.0, 0.0, 0.0, 0.0, 0.0, 0.0, 0.0, 0.0, 0.0, 0.0, 1.6546754277911046E9, 0.0, 2022-06-08 10:03:47.791
45.0, 29669.63853474123, 32635.73737570493, -21620.216562773774, -15987.576960036393, 9406.28461912687, 2357.282025490049, 37739.445297651924, 1447.7224883702384, -0.062, 0.9540000000000001, 0.364, 192.0, 0.0, 0.0, 0.0, 0.0, 0.0, 0.0, 0.0, 0.0, 0.0, 1.654675427791126E9, 0.0, 2022-06-08 10:03:47.791
46.0, 29648.449080997598, 32620.471134241958, -21651.28548756665, -16072.893568622301, 9376.176819345572, 2323.530891362535, 37800.89024315956, 1402.035522703591, -0.062, 0.9540000000000001, 0.364, 192.0, 0.0, 0.0, 0.0, 0.0, 0.0, 0.0, 0.0, 0.0, 0.0, 1.654675427791148E9, 0.0, 2022-06-08 10:03:47.791
47.0, 29646.996217608004, 32613.050355082796, -21638.880269393954, -16020.769300552523, 9377.71908971299, 2327.6212605978562, 37784.394655751545, 1366.160972852823, -0.06, 0.9500000000000001, 0.364, 192.0, 254.0, 32.0, 29.0, 176.0, 11.0, 96.0, 0.0, 0.0, 0.0, 1.6546754277911644E9, 0.0, 2022-06-08 10:03:47.791
48.0, 29681.17203488017, 32632.40696578109, -21588.07475424704, -15922.511031926995, 9421.506157100936, 2373.7552611536103, 37719.84281776462, 1416.1171217104343, -0.06, 0.9500000000000001, 0.364, 192.0, 0.0, 0.0, 0.0, 0.0, 0.0, 0.0, 0.0, 0.0, 0.0, 1.654675427791186E9, 0.0, 2022-06-08 10:03:47.791
49.0, 29699.723982778072, 32641.772346707865, -21578.731725064725, -15938.336067001352, 9435.520700874413, 2389.0885578499506, 37701.82731173364, 1442.447476678786, -0.06, 0.9500000000000001, 0.364, 192.0, 0.0, 0.0, 0.0, 0.0, 0.0, 0.0, 0.0, 0.0, 0.0, 1.6546754277912066E9, 0.0, 2022-06-08 10:03:47.791
50.0, 29668.565651007375, 32622.013404609374, -21630.94540011232, -15992.315529860918, 9392.605351520224, 2345.525007906557, 37748.36364368959, 1424.9684125147357, -0.06, 0.9500000000000001, 0.364, 192.0, 0.0, 0.0, 0.0, 0.0, 0.0, 0.0, 0.0, 0.0, 0.0, 1.6546754277912242E9, 0.0, 2022-06-08 10:03:47.791
51.0, 29652.897078144204, 32609.429372481034, -21652.537185256147, -16014.108480704843, 9369.560702986802, 2326.8613012863757, 37797.98451638038, 1386.6575225183396, -0.06, 0.9500000000000001, 0.364, 192.0, 0.0, 0.0, 0.0, 0.0, 0.0, 0.0, 0.0, 0.0, 0.0, 1.6546754277912376E9, 0.0, 2022-06-08 10:03:47.791
52.0, 29663.514156760473, 32616.872503384653, -21629.850164634012, -15990.795611237958, 9383.95522641602, 2342.686336360733, 37786.294554030246, 1358.896655904848, -0.06, 0.9500000000000001, 0.364, 192.0, 0.0, 0.0, 0.0, 0.0, 0.0, 0.0, 0.0, 0.0, 0.0, 1.6546754277912543E9, 0.0, 2022-06-08 10:03:47.791
53.0, 29677.573404022864, 32623.667433699065, -21604.860914332978, -15963.571186491394, 9407.804537749833, 2369.7095954071997, 37726.28012016775, 1396.4699383342193, -0.06, 0.9500000000000001, 0.364, 192.0, 0.0, 0.0, 0.0, 0.0, 0.0, 0.0, 0.0, 0.0, 0.0, 1.6546754277912703E9, 0.0, 2022-06-08 10:03:47.791
54.0, 29696.103000176314, 32635.64796872711, -21598.89299856341, -15969.11441911631, 9436.213604952527, 2387.0321973600626, 37708.01874494776, 1440.4358196778082, -0.06, 0.9500000000000001, 0.364, 192.0, 0.0, 0.0, 0.0, 0.0, 0.0, 0.0, 0.0, 0.0, 0.0, 1.6546754277912855E9, 0.0, 2022-06-08 10:03:47.791
55.0, 29679.674468001664, 32629.54594249081, -21619.635417417936, -16015.516640605527, 9409.995008706452, 2359.4054412133028, 37758.600742650124, 1429.7963893170822, -0.06, 0.9500000000000001, 0.364, 192.0, 0.0, 0.0, 0.0, 0.0, 0.0, 0.0, 0.0, 0.0, 0.0, 1.6546754277913005E9, 0.0, 2022-06-08 10:03:47.791
56.0, 29656.763929934972, 32609.317613758758, -21647.37393228697, -16035.8343763154, 9371.013566376396, 2321.5192343615577, 37810.56854850871, 1385.2717143621105, -0.06, 0.9500000000000001, 0.364, 192.0, 0.0, 0.0, 0.0, 0.0, 0.0, 0.0, 0.0, 0.0, 0.0, 1.654675427791319E9, 0.0, 2022-06-08 10:03:47.791
57.0, 29664.408226538686, 32605.942500346006, -21632.264153035183, -15968.019183638, 9372.466429765991, 2326.79424605301, 37794.0729611007, 1363.8810949183817, -0.064, 0.9520000000000001, 0.366, 192.0, 254.0, 0.0, 29.0, 192.0, 11.0, 112.0, 0.0, 0.0, 0.0, 1.6546754277913337E9, 0.0, 2022-06-08 10:03:47.791
58.0, 29700.48394208955, 32627.534285489834, -21585.861931545965, -15958.653802711226, 9409.279752883882, 2365.2839500050486, 37721.38508813204, 1375.9286851797922, -0.064, 0.9520000000000001, 0.366, 192.0, 0.0, 0.0, 0.0, 0.0, 0.0, 0.0, 0.0, 0.0, 0.0, 1.6546754277913485E9, 0.0, 2022-06-08 10:03:47.791
59.0, 29699.54516882243, 32625.723794188954, -21587.8959402914, -15965.44873302564, 9421.327343145293, 2369.351967495915, 37697.33461109813, 1397.967505212725, -0.064, 0.9520000000000001, 0.366, 192.0, 0.0, 0.0, 0.0, 0.0, 0.0, 0.0, 0.0, 0.0, 0.0, 1.6546754277913668E9, 0.0, 2022-06-08 10:03:47.791
60.0, 29688.30224136141, 32622.88512264313, -21611.61114115848, -15984.715936746114, 9403.960037703519, 2352.6552143878002, 37749.861210568095, 1410.9762204857136, -0.064, 0.9520000000000001, 0.366, 192.0, 0.0, 0.0, 0.0, 0.0, 0.0, 0.0, 0.0, 0.0, 0.0, 1.6546754277913852E9, 0.0, 2022-06-08 10:03:47.791
61.0, 29665.861089928283, 32612.06687832676, -21644.848185163522, -16019.69641681867, 9376.176819345572, 2313.7855307800214, 37804.19830133895, 1386.4787085626972, -0.064, 0.9520000000000001, 0.366, 192.0, 0.0, 0.0, 0.0, 0.0, 0.0, 0.0, 0.0, 0.0, 0.0, 1.6546754277914004E9, 0.0, 2022-06-08 10:03:47.791
62.0, 29677.5063487895, 32619.44295399701, -21620.216562773774, -16004.027843955499, 9387.911485184608, 2326.727190819644, 37794.69880994545, 1362.8752664178928, -0.064, 0.9520000000000001, 0.366, 192.0, 0.0, 0.0, 0.0, 0.0, 0.0, 0.0, 0.0, 0.0, 0.0, 1.6546754277914147E9, 0.0, 2022-06-08 10:03:47.791
63.0, 29721.963968511103, 32654.289323602836, -21561.900861489878, -15950.048381095932, 9436.995916008464, 2375.7222146656773, 37730.12462021406, 1391.1949266427669, -0.064, 0.9520000000000001, 0.366, 192.0, 0.0, 0.0, 0.0, 0.0, 0.0, 0.0, 0.0, 0.0, 0.0, 1.654675427791438E9, 0.0, 2022-06-08 10:03:47.791
64.0, 29724.824991801383, 32655.742186992433, -21564.761884780157, -15943.767540903991, 9444.506102145446, 2375.632807687856, 37707.3481926141, 1408.1151971954343, -0.064, 0.9520000000000001, 0.366, 192.0, 0.0, 0.0, 0.0, 0.0, 0.0, 0.0, 0.0, 0.0, 0.0, 1.6546754277914648E9, 0.0, 2022-06-08 10:03:47.791
65.0, 29717.627730086773, 32656.32333234827, -21592.14277173791, -15971.371945306295, 9424.925974002597, 2366.7144616501882, 37754.42096643698, 1414.7536652986605, -0.064, 0.9520000000000001, 0.366, 192.0, 0.0, 0.0, 0.0, 0.0, 0.0, 0.0, 0.0, 0.0, 0.0, 1.6546754277914784E9, 0.0, 2022-06-08 10:03:47.791
66.0, 29685.73179074905, 32628.98714887943, -21628.57611520006, -16021.55161160846, 9383.731708971467, 2334.46089440118, 37810.81441769772, 1389.809118486538, -0.064, 0.9520000000000001, 0.366, 192.0, 0.0, 0.0, 0.0, 0.0, 0.0, 0.0, 0.0, 0.0, 0.0, 1.6546754277914968E9, 0.0, 2022-06-08 10:03:47.791
67.0, 29677.618107511775, 32613.25152078289, -21621.75883314119, -16004.676044544703, 9377.584979246258, 2331.3540019218926, 37802.47721701589, 1358.2484553156444, -0.064, 0.9540000000000001, 0.366, 192.0, 254.0, 0.0, 29.0, 208.0, 11.0, 112.0, 0.0, 0.0, 0.0, 1.6546754277915125E9, 0.0, 2022-06-08 10:03:47.791
68.0, 29708.0611834599, 32632.83164892574, -21578.642318086902, -15976.490494786562, 9416.208793665028, 2366.1556680388057, 37742.663948853486, 1363.0540803735353, -0.064, 0.9540000000000001, 0.366, 192.0, 0.0, 0.0, 0.0, 0.0, 0.0, 0.0, 0.0, 0.0, 0.0, 1.6546754277915304E9, 0.0, 2022-06-08 10:03:47.791
69.0, 29718.432392887164, 32644.70042523151, -21573.724934306734, -16010.018111469522, 9431.810311294832, 2374.4034617428138, 37717.04884970771, 1387.2163161297221, -0.064, 0.9540000000000001, 0.366, 192.0, 0.0, 0.0, 0.0, 0.0, 0.0, 0.0, 0.0, 0.0, 0.0, 1.6546754277915487E9, 0.0, 2022-06-08 10:03:47.791
70.0, 29680.613241268784, 32618.41477375207, -21627.123251810463, -16015.874268516813, 9385.564552016802, 2333.119789733862, 37766.24503925384, 1386.6575225183396, -0.064, 0.9540000000000001, 0.366, 192.0, 0.0, 0.0, 0.0, 0.0, 0.0, 0.0, 0.0, 0.0, 0.0, 1.6546754277915685E9, 0.0, 2022-06-08 10:03:47.791
71.0, 29636.58030469183, 32578.87453781063, -21682.689688526356, -16063.237615017608, 9329.193452500516, 2280.3473210748816, 37825.499513804854, 1344.7032981757282, -0.064, 0.9540000000000001, 0.366, 192.0, 0.0, 0.0, 0.0, 0.0, 0.0, 0.0, 0.0, 0.0, 0.0, 1.654675427791586E9, 0.0, 2022-06-08 10:03:47.791
72.0, 29643.799918150893, 32577.4887296544, -21659.935612670855, -16014.89079176078, 9332.18858625753, 2300.1956701511945, 37813.273109587804, 1325.3466874774322, -0.064, 0.9540000000000001, 0.366, 192.0, 0.0, 0.0, 0.0, 0.0, 0.0, 0.0, 0.0, 0.0, 0.0, 1.654675427791608E9, 0.0, 2022-06-08 10:03:47.791
73.0, 29695.946537965126, 32610.88223587063, -21596.65782411788, -15971.818980195401, 9391.063081152806, 2367.206200028205, 37741.211085463896, 1359.8130774275157, -0.064, 0.9540000000000001, 0.366, 192.0, 0.0, 0.0, 0.0, 0.0, 0.0, 0.0, 0.0, 0.0, 0.0, 1.654675427791623E9, 0.0, 2022-06-08 10:03:47.791
74.0, 29723.282721433967, 32631.64700646961, -21581.65980358837, -15964.174683591687, 9426.20002343655, 2392.0613398625064, 37707.638765292024, 1402.2590401481439, -0.064, 0.9540000000000001, 0.366, 192.0, 0.0, 0.0, 0.0, 0.0, 0.0, 0.0, 0.0, 0.0, 0.0, 1.6546754277916386E9, 0.0, 2022-06-08 10:03:47.791
75.0, 29693.376087352764, 32608.445895725003, -21608.526600423647, -16005.011320711534, 9394.281732354371, 2331.1975397107053, 37762.62405665208, 1395.195888900267, -0.064, 0.9540000000000001, 0.366, 192.0, 0.0, 0.0, 0.0, 0.0, 0.0, 0.0, 0.0, 0.0, 0.0, 1.6546754277916555E9, 0.0, 2022-06-08 10:03:47.791
76.0, 29669.81734869687, 32585.98239254742, -21641.204850817307, -16020.434024385695, 9356.060249335796, 2301.8720509853424, 37824.51603704882, 1346.6031964544293, -0.064, 0.9540000000000001, 0.366, 192.0, 0.0, 0.0, 0.0, 0.0, 0.0, 0.0, 0.0, 0.0, 0.0, 1.654675427791669E9, 0.0, 2022-06-08 10:03:47.791
77.0, 29674.086531887835, 32575.410017420058, -21631.43713849034, -16031.207565213153, 9355.412048746592, 2316.691257559211, 37813.138999121074, 1312.1368065043457, -0.064, 0.964, 0.364, 192.0, 254.0, 0.0, 30.0, 32.0, 11.0, 96.0, 0.0, 0.0, 0.0, 1.6546754277916813E9, 0.0, 2022-06-08 10:03:47.791
78.0, 29722.29924467793, 32611.88806437112, -21573.389658139906, -15973.763581963014, 9404.608238292723, 2378.3597205114033, 37742.395727920026, 1345.8879406318595, -0.064, 0.964, 0.364, 192.0, 0.0, 0.0, 0.0, 0.0, 0.0, 0.0, 0.0, 0.0, 0.0, 1.654675427791705E9, 0.0, 2022-06-08 10:03:47.791
79.0, 29728.31186393641, 32612.26804402686, -21574.194320940296, -15956.619793965792, 9415.180613420083, 2379.209086800705, 37719.97692823135, 1379.6837782482837, -0.064, 0.964, 0.364, 192.0, 0.0, 0.0, 0.0, 0.0, 0.0, 0.0, 0.0, 0.0, 0.0, 1.6546754277917168E9, 0.0, 2022-06-08 10:03:47.791
80.0, 29708.35175613782, 32597.11356128616, -21609.018338801663, -15995.824753740402, 9400.80844173532, 2347.0672782739734, 37771.81062362321, 1401.320266881021, -0.064, 0.964, 0.364, 192.0, 0.0, 0.0, 0.0, 0.0, 0.0, 0.0, 0.0, 0.0, 0.0, 1.6546754277917287E9, 0.0, 2022-06-08 10:03:47.791
81.0, 29701.512122334498, 32597.180616519527, -21624.61985643147, -16021.037521485989, 9382.368252559692, 2333.790342067521, 37828.76286849533, 1391.41844408732, -0.064, 0.964, 0.364, 192.0, 0.0, 0.0, 0.0, 0.0, 0.0, 0.0, 0.0, 0.0, 0.0, 1.654675427791741E9, 0.0, 2022-06-08 10:03:47.791
82.0, 29708.709384049107, 32595.951270574486, -21605.643225388914, -15985.453544313139, 9388.023243906886, 2344.362717194881, 37816.04472590026, 1359.9918913831582, -0.064, 0.964, 0.364, 192.0, 0.0, 0.0, 0.0, 0.0, 0.0, 0.0, 0.0, 0.0, 0.0, 1.6546754277917528E9, 0.0, 2022-06-08 10:03:47.791
83.0, 29724.31090167891, 32601.203930521482, -21576.787123297112, -15965.560491747916, 9415.739407031466, 2363.7193278931773, 37753.4598414254, 1347.3408040214545, -0.064, 0.964, 0.364, 192.0, 0.0, 0.0, 0.0, 0.0, 0.0, 0.0, 0.0, 0.0, 0.0, 1.6546754277917645E9, 0.0, 2022-06-08 10:03:47.791
84.0, 29727.328387180376, 32600.06399155426, -21572.98732673971, -15997.456431085639, 9427.071741470307, 2373.2858745200488, 37734.57261736067, 1368.12792636489, -0.064, 0.964, 0.364, 192.0, 0.0, 0.0, 0.0, 0.0, 0.0, 0.0, 0.0, 0.0, 0.0, 1.654675427791776E9, 0.0, 2022-06-08 10:03:47.791
85.0, 29708.75408753802, 32591.950308316984, -21607.856048089987, -15981.519637289006, 9397.030996922374, 2340.3170514484705, 37786.38396100807, 1359.4330977717755, -0.064, 0.964, 0.364, 192.0, 0.0, 0.0, 0.0, 0.0, 0.0, 0.0, 0.0, 0.0, 0.0, 1.6546754277917957E9, 0.0, 2022-06-08 10:03:47.791
86.0, 29699.276947888968, 32588.038753037305, -21631.548897212615, -16018.89175401828, 9369.42659252007, 2313.8749377578424, 37843.53737158029, 1332.029859069569, -0.064, 0.964, 0.364, 192.0, 0.0, 0.0, 0.0, 0.0, 0.0, 0.0, 0.0, 0.0, 0.0, 1.6546754277918165E9, 0.0, 2022-06-08 10:03:47.791
87.0, 29707.837666015348, 32580.796787833788, -21614.31570223757, -16020.545783107971, 9368.532522741858, 2332.337478677926, 37832.24974063036, 1352.034670357069, -0.064, 0.96, 0.364, 192.0, 254.0, 0.0, 30.0, 0.0, 11.0, 96.0, 0.0, 0.0, 0.0, 1.6546754277918282E9, 0.0, 2022-06-08 10:03:47.791
88.0, 29757.257373006032, 32622.706308687488, -21545.44997757077, -15960.866625412302, 9430.111578716229, 2402.8348806899644, 37760.32182697318, 1400.0685691915237, -0.064, 0.96, 0.364, 192.0, 0.0, 0.0, 0.0, 0.0, 0.0, 0.0, 0.0, 0.0, 0.0, 1.6546754277918396E9, 0.0, 2022-06-08 10:03:47.791
89.0, 29753.54698342645, 32617.006613851383, -21558.88337598841, -15962.855930668824, 9427.094093214762, 2394.6764939637774, 37732.15862895949, 1392.7819004990936, -0.064, 0.96, 0.364, 192.0, 0.0, 0.0, 0.0, 0.0, 0.0, 0.0, 0.0, 0.0, 0.0, 1.6546754277918608E9, 0.0, 2022-06-08 10:03:47.791
90.0, 29721.628692344275, 32590.720962371943, -21606.89492307841, -15987.688718758669, 9393.722938742989, 2357.1702667677723, 37789.60261220964, 1384.6682172618173, -0.064, 0.96, 0.364, 192.0, 0.0, 0.0, 0.0, 0.0, 0.0, 0.0, 0.0, 0.0, 0.0, 1.6546754277918725E9, 0.0, 2022-06-08 10:03:47.791
91.0, 29688.570462294872, 32562.31189516925, -21645.362275285992, -16031.945172780177, 9350.315851010782, 2320.0887227164176, 37856.903714764565, 1361.869437917404, -0.064, 0.96, 0.364, 192.0, 0.0, 0.0, 0.0, 0.0, 0.0, 0.0, 0.0, 0.0, 0.0, 1.6546754277918832E9, 0.0, 2022-06-08 10:03:47.791
92.0, 29706.20598867011, 32569.39739816158, -21622.787013386132, -16023.093881975876, 9364.688022695545, 2335.466722901669, 37853.08156646271, 1343.9433388642478, -0.064, 0.96, 0.364, 192.0, 0.0, 0.0, 0.0, 0.0, 0.0, 0.0, 0.0, 0.0, 0.0, 1.6546754277918942E9, 0.0, 2022-06-08 10:03:47.791
93.0, 29738.92894255268, 32589.82689259373, -21585.16902746785, -15964.666421969703, 9406.083453426774, 2379.9243426232747, 37791.390751766055, 1358.1814000822783, -0.064, 0.96, 0.364, 192.0, 0.0, 0.0, 0.0, 0.0, 0.0, 0.0, 0.0, 0.0, 0.0, 1.6546754277919052E9, 0.0, 2022-06-08 10:03:47.791
94.0, 29765.236945776578, 32616.470171984456, -21541.65018101337, -15961.581881234872, 9438.135854975684, 2407.5734505144897, 37764.412196208505, 1391.5525545540518, -0.064, 0.96, 0.364, 192.0, 0.0, 0.0, 0.0, 0.0, 0.0, 0.0, 0.0, 0.0, 0.0, 1.654675427791916E9, 0.0, 2022-06-08 10:03:47.791
95.0, 29745.79092810046, 32607.954157346983, -21579.78225705412, -16049.580699155415, 9405.971694704496, 2374.269351276082, 37807.5734147517, 1392.3125138655323, -0.064, 0.96, 0.364, 192.0, 0.0, 0.0, 0.0, 0.0, 0.0, 0.0, 0.0, 0.0, 0.0, 1.654675427791927E9, 0.0, 2022-06-08 10:03:47.791
96.0, 29695.141875164736, 32561.26136317985, -21643.66354270739, -16025.17259421022, 9347.208958531495, 2309.8739755003426, 37863.27396193433, 1342.3116615190104, -0.064, 0.96, 0.364, 192.0, 0.0, 0.0, 0.0, 0.0, 0.0, 0.0, 0.0, 0.0, 0.0, 1.6546754277919412E9, 0.0, 2022-06-08 10:03:47.791
97.0, 29707.390631126244, 32562.803633547264, -21616.394414471917, -16029.128852978809, 9358.27307203687, 2334.7514670790993, 37859.51886886584, 1321.2786699865665, -0.06, 0.9520000000000001, 0.368, 192.0, 254.0, 32.0, 29.0, 192.0, 11.0, 128.0, 0.0, 0.0, 0.0, 1.6546754277919548E9, 0.0, 2022-06-08 10:03:47.791
98.0, 29766.734512655083, 32608.200026535993, -21534.40821580985, -15901.9027235392, 9431.609145594733, 2404.824185946487, 37795.101141345636, 1367.904408920337, -0.06, 0.9520000000000001, 0.368, 192.0, 0.0, 0.0, 0.0, 0.0, 0.0, 0.0, 0.0, 0.0, 0.0, 1.654675427791978E9, 0.0, 2022-06-08 10:03:47.791
99.0, 29758.531422439984, 32594.45370369598, -21546.858137471456, -15925.43911045064, 9430.469206627513, 2392.6201334738894, 37770.33540848916, 1392.938362710281, -0.06, 0.9520000000000001, 0.368, 192.0, 0.0, 0.0, 0.0, 0.0, 0.0, 0.0, 0.0, 0.0, 0.0, 1.65467542779202E9, 0.0, 2022-06-08 10:03:47.792
100.0, 29732.826916316382, 32572.705456340966, -21590.75696358168, -15981.027898910988, 9404.027092936885, 2352.476400432158, 37818.27990034579, 1381.5836765269848, -0.06, 0.9520000000000001, 0.368, 192.0, 0.0, 0.0, 0.0, 0.0, 0.0, 0.0, 0.0, 0.0, 0.0, 1.6546754277920368E9, 0.0, 2022-06-08 10:03:47.792
101.0, 29706.63067181476, 32550.10784269665, -21629.42548148936, -16027.452472144661, 9369.136019842152, 2315.372504636348, 37882.22824123243, 1355.610949469918, -0.06, 0.9520000000000001, 0.368, 192.0, 0.0, 0.0, 0.0, 0.0, 0.0, 0.0, 0.0, 0.0, 0.0, 1.6546754277920477E9, 0.0, 2022-06-08 10:03:47.792
102.0, 29702.96498572409, 32540.451889091957, -21624.552801198104, -16024.792614554479, 9359.502417981914, 2319.6863913162224, 37875.34390394019, 1336.2766905160775, -0.06, 0.9520000000000001, 0.368, 192.0, 0.0, 0.0, 0.0, 0.0, 0.0, 0.0, 0.0, 0.0, 0.0, 1.6546754277920704E9, 0.0, 2022-06-08 10:03:47.792
103.0, 29738.012521030014, 32561.618991091134, -21575.446018629795, -15979.30681458793, 9403.177726647584, 2366.5132959500907, 37805.96408915092, 1343.3174900194992, -0.06, 0.9520000000000001, 0.368, 192.0, 0.0, 0.0, 0.0, 0.0, 0.0, 0.0, 0.0, 0.0, 0.0, 1.654675427792081E9, 0.0, 2022-06-08 10:03:47.792
104.0, 29761.660666663727, 32575.29825869778, -21546.724027004722, -15951.121264829788, 9442.33798293328, 2397.8057381875205, 37779.00788533782, 1382.0977666494568, -0.06, 0.9520000000000001, 0.368, 192.0, 0.0, 0.0, 0.0, 0.0, 0.0, 0.0, 0.0, 0.0, 0.0, 1.6546754277920918E9, 0.0, 2022-06-08 10:03:47.792
105.0, 29748.294323479455, 32567.050464993772, -21570.841559272, -15978.792724465458, 9432.123235717207, 2366.692109905733, 37829.65693827355, 1400.0238657026132, -0.06, 0.9520000000000001, 0.368, 192.0, 0.0, 0.0, 0.0, 0.0, 0.0, 0.0, 0.0, 0.0, 0.0, 1.654675427792102E9, 0.0, 2022-06-08 10:03:47.792
106.0, 29719.505276621017, 32540.876572236608, -21612.728728381244, -16021.193983697176, 9394.594656776746, 2328.7835513095324, 37893.64998264909, 1375.548705524052, -0.058, 0.9560000000000001, 0.364, 192.0, 254.0, 48.0, 29.0, 224.0, 11.0, 96.0, 0.0, 0.0, 0.0, 1.6546754277921126E9, 0.0, 2022-06-08 10:03:47.792
107.0, 29704.730773536063, 32516.6249295026, -21619.724824395755, -16037.644867616282, 9374.500438511424, 2315.7971877809987, 37889.09022678021, 1329.7276293906725, -0.058, 0.9560000000000001, 0.364, 192.0, 0.0, 0.0, 0.0, 0.0, 0.0, 0.0, 0.0, 0.0, 0.0, 1.654675427792127E9, 0.0, 2022-06-08 10:03:47.792
108.0, 29744.98626530007, 32539.133136169094, -21560.336239378004, -15969.784971449968, 9423.741331546466, 2363.8087348709983, 37820.29155734677, 1352.4593535017198, -0.058, 0.9560000000000001, 0.364, 192.0, 0.0, 0.0, 0.0, 0.0, 0.0, 0.0, 0.0, 0.0, 0.0, 1.6546754277921376E9, 0.0, 2022-06-08 10:03:47.792
109.0, 29752.49645143705, 32545.01164496084, -21554.435378841805, -15955.502206743027, 9441.578023621802, 2372.369452997381, 37793.33535353367, 1386.1657841403228, -0.058, 0.9560000000000001, 0.364, 192.0, 0.0, 0.0, 0.0, 0.0, 0.0, 0.0, 0.0, 0.0, 0.0, 1.654675427792148E9, 0.0, 2022-06-08 10:03:47.792
110.0, 29719.862904532303, 32518.211903358926, -21616.863801105475, -16003.379643366296, 9399.467337068003, 2338.014821769574, 37837.23417964389, 1369.357272309932, -0.058, 0.9560000000000001, 0.364, 192.0, 0.0, 0.0, 0.0, 0.0, 0.0, 0.0, 0.0, 0.0, 0.0, 1.6546754277921584E9, 0.0, 2022-06-08 10:03:47.792
111.0, 29700.193369411634, 32498.363554282616, -21637.919144382377, -16062.343545239395, 9367.191418074539, 2308.2646498995605, 37901.54014844181, 1342.1775510522784, -0.058, 0.9560000000000001, 0.364, 192.0, 0.0, 0.0, 0.0, 0.0, 0.0, 0.0, 0.0, 0.0, 0.0, 1.6546754277921689E9, 0.0, 2022-06-08 10:03:47.792
112.0, 29708.374107882275, 32500.24110081686, -21610.113574279974, -16068.870254620346, 9377.026185634873, 2326.347211163904, 37900.42256121905, 1332.1416177918456, -0.058, 0.9560000000000001, 0.364, 192.0, 0.0, 0.0, 0.0, 0.0, 0.0, 0.0, 0.0, 0.0, 0.0, 1.654675427792181E9, 0.0, 2022-06-08 10:03:47.792
113.0, 29750.01540780251, 32527.44317381897, -21554.16715790834, -15934.737436144047, 9422.132005945685, 2381.9359996242524, 37841.0786796902, 1355.3650802809098, -0.058, 0.9560000000000001, 0.364, 192.0, 0.0, 0.0, 0.0, 0.0, 0.0, 0.0, 0.0, 0.0, 0.0, 1.6546754277921915E9, 0.0, 2022-06-08 10:03:47.792
114.0, 29764.119358553813, 32530.572418042713, -21544.131224647906, -15951.858872396813, 9443.857901556243, 2392.508374751613, 37815.41887705551, 1376.4204235578088, -0.058, 0.9560000000000001, 0.364, 192.0, 0.0, 0.0, 0.0, 0.0, 0.0, 0.0, 0.0, 0.0, 0.0, 1.654675427792202E9, 0.0, 2022-06-08 10:03:47.792
115.0, 29733.720986094595, 32500.91165315052, -21589.952300781286, -15998.506963075039, 9405.792880748855, 2352.074069031962, 37856.32256940872, 1373.0006066561468, -0.058, 0.9560000000000001, 0.364, 192.0, 0.0, 0.0, 0.0, 0.0, 0.0, 0.0, 0.0, 0.0, 0.0, 1.6546754277922137E9, 0.0, 2022-06-08 10:03:47.792
116.0, 29693.331383863853, 32472.167309780994, -21646.546917742126, -16093.211304332175, 9350.584071944246, 2307.795263265999, 37916.73933467142, 1353.5769407244852, -0.062, 0.9500000000000001, 0.37, 192.0, 254.0, 16.0, 29.0, 176.0, 11.0, 144.0, 0.0, 0.0, 0.0, 1.654675427792224E9, 0.0, 2022-06-08 10:03:47.792
117.0, 29686.469398316076, 32454.129452005564, -21646.681028208855, -16067.730315653125, 9337.41889446007, 2299.6145247953564, 37913.61009044768, 1316.741265862139, -0.062, 0.9500000000000001, 0.37, 192.0, 0.0, 0.0, 0.0, 0.0, 0.0, 0.0, 0.0, 0.0, 0.0, 1.6546754277922344E9, 0.0, 2022-06-08 10:03:47.792
118.0, 29728.557733125417, 32483.298478519737, -21583.17972221133, -15957.558567232916, 9392.00185441993, 2356.5444179230235, 37853.059214718254, 1340.4564667292198, -0.062, 0.9500000000000001, 0.37, 192.0, 0.0, 0.0, 0.0, 0.0, 0.0, 0.0, 0.0, 0.0, 0.0, 1.654675427792245E9, 0.0, 2022-06-08 10:03:47.792
119.0, 29761.258335263534, 32514.121534123606, -21553.92128871933, -15941.86764262529, 9429.038694982373, 2389.0885578499506, 37814.10012413265, 1382.7012637497503, -0.062, 0.9500000000000001, 0.37, 192.0, 0.0, 0.0, 0.0, 0.0, 0.0, 0.0, 0.0, 0.0, 0.0, 1.6546754277922552E9, 0.0, 2022-06-08 10:03:47.792
120.0, 29746.461480434118, 32499.794065927756, -21592.70156534929, -15982.816038467414, 9404.071796425796, 2353.9292638217526, 37849.75115653886, 1386.836336473982, -0.062, 0.9500000000000001, 0.37, 192.0, 0.0, 0.0, 0.0, 0.0, 0.0, 0.0, 0.0, 0.0, 0.0, 1.654675428271532E9, 0.0, 2022-06-08 10:03:48.271
121.0, 29710.296357905434, 32468.836899857153, -21640.37783627246, -16033.107463491853, 9357.691926681033, 2305.6941992872003, 37916.962852115976, 1357.2649785596107, -0.062, 0.9500000000000001, 0.37, 192.0, 0.0, 0.0, 0.0, 0.0, 0.0, 0.0, 0.0, 0.0, 0.0, 1.6546754282717357E9, 0.0, 2022-06-08 10:03:48.271
122.0, 29717.001881242024, 32468.121644034585, -21621.37885348545, -16022.69155057568, 9365.04565060683, 2322.2568419285826, 37922.617843463166, 1337.7966091390383, -0.062, 0.9500000000000001, 0.37, 192.0, 0.0, 0.0, 0.0, 0.0, 0.0, 0.0, 0.0, 0.0, 0.0, 1.6546754282717488E9, 0.0, 2022-06-08 10:03:48.271
123.0, 29750.909477580724, 32488.618193700102, -21571.64622207239, -15970.053192383433, 9412.543107574356, 2371.2518657746155, 37858.580095598714, 1347.0949348324461, -0.062, 0.9500000000000001, 0.37, 192.0, 0.0, 0.0, 0.0, 0.0, 0.0, 0.0, 0.0, 0.0, 0.0, 1.6546754282717617E9, 0.0, 2022-06-08 10:03:48.271
124.0, 29774.13294006979, 32507.01367938682, -21546.88048921591, -15948.662572939704, 9449.11056150324, 2398.1857178432606, 37817.22936835639, 1377.0686241470128, -0.062, 0.9500000000000001, 0.37, 192.0, 0.0, 0.0, 0.0, 0.0, 0.0, 0.0, 0.0, 0.0, 0.0, 1.6546754282717752E9, 0.0, 2022-06-08 10:03:48.271
125.0, 29751.423567703197, 32488.439379744457, -21585.16902746785, -15996.383547351785, 9424.702456558045, 2370.7377756521437, 37855.47320311942, 1397.7439877681718, -0.062, 0.9500000000000001, 0.37, 192.0, 0.0, 0.0, 0.0, 0.0, 0.0, 0.0, 0.0, 0.0, 0.0, 1.6546754282717874E9, 0.0, 2022-06-08 10:03:48.271
126.0, 29723.215666200602, 32463.09250153214, -21620.060100562587, -16043.769245597035, 9390.996025919441, 2335.399667668303, 37920.56148297328, 1384.4670515617195, -0.056, 0.9520000000000001, 0.372, 192.0, 254.0, 64.0, 29.0, 192.0, 11.0, 160.0, 0.0, 0.0, 0.0, 1.6546754282717996E9, 0.0, 2022-06-08 10:03:48.271
127.0, 29720.242884188043, 32453.034216527252, -21619.300141251104, -16039.053027516966, 9383.195267104538, 2335.533778135035, 37920.874407395655, 1357.063812859513, -0.056, 0.9520000000000001, 0.372, 192.0, 0.0, 0.0, 0.0, 0.0, 0.0, 0.0, 0.0, 0.0, 0.0, 1.654675428271812E9, 0.0, 2022-06-08 10:03:48.271
128.0, 29735.2185529731, 32454.867059572585, -21601.61991138696, -15965.44873302564, 9401.635456280168, 2357.952577823708, 37853.99798798537, 1338.3106992615103, -0.056, 0.9520000000000001, 0.372, 192.0, 0.0, 0.0, 0.0, 0.0, 0.0, 0.0, 0.0, 0.0, 0.0, 1.654675428271876E9, 0.0, 2022-06-08 10:03:48.271
129.0, 29766.801567888448, 32480.459806973915, -21547.327524105018, -15955.613965465303, 9449.557596392346, 2394.698845708233, 37826.10301090515, 1380.5331445375855, -0.056, 0.9520000000000001, 0.372, 192.0, 0.0, 0.0, 0.0, 0.0, 0.0, 0.0, 0.0, 0.0, 0.0, 1.6546754282719336E9, 0.0, 2022-06-08 10:03:48.271
130.0, 29742.907553065725, 32463.874812588074, -21588.253568202683, -15999.870419486811, 9421.439101867569, 2352.342289965426, 37872.48288064991, 1391.2396301316776, -0.056, 0.9520000000000001, 0.372, 192.0, 0.0, 0.0, 0.0, 0.0, 0.0, 0.0, 0.0, 0.0, 0.0, 1.6546754282719913E9, 0.0, 2022-06-08 10:03:48.271
131.0, 29705.64719505873, 32428.357890648593, -21644.445853763325, -16058.007306815065, 9371.550008243325, 2302.1402719188063, 37936.29711106981, 1354.64982445834, -0.056, 0.9520000000000001, 0.372, 192.0, 0.0, 0.0, 0.0, 0.0, 0.0, 0.0, 0.0, 0.0, 0.0, 1.6546754282720037E9, 0.0, 2022-06-08 10:03:48.272
132.0, 29706.02717471447, 32423.50756210179, -21627.45852797729, -16050.117141022343, 9373.71812745549, 2317.4288651262364, 37935.00070989141, 1333.1027428034238, -0.056, 0.9520000000000001, 0.372, 192.0, 0.0, 0.0, 0.0, 0.0, 0.0, 0.0, 0.0, 0.0, 0.0, 1.6546754282720158E9, 0.0, 2022-06-08 10:03:48.272
133.0, 29751.31180898092, 32456.811661340198, -21562.772579523633, -15965.471084770095, 9426.468244370013, 2380.438432745747, 37861.57522935572, 1356.259150059122, -0.056, 0.9520000000000001, 0.372, 192.0, 0.0, 0.0, 0.0, 0.0, 0.0, 0.0, 0.0, 0.0, 0.0, 1.6546754282720492E9, 0.0, 2022-06-08 10:03:48.272
134.0, 29747.959047312626, 32443.84764955612, -21564.113684190954, -15953.155273575221, 9434.179596207094, 2384.1264705808726, 37826.840618472175, 1368.709071720728, -0.056, 0.9520000000000001, 0.372, 192.0, 0.0, 0.0, 0.0, 0.0, 0.0, 0.0, 0.0, 0.0, 0.0, 1.6546754282721093E9, 0.0, 2022-06-08 10:03:48.272
135.0, 29716.912474264205, 32415.036250953228, -21613.04165280362, -16008.587599824383, 9398.282694611871, 2352.9010835768086, 37872.66169460556, 1356.0579843590242, -0.056, 0.9520000000000001, 0.372, 192.0, 0.0, 0.0, 0.0, 0.0, 0.0, 0.0, 0.0, 0.0, 0.0, 1.6546754282721696E9, 0.0, 2022-06-08 10:03:48.272
136.0, 29696.147703665225, 32402.049887424695, -21643.641190962935, -16034.9850100261, 9372.66759546609, 2328.7164960761665, 37939.71692797148, 1353.3981267688428, -0.056, 0.9520000000000001, 0.376, 192.0, 254.0, 64.0, 29.0, 192.0, 11.0, 192.0, 0.0, 0.0, 0.0, 1.654675428272209E9, 0.0, 2022-06-08 10:03:48.272
137.0, 29688.078723916857, 32387.253032595283, -21644.021170618675, -16040.997629284577, 9356.75315341391, 2312.1538534347837, 37941.95210241701, 1311.9132890597928, -0.056, 0.9520000000000001, 0.376, 192.0, 0.0, 0.0, 0.0, 0.0, 0.0, 0.0, 0.0, 0.0, 0.0, 1.6546754282722268E9, 0.0, 2022-06-08 10:03:48.272
138.0, 29719.192352198646, 32399.70295425689, -21598.69183286331, -16010.778070781002, 9386.503325283924, 2353.6386911438335, 37873.756930083866, 1301.6314866103514, -0.056, 0.9520000000000001, 0.376, 192.0, 0.0, 0.0, 0.0, 0.0, 0.0, 0.0, 0.0, 0.0, 0.0, 1.6546754282722516E9, 0.0, 2022-06-08 10:03:48.272
139.0, 29763.292344008965, 32433.297626173215, -21559.01748645514, -15969.315584816408, 9428.39049439317, 2409.9650871712074, 37828.87462721761, 1367.7702984536052, -0.056, 0.9520000000000001, 0.376, 192.0, 0.0, 0.0, 0.0, 0.0, 0.0, 0.0, 0.0, 0.0, 0.0, 1.6546754282722683E9, 0.0, 2022-06-08 10:03:48.272
140.0, 29747.60141940134, 32419.394841122015, -21602.312815465073, -16028.972390767622, 9397.165107389106, 2357.3490807234148, 37856.79195604229, 1363.322301306999, -0.056, 0.9520000000000001, 0.376, 192.0, 0.0, 0.0, 0.0, 0.0, 0.0, 0.0, 0.0, 0.0, 0.0, 1.6546754282722802E9, 0.0, 2022-06-08 10:03:48.272
141.0, 29720.89108477725, 32407.5484165607, -21627.771452399666, -16072.088905821909, 9371.192380332039, 2331.4210571552585, 37917.11931432716, 1348.9054261333258, -0.056, 0.9520000000000001, 0.376, 192.0, 0.0, 0.0, 0.0, 0.0, 0.0, 0.0, 0.0, 0.0, 0.0, 1.654675428272292E9, 0.0, 2022-06-08 10:03:48.272
142.0, 29709.91637824969, 32393.80209372069, -21612.259341747686, -15969.15912260522, 9371.997043132431, 2347.7154788631774, 37933.100811612705, 1353.0181471131025, -0.056, 0.9520000000000001, 0.376, 192.0, 0.0, 0.0, 0.0, 0.0, 0.0, 0.0, 0.0, 0.0, 0.0, 1.654675428272304E9, 0.0, 2022-06-08 10:03:48.272
143.0, 29737.341968696353, 32416.466762598367, -21572.719105806245, -15965.49343651455, 9397.43332832257, 2382.427738002269, 37874.29337195079, 1362.7635076956162, -0.056, 0.9520000000000001, 0.376, 192.0, 0.0, 0.0, 0.0, 0.0, 0.0, 0.0, 0.0, 0.0, 0.0, 1.6546754282723155E9, 0.0, 2022-06-08 10:03:48.272
144.0, 29773.28357378049, 32447.781556580256, -21542.723064747224, -15939.833633879858, 9429.731599060487, 2414.949526184741, 37829.16519989553, 1386.3445980959652, -0.056, 0.9520000000000001, 0.376, 192.0, 0.0, 0.0, 0.0, 0.0, 0.0, 0.0, 0.0, 0.0, 0.0, 1.6546754282723272E9, 0.0, 2022-06-08 10:03:48.272
145.0, 29758.978457329093, 32441.634826855046, -21580.117533220953, -15955.099875342832, 9410.062063939818, 2399.9962091441407, 37867.29727593628, 1394.6370952888842, -0.056, 0.9520000000000001, 0.376, 192.0, 0.0, 0.0, 0.0, 0.0, 0.0, 0.0, 0.0, 0.0, 0.0, 1.6546754282723389E9, 0.0, 2022-06-08 10:03:48.272
146.0, 29732.022253515992, 32418.545474832714, -21631.548897212615, -16008.565248079927, 9371.259435565406, 2348.7436591081214, 37933.5031430129, 1356.482667503675, -0.056, 0.9460000000000001, 0.378, 192.0, 254.0, 64.0, 29.0, 144.0, 11.0, 208.0, 0.0, 0.0, 0.0, 1.6546754282723503E9, 0.0, 2022-06-08 10:03:48.272
147.0, 29718.74531730954, 32405.670870026457, -21617.310835994584, -16019.249381929563, 9356.261415035893, 2327.733019320133, 37940.92392217206, 1313.9025943163151, -0.056, 0.9460000000000001, 0.378, 192.0, 0.0, 0.0, 0.0, 0.0, 0.0, 0.0, 0.0, 0.0, 0.0, 1.6546754282723622E9, 0.0, 2022-06-08 10:03:48.272
148.0, 29741.700558865137, 32419.32778588865, -21584.721992578747, -15985.677061757693, 9377.272054823883, 2369.083746562451, 37874.47218590644, 1323.7597136211054, -0.056, 0.9460000000000001, 0.378, 192.0, 0.0, 0.0, 0.0, 0.0, 0.0, 0.0, 0.0, 0.0, 0.0, 1.6546754282723737E9, 0.0, 2022-06-08 10:03:48.272
149.0, 29782.403085518254, 32457.191640995938, -21543.84065196999, -15952.440017752651, 9426.24472692546, 2421.05155242104, 37827.332356850195, 1362.9199699068035, -0.056, 0.9460000000000001, 0.378, 192.0, 0.0, 0.0, 0.0, 0.0, 0.0, 0.0, 0.0, 0.0, 0.0, 1.6546754282723851E9, 0.0, 2022-06-08 10:03:48.272
150.0, 29775.295230781467, 32459.449167185925, -21569.612213326956, -15973.808285451923, 9413.280715141382, 2403.907764423819, 37859.429461888016, 1383.2153538722223, -0.056, 0.9460000000000001, 0.378, 192.0, 0.0, 0.0, 0.0, 0.0, 0.0, 0.0, 0.0, 0.0, 0.0, 1.654675428272401E9, 0.0, 2022-06-08 10:03:48.272
151.0, 29731.150535482233, 32425.094535958116, -21626.22918203225, -16011.292160903475, 9362.385793016649, 2344.98856603963, 37933.79371569082, 1351.0064901121248, -0.056, 0.9460000000000001, 0.378, 192.0, 0.0, 0.0, 0.0, 0.0, 0.0, 0.0, 0.0, 0.0, 0.0, 1.6546754282724133E9, 0.0, 2022-06-08 10:03:48.272
152.0, 29731.55286688243, 32416.6008730651, -21616.57322842756, -15986.884055958279, 9363.168104072583, 2349.816542841976, 37951.22807636596, 1323.3350304764547, -0.056, 0.9460000000000001, 0.378, 192.0, 0.0, 0.0, 0.0, 0.0, 0.0, 0.0, 0.0, 0.0, 0.0, 1.6546754282724247E9, 0.0, 2022-06-08 10:03:48.272
153.0, 29767.762692900025, 32443.244152455827, -21566.348858636484, -15967.59450049335, 9401.322531857793, 2388.9320956387637, 37894.722866382945, 1335.6955451602394, -0.056, 0.9460000000000001, 0.378, 192.0, 0.0, 0.0, 0.0, 0.0, 0.0, 0.0, 0.0, 0.0, 0.0, 1.654675428272436E9, 0.0, 2022-06-08 10:03:48.272
154.0, 29796.730553714104, 32466.33350447816, -21534.989361165688, -15955.59161372085, 9438.58288986479, 2417.8105494750203, 37860.189421199495, 1371.9500746667475, -0.056, 0.9460000000000001, 0.378, 192.0, 0.0, 0.0, 0.0, 0.0, 0.0, 0.0, 0.0, 0.0, 0.0, 1.6546754282724476E9, 0.0, 2022-06-08 10:03:48.272
155.0, 29784.638259963784, 32454.17415549447, -21563.197262668284, -15972.802456951435, 9422.400226879148, 2396.017598631096, 37896.55570942828, 1382.8577259609374, -0.056, 0.9460000000000001, 0.378, 192.0, 0.0, 0.0, 0.0, 0.0, 0.0, 0.0, 0.0, 0.0, 0.0, 1.6546754282724593E9, 0.0, 2022-06-08 10:03:48.272
156.0, 29757.525593939496, 32436.98566400834, -21604.391527699416, -16024.725559321114, 9378.166124602094, 2363.2275895151606, 37958.201820636015, 1353.8228099134935, -0.058, 0.9500000000000001, 0.38, 192.0, 254.0, 48.0, 29.0, 176.0, 11.0, 224.0, 0.0, 0.0, 0.0, 1.654675428272471E9, 0.0, 2022-06-08 10:03:48.272
157.0, 29755.625695660794, 32429.542533104723, -21601.75402185369, -16005.614817811826, 9365.447982007025, 2359.4501447022135, 37965.28732362835, 1327.7606758786055, -0.058, 0.9500000000000001, 0.38, 192.0, 0.0, 0.0, 0.0, 0.0, 0.0, 0.0, 0.0, 0.0, 0.0, 1.6546754282724824E9, 0.0, 2022-06-08 10:03:48.272
158.0, 29789.04155362148, 32457.683379373957, -21547.93102120531, -15909.569371887372, 9407.536316816368, 2405.852366191431, 37898.142683284605, 1347.0949348324461, -0.058, 0.9500000000000001, 0.38, 192.0, 0.0, 0.0, 0.0, 0.0, 0.0, 0.0, 0.0, 0.0, 0.0, 1.654675428272494E9, 0.0, 2022-06-08 10:03:48.272
159.0, 29799.524521771018, 32467.98753356785, -21536.26341059964, -15917.370130702273, 9429.597488593756, 2417.1176453969056, 37855.33909265269, 1363.7022809627392, -0.058, 0.9500000000000001, 0.38, 192.0, 0.0, 0.0, 0.0, 0.0, 0.0, 0.0, 0.0, 0.0, 0.0, 1.6546754282725055E9, 0.0, 2022-06-08 10:03:48.272
160.0, 29773.28357378049, 32445.32286469017, -21582.911501277864, -15972.690698229158, 9394.505249798924, 2372.950598353219, 37891.97360181494, 1351.74409767915, -0.058, 0.9500000000000001, 0.38, 192.0, 0.0, 0.0, 0.0, 0.0, 0.0, 0.0, 0.0, 0.0, 0.0, 1.6546754282725172E9, 0.0, 2022-06-08 10:03:48.272
161.0, 29762.644143419762, 32441.210143710396, -21608.973635312752, -15997.858762485834, 9369.292482053337, 2351.425868442758, 37948.99290192043, 1335.7626003936055, -0.058, 0.9500000000000001, 0.38, 192.0, 0.0, 0.0, 0.0, 0.0, 0.0, 0.0, 0.0, 0.0, 0.0, 1.6546754282725284E9, 0.0, 2022-06-08 10:03:48.272
162.0, 29766.600402188353, 32446.440451912935, -21601.41874568686, -15991.197942638153, 9371.728822198966, 2358.913702835286, 37958.42533808057, 1320.5410624195413, -0.058, 0.9500000000000001, 0.38, 192.0, 0.0, 0.0, 0.0, 0.0, 0.0, 0.0, 0.0, 0.0, 0.0, 1.6546754282725403E9, 0.0, 2022-06-08 10:03:48.272
163.0, 29775.719913926117, 32445.99341702383, -21591.382812426426, -15981.58669252237, 9380.334243814259, 2372.9953018421297, 37897.42742746203, 1304.3807511783543, -0.058, 0.9500000000000001, 0.38, 192.0, 0.0, 0.0, 0.0, 0.0, 0.0, 0.0, 0.0, 0.0, 0.0, 1.6546754282725515E9, 0.0, 2022-06-08 10:03:48.272
164.0, 29792.595480989872, 32455.984646795354, -21553.608364296957, -15952.149445074732, 9400.786089990866, 2393.111871851906, 37848.47710710491, 1323.5585479210076, -0.058, 0.9500000000000001, 0.38, 192.0, 0.0, 0.0, 0.0, 0.0, 0.0, 0.0, 0.0, 0.0, 0.0, 1.6546754282725632E9, 0.0, 2022-06-08 10:03:48.272
165.0, 29768.813224889425, 32440.00314950981, -21583.202073955785, -15961.894805657246, 9385.139868872151, 2367.8096971284986, 37884.77634010033, 1337.4389812277534, -0.058, 0.9500000000000001, 0.38, 192.0, 0.0, 0.0, 0.0, 0.0, 0.0, 0.0, 0.0, 0.0, 0.0, 1.654675428272575E9, 0.0, 2022-06-08 10:03:48.272
166.0, 29742.862849576813, 32428.33553890414, -21627.7043971663, -16007.402957368251, 9351.61225218919, 2325.2072721966833, 37950.646931010124, 1307.3311814464548, -0.06, 0.9440000000000001, 0.382, 192.0, 254.0, 32.0, 29.0, 128.0, 11.0, 240.0, 0.0, 0.0, 0.0, 1.6546754282725863E9, 0.0, 2022-06-08 10:03:48.272
167.0, 29728.289512191954, 32413.89631198601, -21636.9580193708, -16021.9315912642, 9330.802778101299, 2316.0654087144626, 37962.828631738266, 1280.6208468223629, -0.06, 0.9440000000000001, 0.382, 192.0, 0.0, 0.0, 0.0, 0.0, 0.0, 0.0, 0.0, 0.0, 0.0, 1.654675428272598E9, 0.0, 2022-06-08 10:03:48.272
168.0, 29757.324428239397, 32434.817544796177, -21586.152504223886, -15979.552683776938, 9372.779354188366, 2360.7465458806214, 37903.99884033189, 1290.388559149332, -0.06, 0.9440000000000001, 0.382, 192.0, 0.0, 0.0, 0.0, 0.0, 0.0, 0.0, 0.0, 0.0, 0.0, 1.6546754282726092E9, 0.0, 2022-06-08 10:03:48.272
169.0, 29794.40597229075, 32466.80289111172, -21545.87466071542, -15938.850157123825, 9414.711226786521, 2399.1468428548387, 37853.618008329635, 1321.2786699865665, -0.06, 0.9440000000000001, 0.382, 192.0, 0.0, 0.0, 0.0, 0.0, 0.0, 0.0, 0.0, 0.0, 0.0, 1.654675428272621E9, 0.0, 2022-06-08 10:03:48.272
170.0, 29793.489550768085, 32475.09538830464, -21565.052457458074, -15996.517657818516, 9410.017360450907, 2391.1225665953834, 37883.614049388656, 1350.3806412673762, -0.06, 0.9440000000000001, 0.382, 192.0, 0.0, 0.0, 0.0, 0.0, 0.0, 0.0, 0.0, 0.0, 0.0, 1.6546754282726328E9, 0.0, 2022-06-08 10:03:48.272
171.0, 29761.07952130789, 32452.542478149237, -21608.99598705721, -16026.334884921896, 9370.074793109274, 2347.89429281882, 37951.38453857715, 1335.8296556269713, -0.06, 0.9440000000000001, 0.382, 192.0, 0.0, 0.0, 0.0, 0.0, 0.0, 0.0, 0.0, 0.0, 0.0, 1.6546754282726495E9, 0.0, 2022-06-08 10:03:48.272
172.0, 29774.982306359092, 32457.99630379633, -21584.409068156372, -15945.443921738139, 9376.355633301215, 2365.37335698287, 37964.61677129469, 1321.1445595198345, -0.06, 0.9440000000000001, 0.382, 192.0, 0.0, 0.0, 0.0, 0.0, 0.0, 0.0, 0.0, 0.0, 0.0, 1.6546754282726607E9, 0.0, 2022-06-08 10:03:48.272
173.0, 29817.361213846354, 32487.679420432978, -21524.707558716247, -15889.00576698849, 9420.969715234009, 2412.356723827925, 37895.88515709462, 1319.1552542633121, -0.06, 0.9440000000000001, 0.382, 192.0, 0.0, 0.0, 0.0, 0.0, 0.0, 0.0, 0.0, 0.0, 0.0, 1.6546754282726722E9, 0.0, 2022-06-08 10:03:48.272
174.0, 29838.48361235662, 32501.135170595073, -21506.535590474083, -15885.273025664454, 9444.48375040099, 2432.428590348791, 37843.35855762465, 1347.9219493772923, -0.06, 0.9440000000000001, 0.382, 192.0, 0.0, 0.0, 0.0, 0.0, 0.0, 0.0, 0.0, 0.0, 0.0, 1.654675428272684E9, 0.0, 2022-06-08 10:03:48.272
175.0, 29818.210580135656, 32486.89710937704, -21540.80081472407, -15920.38761620374, 9430.111578716229, 2407.1264156253833, 37898.88029085163, 1394.8159092445267, -0.06, 0.9440000000000001, 0.382, 192.0, 0.0, 0.0, 0.0, 0.0, 0.0, 0.0, 0.0, 0.0, 0.0, 1.6546754282726953E9, 0.0, 2022-06-08 10:03:48.272
176.0, 29769.93081211219, 32447.22276296887, -21602.335167209527, -15982.033727411477, 9376.46739202349, 2347.2237404851608, 37980.486509857954, 1366.9656356532141, -0.064, 0.9440000000000001, 0.378, 192.0, 254.0, 0.0, 29.0, 128.0, 11.0, 208.0, 0.0, 0.0, 0.0, 1.6546754282727084E9, 0.0, 2022-06-08 10:03:48.272
177.0, 29748.897820579747, 32423.79813477971, -21619.411899973384, -16002.105593932343, 9343.945603841019, 2326.1683972082615, 37994.79162630935, 1303.196108722223, -0.064, 0.9440000000000001, 0.378, 192.0, 0.0, 0.0, 0.0, 0.0, 0.0, 0.0, 0.0, 0.0, 0.0, 1.6546754282727199E9, 0.0, 2022-06-08 10:03:48.272
178.0, 29777.17277731571, 32445.725196090367, -21572.517940106147, -15952.574128219383, 9377.38381354616, 2378.3597205114033, 37934.151343602105, 1295.5965156074185, -0.064, 0.9440000000000001, 0.378, 192.0, 0.0, 0.0, 0.0, 0.0, 0.0, 0.0, 0.0, 0.0, 0.0, 1.6546754282727318E9, 0.0, 2022-06-08 10:03:48.272
179.0, 29815.729536501116, 32479.67749591798, -21528.44030004028, -15899.555790371394, 9423.808386779832, 2422.3256018549923, 37882.31764821025, 1332.2533765141222, -0.064, 0.9440000000000001, 0.378, 192.0, 0.0, 0.0, 0.0, 0.0, 0.0, 0.0, 0.0, 0.0, 0.0, 1.6546754282727432E9, 0.0, 2022-06-08 10:03:48.272
180.0, 29796.283518825, 32463.494832932334, -21571.35564939447, -15933.86571811029, 9401.277828368882, 2388.261543305104, 37911.48667472442, 1332.3427834919435, -0.064, 0.9440000000000001, 0.378, 192.0, 0.0, 0.0, 0.0, 0.0, 0.0, 0.0, 0.0, 0.0, 0.0, 1.6546754282727547E9, 0.0, 2022-06-08 10:03:48.272
181.0, 29761.817128874914, 32435.71161457439, -21627.57028669957, -15997.657596785737, 9359.010679603896, 2345.569711395468, 37982.14053894765, 1319.9599170637032, -0.064, 0.9440000000000001, 0.378, 192.0, 0.0, 0.0, 0.0, 0.0, 0.0, 0.0, 0.0, 0.0, 0.0, 1.6546754282727664E9, 0.0, 2022-06-08 10:03:48.272
182.0, 29757.190317772667, 32430.458954627393, -21602.67044337636, -15997.724652019102, 9348.41595273208, 2342.306356704993, 38002.726495590985, 1294.0095417510918, -0.064, 0.9440000000000001, 0.378, 192.0, 0.0, 0.0, 0.0, 0.0, 0.0, 0.0, 0.0, 0.0, 0.0, 1.6546754282727778E9, 0.0, 2022-06-08 10:03:48.272
183.0, 29793.24368157908, 32456.990475295843, -21549.02625668362, -15918.822994091868, 9388.00089216243, 2390.1614415838053, 37944.567256518276, 1299.4410156537315, -0.064, 0.9440000000000001, 0.378, 192.0, 0.0, 0.0, 0.0, 0.0, 0.0, 0.0, 0.0, 0.0, 0.0, 1.6546754282727897E9, 0.0, 2022-06-08 10:03:48.272
184.0, 29828.80530700747, 32486.539481465756, -21512.034119610085, -15914.86673532328, 9436.973564264008, 2432.1156659264166, 37896.28748849482, 1349.9559581227254, -0.064, 0.9440000000000001, 0.378, 192.0, 0.0, 0.0, 0.0, 0.0, 0.0, 0.0, 0.0, 0.0, 0.0, 1.654675428272801E9, 0.0, 2022-06-08 10:03:48.272
185.0, 29809.292234097986, 32476.414141227502, -21552.088445674, -15899.175810715655, 9413.10190118574, 2399.2586015771153, 37922.77430567436, 1350.872379645393, -0.064, 0.9440000000000001, 0.378, 192.0, 0.0, 0.0, 0.0, 0.0, 0.0, 0.0, 0.0, 0.0, 0.0, 1.6546754282728124E9, 0.0, 2022-06-08 10:03:48.272
186.0, 29777.485701738085, 32447.893315302532, -21600.524675908648, -15956.239814310053, 9364.66567095109, 2356.1197347783727, 37986.588536094256, 1327.8947863453373, -0.066, 0.9400000000000001, 0.38, 192.0, 253.0, 240.0, 29.0, 96.0, 11.0, 224.0, 0.0, 0.0, 0.0, 1.654675428272824E9, 0.0, 2022-06-08 10:03:48.272
187.0, 29778.93856512768, 32444.89818154552, -21591.963957782264, -15954.58578522036, 9365.47033375148, 2362.0205953145737, 38010.10257126124, 1312.650896626818, -0.066, 0.9400000000000001, 0.38, 192.0, 0.0, 0.0, 0.0, 0.0, 0.0, 0.0, 0.0, 0.0, 0.0, 1.6546754282728355E9, 0.0, 2022-06-08 10:03:48.272
188.0, 29785.286460552987, 32444.071167000675, -21570.483931360715, -15951.009506107512, 9377.584979246258, 2381.5783717129675, 37955.87723921266, 1299.8880505428376, -0.066, 0.9400000000000001, 0.38, 192.0, 0.0, 0.0, 0.0, 0.0, 0.0, 0.0, 0.0, 0.0, 0.0, 1.6546754282728472E9, 0.0, 2022-06-08 10:03:48.272
189.0, 29819.10464991387, 32465.797062611233, -21533.581201265002, -15920.298209225919, 9418.10869194373, 2420.9844971876737, 37903.5965089317, 1335.0473445710356, -0.066, 0.9400000000000001, 0.38, 192.0, 0.0, 0.0, 0.0, 0.0, 0.0, 0.0, 0.0, 0.0, 0.0, 1.6546754282728586E9, 0.0, 2022-06-08 10:03:48.272
190.0, 29802.43024855021, 32450.95550429291, -21566.058285958563, -15931.742302387036, 9400.651979524133, 2395.727025953177, 37929.16690458857, 1344.1892080532562, -0.066, 0.9400000000000001, 0.38, 192.0, 0.0, 0.0, 0.0, 0.0, 0.0, 0.0, 0.0, 0.0, 0.0, 1.65467542827287E9, 0.0, 2022-06-08 10:03:48.272
191.0, 29770.713123168127, 32426.726213303355, -21607.56547541207, -15982.480762300584, 9359.547121470825, 2356.4550109452025, 37991.416512896605, 1319.7811031080607, -0.066, 0.9400000000000001, 0.38, 192.0, 0.0, 0.0, 0.0, 0.0, 0.0, 0.0, 0.0, 0.0, 0.0, 1.6546754282728813E9, 0.0, 2022-06-08 10:03:48.272
192.0, 29764.499338209553, 32411.124695673552, -21610.314739980073, -15984.045384412455, 9346.18077828655, 2354.2645399885823, 38003.6205653692, 1300.6927133432287, -0.066, 0.9400000000000001, 0.38, 192.0, 0.0, 0.0, 0.0, 0.0, 0.0, 0.0, 0.0, 0.0, 0.0, 1.6546754282729044E9, 0.0, 2022-06-08 10:03:48.272
193.0, 29801.22325434962, 32437.76797506428, -21562.146730678884, -15944.862776382302, 9386.23510435046, 2400.040912633051, 37950.155192632104, 1312.5614896489967, -0.066, 0.9400000000000001, 0.38, 192.0, 0.0, 0.0, 0.0, 0.0, 0.0, 0.0, 0.0, 0.0, 0.0, 1.6546754282729156E9, 0.0, 2022-06-08 10:03:48.272
194.0, 29826.90540872877, 32455.09057701714, -21535.436396054793, -15906.082499752343, 9420.634439067178, 2422.9514506997407, 37909.36325900117, 1344.6585946868177, -0.066, 0.9400000000000001, 0.38, 192.0, 0.0, 0.0, 0.0, 0.0, 0.0, 0.0, 0.0, 0.0, 0.0, 1.6546754282729273E9, 0.0, 2022-06-08 10:03:48.272
195.0, 29808.644033508783, 32441.344254177126, -21570.193358682794, -15948.707276428615, 9396.069871910795, 2390.85434566192, 37934.86659942468, 1348.3466325219433, -0.07, 0.9420000000000001, 0.38, 192.0, 253.0, 208.0, 29.0, 112.0, 11.0, 224.0, 0.0, 0.0, 0.0, 1.6546754282729387E9, 0.0, 2022-06-08 10:03:48.272
196.0, 29790.874396666815, 32430.257788927294, -21602.04459453161, -15987.174628636198, 9366.766734929888, 2355.672699889267, 37995.75275132093, 1327.7830276230607, -0.07, 0.9420000000000001, 0.38, 192.0, 0.0, 0.0, 0.0, 0.0, 0.0, 0.0, 0.0, 0.0, 0.0, 1.6546754282729506E9, 0.0, 2022-06-08 10:03:48.272
197.0, 29792.818998434428, 32424.915722002475, -21596.568417140057, -15968.667384227203, 9361.80464766081, 2354.8009818555097, 38014.125885263195, 1308.4934721581308, -0.07, 0.9420000000000001, 0.38, 192.0, 0.0, 0.0, 0.0, 0.0, 0.0, 0.0, 0.0, 0.0, 0.0, 1.654675428272962E9, 0.0, 2022-06-08 10:03:48.272
198.0, 29819.10464991387, 32441.4560128994, -21555.687076531303, -15925.327351728363, 9392.135964886662, 2392.374264284881, 37962.49335557143, 1324.0726380434799, -0.07, 0.9420000000000001, 0.38, 192.0, 0.0, 0.0, 0.0, 0.0, 0.0, 0.0, 0.0, 0.0, 0.0, 1.6546754282729735E9, 0.0, 2022-06-08 10:03:48.272
199.0, 29839.780013535026, 32454.75530085031, -21543.617134525437, -15908.563543386883, 9415.873517498198, 2418.3693430864028, 37910.81612239077, 1356.3709087813984, -0.07, 0.9420000000000001, 0.38, 192.0, 0.0, 0.0, 0.0, 0.0, 0.0, 0.0, 0.0, 0.0, 0.0, 1.654675428272985E9, 0.0, 2022-06-08 10:03:48.272
200.0, 29837.097804200388, 32450.53082114826, -21553.02721894112, -15957.223291066086, 9405.681122026577, 2404.0418748905513, 37927.78109643234, 1366.228028086189, -0.07, 0.9420000000000001, 0.38, 192.0, 0.0, 0.0, 0.0, 0.0, 0.0, 0.0, 0.0, 0.0, 0.0, 1.6546754282729964E9, 0.0, 2022-06-08 10:03:48.272
201.0, 29791.723762956117, 32418.478419599345, -21605.03972828862, -16005.9277422342, 9348.460656220992, 2342.015784027074, 37991.90825127462, 1336.7237254051836, -0.07, 0.9420000000000001, 0.38, 192.0, 0.0, 0.0, 0.0, 0.0, 0.0, 0.0, 0.0, 0.0, 0.0, 1.6546754282730083E9, 0.0, 2022-06-08 10:03:48.273
202.0, 29789.220367577123, 32412.778724763244, -21607.252550989695, -15974.16591336321, 9340.905766595099, 2343.0886677609287, 38018.43977194307, 1323.580899665463, -0.07, 0.9420000000000001, 0.38, 192.0, 0.0, 0.0, 0.0, 0.0, 0.0, 0.0, 0.0, 0.0, 0.0, 1.65467542827302E9, 0.0, 2022-06-08 10:03:48.273
203.0, 29840.696435057693, 32453.011864782795, -21540.97962867971, -15929.14950003022, 9396.181630633073, 2409.3839418153693, 37960.54875380382, 1342.3563650079209, -0.07, 0.9420000000000001, 0.38, 192.0, 0.0, 0.0, 0.0, 0.0, 0.0, 0.0, 0.0, 0.0, 0.0, 1.6546754282730317E9, 0.0, 2022-06-08 10:03:48.273
204.0, 29865.9986097811, 32474.067208059696, -21513.464631255225, -15902.126240983755, 9437.755875319943, 2435.468427594713, 37907.575119444744, 1364.641054229862, -0.07, 0.9420000000000001, 0.38, 192.0, 0.0, 0.0, 0.0, 0.0, 0.0, 0.0, 0.0, 0.0, 0.0, 1.654675428273043E9, 0.0, 2022-06-08 10:03:48.273
205.0, 29840.651731568785, 32454.17415549447, -21553.049570685576, -15920.745244115025, 9416.141738431661, 2402.879584178875, 37940.90157042761, 1387.0375021740797, -0.062, 0.9420000000000001, 0.384, 192.0, 254.0, 16.0, 29.0, 112.0, 12.0, 0.0, 0.0, 0.0, 0.0, 1.6546754282730548E9, 0.0, 2022-06-08 10:03:48.273
206.0, 29796.283518825, 32417.874922499053, -21614.98625457123, -15983.196018123153, 9362.966938372487, 2346.6872986182334, 38015.06465853032, 1372.5982752559514, -0.062, 0.9420000000000001, 0.384, 192.0, 0.0, 0.0, 0.0, 0.0, 0.0, 0.0, 0.0, 0.0, 0.0, 1.6546754282730663E9, 0.0, 2022-06-08 10:03:48.273
207.0, 29774.51291972553, 32391.566919275156, -21633.739368169234, -16016.947152250666, 9332.233289746438, 2327.8671297868646, 38036.209408785035, 1332.901577103326, -0.062, 0.9420000000000001, 0.384, 192.0, 0.0, 0.0, 0.0, 0.0, 0.0, 0.0, 0.0, 0.0, 0.0, 1.654675428273078E9, 0.0, 2022-06-08 10:03:48.273
208.0, 29819.484629569608, 32426.346233647615, -21571.042724972096, -15944.125168815277, 9380.04367113634, 2382.0030548576183, 37971.6128673092, 1340.5235219625858, -0.062, 0.9420000000000001, 0.384, 192.0, 0.0, 0.0, 0.0, 0.0, 0.0, 0.0, 0.0, 0.0, 0.0, 1.6546754282730892E9, 0.0, 2022-06-08 10:03:48.273
209.0, 29861.125929489845, 32462.80192885422, -21521.7794801926, -15892.135011212233, 9437.554709619846, 2428.941718213763, 37920.53913122882, 1377.8509352029487, -0.062, 0.9420000000000001, 0.384, 192.0, 0.0, 0.0, 0.0, 0.0, 0.0, 0.0, 0.0, 0.0, 0.0, 1.6546754282731009E9, 0.0, 2022-06-08 10:03:48.273
210.0, 29840.33880714641, 32444.719367589878, -21553.36249510795, -15931.451729709117, 9420.455625111535, 2404.757130713121, 37956.525439801866, 1397.7886912570825, -0.062, 0.9420000000000001, 0.384, 192.0, 0.0, 0.0, 0.0, 0.0, 0.0, 0.0, 0.0, 0.0, 0.0, 1.6546754282731128E9, 0.0, 2022-06-08 10:03:48.273
211.0, 29816.064812667944, 32425.072184213663, -21591.248701959696, -15984.939454190668, 9376.132115856662, 2369.1731535402723, 38019.73617312148, 1383.8635544614262, -0.062, 0.9420000000000001, 0.384, 192.0, 0.0, 0.0, 0.0, 0.0, 0.0, 0.0, 0.0, 0.0, 0.0, 1.654675428273124E9, 0.0, 2022-06-08 10:03:48.273
212.0, 29805.827713707415, 32410.431791595438, -21594.869684561454, -15971.148427861743, 9366.297348296326, 2359.852476102409, 38042.11026932124, 1357.868475659904, -0.062, 0.9420000000000001, 0.384, 192.0, 0.0, 0.0, 0.0, 0.0, 0.0, 0.0, 0.0, 0.0, 0.0, 1.6546754282731354E9, 0.0, 2022-06-08 10:03:48.273
213.0, 29817.29415861299, 32416.086782942628, -21564.78423652461, -15931.384674475752, 9385.832772950265, 2387.300418293526, 37992.95878326402, 1349.2407023001556, -0.062, 0.9420000000000001, 0.384, 192.0, 0.0, 0.0, 0.0, 0.0, 0.0, 0.0, 0.0, 0.0, 0.0, 1.6546754282731469E9, 0.0, 2022-06-08 10:03:48.273
214.0, 29839.33297864592, 32440.159611720996, -21541.9854571802, -15936.480872211561, 9415.53824133137, 2420.4480553207463, 37941.348605316714, 1372.3747578113982, -0.062, 0.9420000000000001, 0.384, 192.0, 0.0, 0.0, 0.0, 0.0, 0.0, 0.0, 0.0, 0.0, 0.0, 1.6546754282731645E9, 0.0, 2022-06-08 10:03:48.273
215.0, 29831.37575761983, 32435.689262829932, -21570.908614505366, -15954.92106138719, 9406.798709249344, 2407.8640231924087, 37961.73339625995, 1390.971409198214, -0.068, 0.9400000000000001, 0.384, 192.0, 253.0, 224.0, 29.0, 96.0, 12.0, 0.0, 0.0, 0.0, 0.0, 1.6546754282733312E9, 0.0, 2022-06-08 10:03:48.273
216.0, 29778.200957560657, 32389.108227385073, -21649.47499626577, -16026.021960499522, 9337.530653182346, 2330.974022266152, 38026.26288250242, 1344.2339115421667, -0.068, 0.9400000000000001, 0.384, 192.0, 0.0, 0.0, 0.0, 0.0, 0.0, 0.0, 0.0, 0.0, 0.0, 1.654675428273343E9, 0.0, 2022-06-08 10:03:48.273
217.0, 29769.37201850081, 32377.75354120178, -21631.75006291271, -15975.149390119243, 9320.431568674037, 2320.9604407501747, 38046.80413565685, 1313.2990972160217, -0.068, 0.9400000000000001, 0.384, 192.0, 0.0, 0.0, 0.0, 0.0, 0.0, 0.0, 0.0, 0.0, 0.0, 1.6546754282733548E9, 0.0, 2022-06-08 10:03:48.273
218.0, 29816.444792323688, 32410.588253806625, -21571.78033253912, -15925.662627895194, 9372.153505343616, 2382.271275791082, 37989.18133845107, 1342.7810481525719, -0.068, 0.9400000000000001, 0.384, 192.0, 0.0, 0.0, 0.0, 0.0, 0.0, 0.0, 0.0, 0.0, 0.0, 1.6546754282733667E9, 0.0, 2022-06-08 10:03:48.273
219.0, 29860.76830157856, 32448.742681591833, -21523.45586102675, -15873.113676680767, 9427.362314148226, 2430.7522095146433, 37940.38748030514, 1389.6079527864401, -0.068, 0.9400000000000001, 0.384, 192.0, 0.0, 0.0, 0.0, 0.0, 0.0, 0.0, 0.0, 0.0, 0.0, 1.6546754282733831E9, 0.0, 2022-06-08 10:03:48.273
220.0, 29844.33976940391, 32437.432698897446, -21558.346934121484, -15913.972665545067, 9413.973619219496, 2402.007866145118, 37963.454480583016, 1401.8120052590377, -0.068, 0.9400000000000001, 0.384, 192.0, 0.0, 0.0, 0.0, 0.0, 0.0, 0.0, 0.0, 0.0, 0.0, 1.6546754282733953E9, 0.0, 2022-06-08 10:03:48.273
221.0, 29794.718896713126, 32395.724343743845, -21624.910429109386, -15988.918064703712, 9351.70165916701, 2337.9030630472976, 38025.61468191322, 1359.902484405337, -0.068, 0.9400000000000001, 0.384, 192.0, 0.0, 0.0, 0.0, 0.0, 0.0, 0.0, 0.0, 0.0, 0.0, 1.6546754282734072E9, 0.0, 2022-06-08 10:03:48.273
222.0, 29802.542007272485, 32400.261747868273, -21612.84048710352, -15978.144523876254, 9352.908653367598, 2345.4579526731914, 38049.776917669406, 1339.74121090665, -0.068, 0.9400000000000001, 0.384, 192.0, 0.0, 0.0, 0.0, 0.0, 0.0, 0.0, 0.0, 0.0, 0.0, 1.6546754282734191E9, 0.0, 2022-06-08 10:03:48.273
223.0, 29829.274693641033, 32421.89823650101, -21569.343992393493, -15921.393444704228, 9386.883304939665, 2380.0361013455513, 37995.529233876376, 1345.0832778314684, -0.068, 0.9400000000000001, 0.384, 192.0, 0.0, 0.0, 0.0, 0.0, 0.0, 0.0, 0.0, 0.0, 0.0, 1.6546754282734313E9, 0.0, 2022-06-08 10:03:48.273
224.0, 29846.23966768261, 32426.256826669793, -21547.774558994122, -15910.217572476575, 9414.174784919594, 2398.7445114546435, 37940.02985239385, 1362.1376588508676, -0.068, 0.9400000000000001, 0.384, 192.0, 0.0, 0.0, 0.0, 0.0, 0.0, 0.0, 0.0, 0.0, 0.0, 1.6546754282734427E9, 0.0, 2022-06-08 10:03:48.273
225.0, 29835.846106510893, 32416.444410853914, -21570.014544727153, -15949.355477017818, 9407.223392393995, 2379.9243426232747, 37959.34175960324, 1377.3815485693872, -0.068, 0.9420000000000001, 0.386, 192.0, 253.0, 224.0, 29.0, 112.0, 12.0, 16.0, 0.0, 0.0, 0.0, 1.654675428273455E9, 0.0, 2022-06-08 10:03:48.273
226.0, 29792.483722267596, 32380.88278542552, -21626.13977505443, -16008.811117268935, 9356.03789759134, 2328.671792587256, 38025.77114412441, 1349.4642197447085, -0.068, 0.9420000000000001, 0.386, 192.0, 0.0, 0.0, 0.0, 0.0, 0.0, 0.0, 0.0, 0.0, 0.0, 1.6546754282734663E9, 0.0, 2022-06-08 10:03:48.273
227.0, 29794.67419322422, 32373.685523710912, -21611.7005481363, -15970.008488894522, 9357.870740636676, 2339.1324089923396, 38050.02278685842, 1328.8782631013707, -0.068, 0.9420000000000001, 0.386, 192.0, 0.0, 0.0, 0.0, 0.0, 0.0, 0.0, 0.0, 0.0, 0.0, 1.6546754282734785E9, 0.0, 2022-06-08 10:03:48.273
228.0, 29823.016205193548, 32391.008125663775, -21565.968878980744, -15929.685941897147, 9389.230238107471, 2380.147860067828, 37995.66334434311, 1339.8306178844712, -0.068, 0.9420000000000001, 0.386, 192.0, 0.0, 0.0, 0.0, 0.0, 0.0, 0.0, 0.0, 0.0, 0.0, 1.6546754282734904E9, 0.0, 2022-06-08 10:03:48.273
229.0, 29853.213411952667, 32411.348213118104, -21527.747395962168, -15902.975607273056, 9427.00468623694, 2417.855252963931, 37941.706233228, 1369.5584380100297, -0.068, 0.9420000000000001, 0.386, 192.0, 0.0, 0.0, 0.0, 0.0, 0.0, 0.0, 0.0, 0.0, 0.0, 1.654675428273502E9, 0.0, 2022-06-08 10:03:48.273
230.0, 29860.589487622918, 32418.947806232907, -21537.291590844583, -15947.567337461394, 9434.358410162737, 2411.976744172185, 37960.638160781644, 1403.868365748926, -0.068, 0.9420000000000001, 0.386, 192.0, 0.0, 0.0, 0.0, 0.0, 0.0, 0.0, 0.0, 0.0, 0.0, 1.6546754282735136E9, 0.0, 2022-06-08 10:03:48.273
231.0, 29824.111440671855, 32392.93037568693, -21594.355594438985, -15940.213613535598, 9385.743365972445, 2357.4831911901465, 38023.066583045314, 1389.6973597642614, -0.068, 0.9420000000000001, 0.386, 192.0, 0.0, 0.0, 0.0, 0.0, 0.0, 0.0, 0.0, 0.0, 0.0, 1.6546754282735252E9, 0.0, 2022-06-08 10:03:48.273
232.0, 29807.79466721948, 32373.082026610617, -21608.81717310157, -15961.738343446059, 9358.51894122588, 2335.7349438351325, 38046.89354263467, 1348.6595569443175, -0.068, 0.9420000000000001, 0.386, 192.0, 0.0, 0.0, 0.0, 0.0, 0.0, 0.0, 0.0, 0.0, 0.0, 1.6546754282735372E9, 0.0, 2022-06-08 10:03:48.273
233.0, 29844.116251959356, 32395.187901876918, -21558.011657954652, -15912.519802155472, 9397.85801146722, 2382.383034513359, 38000.08898974526, 1354.9403971362588, -0.068, 0.9420000000000001, 0.386, 192.0, 0.0, 0.0, 0.0, 0.0, 0.0, 0.0, 0.0, 0.0, 0.0, 1.6546754282735488E9, 0.0, 2022-06-08 10:03:48.273
234.0, 29889.40088622581, 32434.191695951427, -21510.558904476038, -15871.169074913154, 9455.234939483993, 2438.664727051822, 37939.56046576029, 1402.1249296814121, -0.068, 0.9420000000000001, 0.386, 192.0, 0.0, 0.0, 0.0, 0.0, 0.0, 0.0, 0.0, 0.0, 0.0, 1.6546754282735603E9, 0.0, 2022-06-08 10:03:48.273
235.0, 29863.517566146562, 32413.114000930073, -21550.434416584303, -15901.18746771663, 9433.352581662248, 2401.0914446224506, 37960.39229159264, 1411.7585315416493, -0.066, 0.9480000000000001, 0.384, 192.0, 253.0, 240.0, 29.0, 160.0, 12.0, 0.0, 0.0, 0.0, 0.0, 1.6546754282735753E9, 0.0, 2022-06-08 10:03:48.273
236.0, 29817.361213846354, 32379.139349358007, -21591.718088593258, -15948.103779328321, 9374.120458855685, 2348.788362597032, 38029.973272082, 1364.9092751633257, -0.066, 0.9480000000000001, 0.384, 192.0, 0.0, 0.0, 0.0, 0.0, 0.0, 0.0, 0.0, 0.0, 0.0, 1.654675428273587E9, 0.0, 2022-06-08 10:03:48.273
237.0, 29815.975405690126, 32377.708837712868, -21591.6957368488, -15953.848177653335, 9365.447982007025, 2361.3500429809146, 38050.11219383624, 1331.4040102248205, -0.066, 0.9480000000000001, 0.384, 192.0, 0.0, 0.0, 0.0, 0.0, 0.0, 0.0, 0.0, 0.0, 0.0, 1.654675428273599E9, 0.0, 2022-06-08 10:03:48.273
238.0, 29839.33297864592, 32391.522215786248, -21551.909631718354, -15902.349758428307, 9399.936723701563, 2392.0613398625064, 38006.70510610403, 1327.1124752894016, -0.066, 0.9480000000000001, 0.384, 192.0, 0.0, 0.0, 0.0, 0.0, 0.0, 0.0, 0.0, 0.0, 0.0, 1.6546754282736104E9, 0.0, 2022-06-08 10:03:48.273
239.0, 29845.90439151578, 32389.108227385073, -21543.326561847516, -15896.247732192009, 9410.956133718031, 2394.072996863484, 37960.995788692926, 1348.324280777488, -0.066, 0.9480000000000001, 0.384, 192.0, 0.0, 0.0, 0.0, 0.0, 0.0, 0.0, 0.0, 0.0, 0.0, 1.6546754282736218E9, 0.0, 2022-06-08 10:03:48.273
240.0, 29841.3446356469, 32382.93914591541, -21568.539329593103, -15922.667494138183, 9400.562572546312, 2376.4151187437915, 37974.138614432646, 1365.065737374513, -0.066, 0.9480000000000001, 0.384, 192.0, 0.0, 0.0, 0.0, 0.0, 0.0, 0.0, 0.0, 0.0, 0.0, 1.654675428752058E9, 0.0, 2022-06-08 10:03:48.752
241.0, 29823.552647060475, 32364.16368057295, -21612.594617914514, -15967.281576070975, 9362.788124416844, 2338.439504914225, 38031.85081861625, 1356.616777970407, -0.066, 0.9480000000000001, 0.384, 192.0, 0.0, 0.0, 0.0, 0.0, 0.0, 0.0, 0.0, 0.0, 0.0, 1.6546754287521424E9, 0.0, 2022-06-08 10:03:48.752
242.0, 29804.37485031782, 32350.797337388678, -21611.432327202838, -15970.790799950457, 9355.389697002138, 2336.472551402158, 38065.28902832139, 1341.9763853521808, -0.066, 0.9480000000000001, 0.384, 192.0, 0.0, 0.0, 0.0, 0.0, 0.0, 0.0, 0.0, 0.0, 0.0, 1.6546754287521763E9, 0.0, 2022-06-08 10:03:48.752
243.0, 29830.749908775084, 32376.524195256734, -21554.413027097347, -15920.164098759187, 9403.982389447974, 2387.009845615607, 38017.43394344258, 1353.5769407244852, -0.066, 0.9480000000000001, 0.384, 192.0, 0.0, 0.0, 0.0, 0.0, 0.0, 0.0, 0.0, 0.0, 0.0, 1.6546754287521975E9, 0.0, 2022-06-08 10:03:48.752
244.0, 29859.606010866883, 32401.446390324403, -21539.236192612196, -15887.910531510179, 9422.668447812612, 2401.04674113354, 37954.96081768999, 1368.3737955538984, -0.066, 0.9480000000000001, 0.384, 192.0, 0.0, 0.0, 0.0, 0.0, 0.0, 0.0, 0.0, 0.0, 0.0, 1.6546754287522197E9, 0.0, 2022-06-08 10:03:48.752
245.0, 29841.925781002737, 32388.325916329137, -21572.85321627298, -15925.304999983908, 9399.981427190474, 2369.2178570291826, 37982.27464941438, 1368.418499042809, -0.066, 0.9480000000000001, 0.386, 192.0, 253.0, 240.0, 29.0, 160.0, 12.0, 16.0, 0.0, 0.0, 0.0, 1.654675428752236E9, 0.0, 2022-06-08 10:03:48.752
246.0, 29799.256300837555, 32355.78177640221, -21623.099937808507, -15981.631396011282, 9346.091371308728, 2321.183958194728, 38049.75456592495, 1332.0745625584798, -0.066, 0.9480000000000001, 0.386, 192.0, 0.0, 0.0, 0.0, 0.0, 0.0, 0.0, 0.0, 0.0, 0.0, 1.654675428752256E9, 0.0, 2022-06-08 10:03:48.752
247.0, 29804.598367762374, 32355.804128146665, -21624.61985643147, -16007.291198645975, 9335.340182225727, 2314.5454900915015, 38069.96054291255, 1309.5663558919855, -0.066, 0.9480000000000001, 0.386, 192.0, 0.0, 0.0, 0.0, 0.0, 0.0, 0.0, 0.0, 0.0, 0.0, 1.6546754287522757E9, 0.0, 2022-06-08 10:03:48.752
248.0, 29841.009359480067, 32384.995506405296, -21569.522806349138, -15923.159232516198, 9376.892075168142, 2365.0604325604954, 38021.85958884473, 1323.1562165208122, -0.066, 0.9480000000000001, 0.386, 192.0, 0.0, 0.0, 0.0, 0.0, 0.0, 0.0, 0.0, 0.0, 0.0, 1.6546754287522948E9, 0.0, 2022-06-08 10:03:48.752
249.0, 29870.312496460974, 32409.716535772866, -21527.322712817517, -15858.652098018183, 9421.282639656381, 2401.7172934671994, 37971.679922542564, 1355.02980411408, -0.066, 0.9480000000000001, 0.386, 192.0, 0.0, 0.0, 0.0, 0.0, 0.0, 0.0, 0.0, 0.0, 0.0, 1.6546754287523131E9, 0.0, 2022-06-08 10:03:48.752
250.0, 29868.725522604647, 32406.475532826847, -21545.338218848494, -15899.555790371394, 9409.391511606158, 2390.876697406375, 37987.59436459474, 1383.0365399165798, -0.066, 0.9480000000000001, 0.386, 192.0, 0.0, 0.0, 0.0, 0.0, 0.0, 0.0, 0.0, 0.0, 0.0, 1.654675428752332E9, 0.0, 2022-06-08 10:03:48.752
251.0, 29835.980216977623, 32379.876956925033, -21591.6957368488, -15957.11153234381, 9361.268205793882, 2349.861246330887, 38055.8342404168, 1368.9549409097363, -0.066, 0.9480000000000001, 0.386, 192.0, 0.0, 0.0, 0.0, 0.0, 0.0, 0.0, 0.0, 0.0, 0.0, 1.65467542875235E9, 0.0, 2022-06-08 10:03:48.752
252.0, 29819.261112125056, 32359.20159330387, -21611.99112081422, -15954.697543942637, 9334.490815936424, 2335.0643915014734, 38087.461958821055, 1329.9958503241362, -0.066, 0.9480000000000001, 0.386, 192.0, 0.0, 0.0, 0.0, 0.0, 0.0, 0.0, 0.0, 0.0, 0.0, 1.654675428752378E9, 0.0, 2022-06-08 10:03:48.752
253.0, 29850.039464240013, 32379.65343948048, -21574.194320940296, -15912.743319600026, 9370.991214631942, 2377.6444646888335, 38038.22106578601, 1336.2766905160775, -0.066, 0.9480000000000001, 0.386, 192.0, 0.0, 0.0, 0.0, 0.0, 0.0, 0.0, 0.0, 0.0, 0.0, 1.6546754287523983E9, 0.0, 2022-06-08 10:03:48.752
254.0, 29887.746857136117, 32408.55424506119, -21509.329558530993, -15883.060202963377, 9419.092168699763, 2422.6385262773665, 37981.35822789172, 1366.6080077419292, -0.066, 0.9480000000000001, 0.386, 192.0, 0.0, 0.0, 0.0, 0.0, 0.0, 0.0, 0.0, 0.0, 0.0, 1.654675428752417E9, 0.0, 2022-06-08 10:03:48.752
255.0, 29885.71284839068, 32410.096515428606, -21528.82027969602, -15900.315749682875, 9419.427444866591, 2411.4850057941685, 37991.975306507986, 1386.1210806514123, -0.066, 0.9420000000000001, 0.384, 192.0, 253.0, 240.0, 29.0, 112.0, 12.0, 0.0, 0.0, 0.0, 0.0, 1.6546754287524388E9, 0.0, 2022-06-08 10:03:48.752
0.0, 29844.719749059648, 32379.474625524836, -21590.13111473693, -15943.074636825877, 9367.638452963645, 2356.857342345398, 38055.163688083136, 1353.7781064245828, -0.066, 0.9420000000000001, 0.384, 192.0, 0.0, 0.0, 0.0, 0.0, 0.0, 0.0, 0.0, 0.0, 0.0, 1.654675428752493E9, 0.0, 2022-06-08 10:03:48.752
1.0, 29830.034652952512, 32360.31918052664, -21601.41874568686, -15949.936622373656, 9351.880473122654, 2344.943862550719, 38085.226784375525, 1324.2514519991223, -0.066, 0.9420000000000001, 0.384, 192.0, 0.0, 0.0, 0.0, 0.0, 0.0, 0.0, 0.0, 0.0, 0.0, 1.6546754287525175E9, 0.0, 2022-06-08 10:03:48.752
2.0, 29867.473824915152, 32394.338535587616, -21542.54425079158, -15892.537342612428, 9394.52760154338, 2394.5423834970456, 38038.13165880819, 1335.1814550377674, -0.066, 0.9420000000000001, 0.384, 192.0, 0.0, 0.0, 0.0, 0.0, 0.0, 0.0, 0.0, 0.0, 0.0, 1.6546754287525432E9, 0.0, 2022-06-08 10:03:48.752
3.0, 29885.936365835234, 32410.7000125289, -21518.98551213569, -15873.292490636408, 9422.646096068156, 2417.9893634306627, 37979.525384846376, 1354.7168796917058, -0.066, 0.9420000000000001, 0.384, 192.0, 0.0, 0.0, 0.0, 0.0, 0.0, 0.0, 0.0, 0.0, 0.0, 1.6546754287525673E9, 0.0, 2022-06-08 10:03:48.752
4.0, 29878.940269820723, 32405.335593859625, -21536.106948388453, -15891.509162367483, 9419.114520444218, 2410.814453460509, 37989.024876239884, 1371.905371177837, -0.066, 0.9420000000000001, 0.384, 192.0, 0.0, 0.0, 0.0, 0.0, 0.0, 0.0, 0.0, 0.0, 0.0, 1.654675428752589E9, 0.0, 2022-06-08 10:03:48.752
5.0, 29842.305760658477, 32380.16752960295, -21586.35366992398, -15951.098913085332, 9371.57235998778, 2368.010862828596, 38048.12288857972, 1352.5934639684515, -0.066, 0.9420000000000001, 0.384, 192.0, 0.0, 0.0, 0.0, 0.0, 0.0, 0.0, 0.0, 0.0, 0.0, 1.654675428752612E9, 0.0, 2022-06-08 10:03:48.752
6.0, 29817.942359202192, 32354.50772696826, -21614.449812704304, -16004.519582333516, 9338.156502027095, 2334.3938391678143, 38077.91776393864, 1306.5488703905191, -0.066, 0.9420000000000001, 0.384, 192.0, 0.0, 0.0, 0.0, 0.0, 0.0, 0.0, 0.0, 0.0, 0.0, 1.6546754287526402E9, 0.0, 2022-06-08 10:03:48.752
7.0, 29829.274693641033, 32360.11801482654, -21580.184588454318, -15913.369168444773, 9361.268205793882, 2357.2596737455933, 38033.37073723922, 1298.8598702978934, -0.066, 0.9420000000000001, 0.384, 192.0, 0.0, 0.0, 0.0, 0.0, 0.0, 0.0, 0.0, 0.0, 0.0, 1.6546754287526667E9, 0.0, 2022-06-08 10:03:48.752
8.0, 29866.780920837038, 32393.913852442965, -21535.346989076974, -15871.012612701967, 9403.423595836592, 2404.3771510573806, 37977.33491388976, 1331.9181003472925, -0.066, 0.9420000000000001, 0.384, 192.0, 0.0, 0.0, 0.0, 0.0, 0.0, 0.0, 0.0, 0.0, 0.0, 1.6546754287526903E9, 0.0, 2022-06-08 10:03:48.752
9.0, 29878.426179698254, 32405.02266943725, -21535.0340646546, -15877.874598249746, 9414.91239248662, 2413.4519593062355, 37994.00931525342, 1366.3621385529207, -0.064, 0.9460000000000001, 0.38, 192.0, 254.0, 0.0, 29.0, 144.0, 11.0, 224.0, 0.0, 0.0, 0.0, 1.6546754287527113E9, 0.0, 2022-06-08 10:03:48.752
10.0, 29839.891772257302, 32373.88668941101, -21588.298271691594, -15937.173776289676, 9368.465467508491, 2363.4511069597133, 38061.35512129726, 1347.8995976328372, -0.064, 0.9460000000000001, 0.38, 192.0, 0.0, 0.0, 0.0, 0.0, 0.0, 0.0, 0.0, 0.0, 0.0, 1.6546754287527416E9, 0.0, 2022-06-08 10:03:48.752
11.0, 29815.41661207874, 32348.293942009685, -21610.761774869177, -15966.208692337119, 9338.22355726046, 2336.6290136133453, 38092.80402574588, 1314.0143530385917, -0.064, 0.9460000000000001, 0.38, 192.0, 0.0, 0.0, 0.0, 0.0, 0.0, 0.0, 0.0, 0.0, 0.0, 1.654675428752768E9, 0.0, 2022-06-08 10:03:48.752
12.0, 29822.837391237903, 32344.06946230763, -21586.443076901804, -15943.700485670626, 9353.489798723436, 2352.208179498694, 38049.28517929139, 1292.7131405726839, -0.064, 0.9460000000000001, 0.38, 192.0, 0.0, 0.0, 0.0, 0.0, 0.0, 0.0, 0.0, 0.0, 0.0, 1.654675428752792E9, 0.0, 2022-06-08 10:03:48.752
13.0, 29863.852842313394, 32373.21613707735, -21533.648256498367, -15889.631615833237, 9405.703473771033, 2399.4374155327578, 37992.84702454174, 1321.9492223202255, -0.064, 0.9460000000000001, 0.38, 192.0, 0.0, 0.0, 0.0, 0.0, 0.0, 0.0, 0.0, 0.0, 0.0, 1.654675428752818E9, 0.0, 2022-06-08 10:03:48.752
14.0, 29873.218223240165, 32381.486282525813, -21544.82412872602, -15900.852191549802, 9417.7734157769, 2401.270258578093, 38002.458274657525, 1357.0414611150577, -0.064, 0.9460000000000001, 0.38, 192.0, 0.0, 0.0, 0.0, 0.0, 0.0, 0.0, 0.0, 0.0, 0.0, 1.6546754287528496E9, 0.0, 2022-06-08 10:03:48.752
15.0, 29844.18330719272, 32358.195764803382, -21588.07475424704, -15943.365209503796, 9376.489743767946, 2358.4219644572695, 38055.14133633868, 1345.843237142949, -0.064, 0.9460000000000001, 0.38, 192.0, 0.0, 0.0, 0.0, 0.0, 0.0, 0.0, 0.0, 0.0, 0.0, 1.6546754287528944E9, 0.0, 2022-06-08 10:03:48.752
16.0, 29828.917065729747, 32342.437784962392, -21585.19137921231, -15946.91913687219, 9348.930042854554, 2335.444371157214, 38075.16849937064, 1302.4137976662873, -0.064, 0.9460000000000001, 0.38, 192.0, 0.0, 0.0, 0.0, 0.0, 0.0, 0.0, 0.0, 0.0, 0.0, 1.6546754287529216E9, 0.0, 2022-06-08 10:03:48.752
17.0, 29851.782900307528, 32354.619485690535, -21551.820224740535, -15912.899781811213, 9378.255531579916, 2372.28004601956, 38049.44164150258, 1324.6984868882284, -0.064, 0.9460000000000001, 0.38, 192.0, 0.0, 0.0, 0.0, 0.0, 0.0, 0.0, 0.0, 0.0, 0.0, 1.6546754287529645E9, 0.0, 2022-06-08 10:03:48.752
18.0, 29891.077267059954, 32383.989677904807, -21504.054546839543, -15863.502426564984, 9425.127139702696, 2421.722104754699, 38011.44367592856, 1366.876228675393, -0.062, 0.9420000000000001, 0.388, 192.0, 254.0, 16.0, 29.0, 112.0, 12.0, 32.0, 0.0, 0.0, 0.0, 1.6546754287529948E9, 0.0, 2022-06-08 10:03:48.752
19.0, 29890.898453104313, 32388.772951218245, -21517.197372579263, -15889.072822221855, 9426.177671692094, 2414.3460290844478, 38024.16181852363, 1387.0822056629904, -0.062, 0.9420000000000001, 0.388, 192.0, 0.0, 0.0, 0.0, 0.0, 0.0, 0.0, 0.0, 0.0, 0.0, 1.654675428753029E9, 0.0, 2022-06-08 10:03:48.753
20.0, 29854.330999175432, 32367.941125385896, -21570.193358682794, -15933.709255899103, 9383.977578160475, 2367.56382793949, 38085.427950075624, 1358.896655904848, -0.062, 0.9420000000000001, 0.388, 192.0, 0.0, 0.0, 0.0, 0.0, 0.0, 0.0, 0.0, 0.0, 0.0, 1.6546754287530549E9, 0.0, 2022-06-08 10:03:48.753
21.0, 29814.544894044986, 32324.66814812042, -21609.13009752394, -15956.888014899258, 9345.465522463981, 2328.336516420426, 38119.6484708367, 1301.9891145216363, -0.062, 0.9420000000000001, 0.388, 192.0, 0.0, 0.0, 0.0, 0.0, 0.0, 0.0, 0.0, 0.0, 0.0, 1.654675428753085E9, 0.0, 2022-06-08 10:03:48.753
22.0, 29837.43308036722, 32336.246351748272, -21568.785198782112, -15917.884220824746, 9371.214732076494, 2371.788307641543, 38077.29191509389, 1312.4050274378094, -0.062, 0.9420000000000001, 0.388, 192.0, 0.0, 0.0, 0.0, 0.0, 0.0, 0.0, 0.0, 0.0, 0.0, 1.654675428753126E9, 0.0, 2022-06-08 10:03:48.753
23.0, 29851.13469971832, 32345.142346041484, -21548.422759583325, -15897.72294732606, 9392.560648031313, 2394.3859212858583, 38017.903330076144, 1353.420478513298, -0.062, 0.9420000000000001, 0.388, 192.0, 0.0, 0.0, 0.0, 0.0, 0.0, 0.0, 0.0, 0.0, 0.0, 1.6546754287531528E9, 0.0, 2022-06-08 10:03:48.753
24.0, 29850.15122296229, 32347.69044490939, -21556.7376085207, -15927.048436051422, 9394.840525965754, 2394.2741625635817, 38022.06075454483, 1379.907295692837, -0.062, 0.9420000000000001, 0.388, 192.0, 0.0, 0.0, 0.0, 0.0, 0.0, 0.0, 0.0, 0.0, 0.0, 1.654675428753172E9, 0.0, 2022-06-08 10:03:48.753
25.0, 29820.9374929592, 32325.450459176358, -21600.12234450845, -15971.148427861743, 9357.647223192123, 2354.242188244127, 38084.22095587504, 1363.8140396850158, -0.062, 0.9420000000000001, 0.388, 192.0, 0.0, 0.0, 0.0, 0.0, 0.0, 0.0, 0.0, 0.0, 0.0, 1.654675428753189E9, 0.0, 2022-06-08 10:03:48.753
26.0, 29810.70039399867, 32308.954871768343, -21607.409013200882, -15931.00469482001, 9342.760961384889, 2340.2499962151046, 38125.59403486181, 1337.55073995003, -0.062, 0.9420000000000001, 0.388, 192.0, 0.0, 0.0, 0.0, 0.0, 0.0, 0.0, 0.0, 0.0, 0.0, 1.6546754287532036E9, 0.0, 2022-06-08 10:03:48.753
27.0, 29835.175554177233, 32321.53890389668, -21567.55585283707, -15917.839517335835, 9368.599577975223, 2374.1575925538054, 38086.45613032057, 1330.6664026577953, -0.062, 0.9420000000000001, 0.388, 192.0, 0.0, 0.0, 0.0, 0.0, 0.0, 0.0, 0.0, 0.0, 0.0, 1.6546754287532184E9, 0.0, 2022-06-08 10:03:48.753
28.0, 29873.508795918086, 32349.098604810075, -21522.561791248536, -15887.86582802127, 9411.447872096047, 2417.0952936524504, 38023.24539700096, 1359.9918913831582, -0.062, 0.9420000000000001, 0.39, 192.0, 254.0, 16.0, 29.0, 112.0, 12.0, 48.0, 0.0, 0.0, 0.0, 1.654675428753234E9, 0.0, 2022-06-08 10:03:48.753
29.0, 29880.1025605324, 32352.11609031154, -21528.753224462656, -15899.28756943793, 9420.455625111535, 2417.654087263833, 38023.13363827868, 1387.350426596454, -0.062, 0.9420000000000001, 0.39, 192.0, 0.0, 0.0, 0.0, 0.0, 0.0, 0.0, 0.0, 0.0, 0.0, 1.6546754287532513E9, 0.0, 2022-06-08 10:03:48.753
30.0, 29848.89952527279, 32327.14919175496, -21580.31869892105, -15935.54209894444, 9380.423650792081, 2370.961293096697, 38080.9352494401, 1368.351443809443, -0.062, 0.9420000000000001, 0.39, 192.0, 0.0, 0.0, 0.0, 0.0, 0.0, 0.0, 0.0, 0.0, 0.0, 1.6546754287532673E9, 0.0, 2022-06-08 10:03:48.753
31.0, 29825.117269172344, 32302.383458898483, -21607.766641112168, -15964.599366736338, 9348.684173665544, 2340.2499962151046, 38121.101334226296, 1334.1979782817339, -0.062, 0.9420000000000001, 0.39, 192.0, 0.0, 0.0, 0.0, 0.0, 0.0, 0.0, 0.0, 0.0, 0.0, 1.6546754287532823E9, 0.0, 2022-06-08 10:03:48.753
32.0, 29851.738196818616, 32317.850866061555, -21566.17004468084, -15927.696636640625, 9376.914426912597, 2374.3587582539035, 38078.61066801676, 1323.290326987544, -0.062, 0.9420000000000001, 0.39, 192.0, 0.0, 0.0, 0.0, 0.0, 0.0, 0.0, 0.0, 0.0, 0.0, 1.6546754287532957E9, 0.0, 2022-06-08 10:03:48.753
33.0, 29883.611784411885, 32342.16956402893, -21530.07197738552, -15888.715194310571, 9415.314723886815, 2414.7930639735537, 38018.43977194307, 1350.425344756287, -0.062, 0.9420000000000001, 0.39, 192.0, 0.0, 0.0, 0.0, 0.0, 0.0, 0.0, 0.0, 0.0, 0.0, 1.6546754287533104E9, 0.0, 2022-06-08 10:03:48.753
34.0, 29889.44558971472, 32343.041282062684, -21549.294477617084, -15899.309921182386, 9417.013456465418, 2415.038933162562, 38028.22983601449, 1364.8645716744152, -0.062, 0.9420000000000001, 0.39, 192.0, 0.0, 0.0, 0.0, 0.0, 0.0, 0.0, 0.0, 0.0, 0.0, 1.654675428753326E9, 0.0, 2022-06-08 10:03:48.753
35.0, 29861.68472310123, 32321.047165518663, -21576.965937252753, -15932.189337276142, 9377.987310646453, 2380.751357168121, 38091.61938328974, 1347.1172865769013, -0.062, 0.9420000000000001, 0.39, 192.0, 0.0, 0.0, 0.0, 0.0, 0.0, 0.0, 0.0, 0.0, 0.0, 1.6546754287533436E9, 0.0, 2022-06-08 10:03:48.753
36.0, 29848.027807239036, 32305.132723466486, -21595.003795028188, -15965.426381281184, 9352.394563245125, 2361.3723947253698, 38119.58141560333, 1312.4497309267201, -0.062, 0.9420000000000001, 0.39, 192.0, 0.0, 0.0, 0.0, 0.0, 0.0, 0.0, 0.0, 0.0, 0.0, 1.6546754287533581E9, 0.0, 2022-06-08 10:03:48.753
37.0, 29855.068606742458, 32294.6721070614, -21575.22250118524, -15940.235965280053, 9364.37509827317, 2374.0681855759844, 38076.688417993595, 1290.7908905495276, -0.062, 0.9420000000000001, 0.39, 192.0, 0.0, 0.0, 0.0, 0.0, 0.0, 0.0, 0.0, 0.0, 0.0, 1.6546754287533748E9, 0.0, 2022-06-08 10:03:48.753
38.0, 29889.37853448135, 32323.01411903073, -21528.283837829094, -15879.28275815043, 9415.091206442263, 2414.726008740188, 38029.77210638191, 1323.0444577985356, -0.06, 0.9460000000000001, 0.392, 192.0, 254.0, 32.0, 29.0, 144.0, 12.0, 64.0, 0.0, 0.0, 0.0, 1.6546754287533948E9, 0.0, 2022-06-08 10:03:48.753
39.0, 29888.77503738106, 32325.226941731806, -21543.572431036526, -15908.63059862025, 9417.751064032444, 2405.271220835593, 38038.28812101938, 1338.0424783280466, -0.06, 0.9460000000000001, 0.392, 192.0, 0.0, 0.0, 0.0, 0.0, 0.0, 0.0, 0.0, 0.0, 0.0, 1.6546754287534127E9, 0.0, 2022-06-08 10:03:48.753
40.0, 29850.82177529595, 32291.989897726766, -21598.915350307867, -15952.507072986016, 9366.6102727187, 2352.8787318323534, 38095.73210426952, 1315.35545770591, -0.06, 0.9460000000000001, 0.392, 192.0, 0.0, 0.0, 0.0, 0.0, 0.0, 0.0, 0.0, 0.0, 0.0, 1.6546754287534287E9, 0.0, 2022-06-08 10:03:48.753
41.0, 29857.929630032737, 32293.68863030537, -21591.8969025489, -15943.72283741508, 9364.285691295348, 2360.2548075026048, 38127.69509884061, 1302.9502395332147, -0.06, 0.9460000000000001, 0.392, 192.0, 0.0, 0.0, 0.0, 0.0, 0.0, 0.0, 0.0, 0.0, 0.0, 1.6546754287534444E9, 0.0, 2022-06-08 10:03:48.753
42.0, 29869.552537149495, 32292.7722087827, -21569.008716226665, -15940.303020513418, 9373.38285128866, 2381.108985079406, 38081.27052560694, 1299.999809265114, -0.06, 0.9460000000000001, 0.392, 192.0, 0.0, 0.0, 0.0, 0.0, 0.0, 0.0, 0.0, 0.0, 0.0, 1.654675428753462E9, 0.0, 2022-06-08 10:03:48.753
43.0, 29892.932461849745, 32304.752743810746, -21539.07973040101, -15929.462424452595, 9403.691816770055, 2405.6959039802437, 38018.886806832175, 1320.5634141639966, -0.06, 0.9460000000000001, 0.392, 192.0, 0.0, 0.0, 0.0, 0.0, 0.0, 0.0, 0.0, 0.0, 0.0, 1.6546754287534885E9, 0.0, 2022-06-08 10:03:48.753
44.0, 29888.082133302945, 32297.421371629403, -21554.79300675309, -15892.313825167874, 9400.607276035224, 2396.5093370091126, 38026.44169645807, 1329.7946846240384, -0.06, 0.9460000000000001, 0.392, 192.0, 0.0, 0.0, 0.0, 0.0, 0.0, 0.0, 0.0, 0.0, 0.0, 1.654675428753507E9, 0.0, 2022-06-08 10:03:48.753
45.0, 29874.4028656963, 32285.597298812547, -21587.538312380115, -15947.880261883767, 9379.32841531377, 2371.8106593859984, 38090.68061002262, 1323.3350304764547, -0.06, 0.9460000000000001, 0.392, 192.0, 0.0, 0.0, 0.0, 0.0, 0.0, 0.0, 0.0, 0.0, 0.0, 1.6546754287535207E9, 0.0, 2022-06-08 10:03:48.753
46.0, 29849.81594679546, 32254.729539719767, -21615.925027838355, -15969.82967493888, 9347.141903298128, 2337.344269435915, 38134.1994564771, 1284.8900300133264, -0.06, 0.9460000000000001, 0.392, 192.0, 0.0, 0.0, 0.0, 0.0, 0.0, 0.0, 0.0, 0.0, 0.0, 1.6546754287535348E9, 0.0, 2022-06-08 10:03:48.753
47.0, 29866.982086537137, 32261.971504923287, -21580.072829732042, -15940.258317024509, 9364.75507792891, 2372.8388396309424, 38099.06251419336, 1300.2456784541225, -0.06, 0.9460000000000001, 0.392, 192.0, 0.0, 0.0, 0.0, 0.0, 0.0, 0.0, 0.0, 0.0, 0.0, 1.6546754287535493E9, 0.0, 2022-06-08 10:03:48.753
48.0, 29887.76920888057, 32273.415598084404, -21548.80273923907, -15909.658778865192, 9393.007682920419, 2400.979685900174, 38034.28715876188, 1333.7956468815385, -0.062, 0.9500000000000001, 0.386, 192.0, 254.0, 16.0, 29.0, 176.0, 12.0, 16.0, 0.0, 0.0, 0.0, 1.654675428753565E9, 0.0, 2022-06-08 10:03:48.753
49.0, 29906.991709112135, 32288.078342447086, -21538.610343767446, -15900.986302016534, 9411.984313962974, 2410.725046482688, 38032.923702350105, 1356.5050192481303, -0.062, 0.9500000000000001, 0.386, 192.0, 0.0, 0.0, 0.0, 0.0, 0.0, 0.0, 0.0, 0.0, 0.0, 1.6546754287535784E9, 0.0, 2022-06-08 10:03:48.753
50.0, 29888.99855482561, 32278.780016753677, -21575.043687229598, -15935.184471033153, 9380.021319391886, 2379.164383311794, 38091.239403634005, 1350.0230133560913, -0.062, 0.9500000000000001, 0.386, 192.0, 0.0, 0.0, 0.0, 0.0, 0.0, 0.0, 0.0, 0.0, 0.0, 1.654675428753594E9, 0.0, 2022-06-08 10:03:48.753
51.0, 29870.71482786117, 32259.021074655186, -21595.584940384026, -15957.245642810542, 9350.986403344441, 2358.2878539905378, 38124.789372061416, 1310.706294859206, -0.062, 0.9500000000000001, 0.386, 192.0, 0.0, 0.0, 0.0, 0.0, 0.0, 0.0, 0.0, 0.0, 0.0, 1.654675428753611E9, 0.0, 2022-06-08 10:03:48.753
52.0, 29881.220147755164, 32261.703283989824, -21570.483931360715, -15939.72187515758, 9362.765772672388, 2374.1575925538054, 38084.62328727523, 1287.9745707481588, -0.062, 0.9500000000000001, 0.386, 192.0, 0.0, 0.0, 0.0, 0.0, 0.0, 0.0, 0.0, 0.0, 0.0, 1.6546754287536273E9, 0.0, 2022-06-08 10:03:48.753
53.0, 29913.92074989328, 32287.7207145358, -21523.8805441714, -15906.373072430262, 9411.738444773966, 2411.7979302165427, 38028.386298225676, 1318.3058879740106, -0.062, 0.9500000000000001, 0.386, 192.0, 0.0, 0.0, 0.0, 0.0, 0.0, 0.0, 0.0, 0.0, 0.0, 1.6546754287536404E9, 0.0, 2022-06-08 10:03:48.753
54.0, 29907.841075401437, 32277.953002208833, -21543.371265336427, -15898.885238037736, 9407.268095882904, 2396.375226542381, 38038.601045441756, 1329.258242757111, -0.062, 0.9500000000000001, 0.386, 192.0, 0.0, 0.0, 0.0, 0.0, 0.0, 0.0, 0.0, 0.0, 0.0, 1.6546754287536542E9, 0.0, 2022-06-08 10:03:48.753
55.0, 29871.273621472556, 32249.23101058376, -21608.481896934736, -15954.831654409369, 9357.244891791928, 2347.268443974071, 38107.06443870836, 1319.4011234523207, -0.062, 0.9500000000000001, 0.386, 192.0, 0.0, 0.0, 0.0, 0.0, 0.0, 0.0, 0.0, 0.0, 0.0, 1.6546754287536695E9, 0.0, 2022-06-08 10:03:48.753
56.0, 29867.876156315346, 32243.307798303107, -21613.287521992628, -15958.296174799942, 9344.169121285573, 2350.241225986627, 38147.856372339294, 1316.9647833066922, -0.062, 0.9500000000000001, 0.386, 192.0, 0.0, 0.0, 0.0, 0.0, 0.0, 0.0, 0.0, 0.0, 0.0, 1.6546754287536838E9, 0.0, 2022-06-08 10:03:48.753
57.0, 29890.406714726298, 32258.037597899154, -21552.535480563103, -15920.946409815124, 9371.706470454512, 2380.7737089125767, 38106.63975556371, 1318.2611844850999, -0.062, 0.9500000000000001, 0.386, 192.0, 0.0, 0.0, 0.0, 0.0, 0.0, 0.0, 0.0, 0.0, 0.0, 1.654675428753699E9, 0.0, 2022-06-08 10:03:48.753
58.0, 29923.040261631046, 32287.228976157785, -21515.409233022838, -15886.323557653852, 9408.072758683296, 2417.0505901635397, 38036.61174018523, 1322.2844984870553, -0.06, 0.9500000000000001, 0.392, 192.0, 254.0, 32.0, 29.0, 176.0, 12.0, 64.0, 0.0, 0.0, 0.0, 1.6546754287537165E9, 0.0, 2022-06-08 10:03:48.753
59.0, 29934.752575725626, 32300.125932708495, -21516.25859931214, -15919.538249914438, 9424.031904224385, 2428.986421702674, 38030.1744377821, 1360.7518506946387, -0.06, 0.9500000000000001, 0.392, 192.0, 0.0, 0.0, 0.0, 0.0, 0.0, 0.0, 0.0, 0.0, 0.0, 1.6546754287537313E9, 0.0, 2022-06-08 10:03:48.753
60.0, 29891.792522882526, 32264.743121235744, -21579.156408209376, -15976.512846531017, 9374.120458855685, 2371.274217519071, 38096.06738043635, 1336.1649317938009, -0.06, 0.9500000000000001, 0.392, 192.0, 0.0, 0.0, 0.0, 0.0, 0.0, 0.0, 0.0, 0.0, 0.0, 1.6546754287537475E9, 0.0, 2022-06-08 10:03:48.753
61.0, 29864.009304524578, 32231.32726327506, -21605.26324573317, -15950.16013981821, 9341.866891606676, 2336.494903146613, 38147.47639268356, 1307.4429401687314, -0.06, 0.9500000000000001, 0.392, 192.0, 0.0, 0.0, 0.0, 0.0, 0.0, 0.0, 0.0, 0.0, 0.0, 1.6546754287537625E9, 0.0, 2022-06-08 10:03:48.753
62.0, 29893.96064209469, 32248.694568716834, -21558.45869284376, -15914.665569623181, 9377.339110057248, 2373.241171031138, 38115.96043300157, 1313.6343733828514, -0.06, 0.9500000000000001, 0.392, 192.0, 0.0, 0.0, 0.0, 0.0, 0.0, 0.0, 0.0, 0.0, 0.0, 1.6546754287537766E9, 0.0, 2022-06-08 10:03:48.753
63.0, 29935.378424570376, 32277.461263830814, -21507.474363741203, -15873.538359825418, 9430.6256688387, 2420.8056832320312, 38057.15299333966, 1353.7781064245828, -0.06, 0.9500000000000001, 0.392, 192.0, 0.0, 0.0, 0.0, 0.0, 0.0, 0.0, 0.0, 0.0, 0.0, 1.6546754287537904E9, 0.0, 2022-06-08 10:03:48.753
64.0, 29922.12384010838, 32263.692589246344, -21534.8328989545, -15900.449860149607, 9417.438139610069, 2396.5540404980234, 38058.13647009569, 1358.8072489270269, -0.06, 0.9500000000000001, 0.392, 192.0, 0.0, 0.0, 0.0, 0.0, 0.0, 0.0, 0.0, 0.0, 0.0, 1.6546754287538083E9, 0.0, 2022-06-08 10:03:48.753
65.0, 29901.224959042665, 32250.192135595342, -21574.50724536267, -15947.567337461394, 9382.547066515335, 2362.0429470590293, 38118.016793491464, 1339.517693462097, -0.06, 0.9500000000000001, 0.392, 192.0, 0.0, 0.0, 0.0, 0.0, 0.0, 0.0, 0.0, 0.0, 0.0, 1.6546754287538218E9, 0.0, 2022-06-08 10:03:48.753
66.0, 29888.842092614424, 32234.702376687812, -21591.98630952672, -15976.78106746448, 9361.447019749525, 2350.08476377544, 38158.920485844676, 1312.650896626818, -0.06, 0.9500000000000001, 0.392, 192.0, 0.0, 0.0, 0.0, 0.0, 0.0, 0.0, 0.0, 0.0, 0.0, 1.6546754287538357E9, 0.0, 2022-06-08 10:03:48.753
67.0, 29881.91305183328, 32219.503190458203, -21587.135980979918, -15949.333125273362, 9351.209920788995, 2353.9963190551184, 38122.86712203826, 1274.0941374414133, -0.06, 0.9500000000000001, 0.392, 192.0, 0.0, 0.0, 0.0, 0.0, 0.0, 0.0, 0.0, 0.0, 0.0, 1.6546754287538495E9, 0.0, 2022-06-08 10:03:48.753
68.0, 29924.023738387077, 32256.540031020646, -21531.50248903066, -15893.81139204638, 9407.20104064954, 2412.7367034836657, 38055.498964249964, 1305.6100971233961, -0.062, 0.9460000000000001, 0.394, 192.0, 254.0, 16.0, 29.0, 144.0, 12.0, 80.0, 0.0, 0.0, 0.0, 1.6546754287538993E9, 0.0, 2022-06-08 10:03:48.753
69.0, 29915.68653770525, 32248.135775105453, -21549.316829361538, -15912.855078322302, 9399.6685027681, 2398.8115666880094, 38057.264752061936, 1328.7218008901837, -0.062, 0.9460000000000001, 0.394, 192.0, 0.0, 0.0, 0.0, 0.0, 0.0, 0.0, 0.0, 0.0, 0.0, 1.6546754287539186E9, 0.0, 2022-06-08 10:03:48.753
70.0, 29884.371743723364, 32226.365176005984, -21596.791934584613, -15965.091105114354, 9355.61321444669, 2351.448220187214, 38121.01192724847, 1315.2660507280889, -0.062, 0.9460000000000001, 0.394, 192.0, 0.0, 0.0, 0.0, 0.0, 0.0, 0.0, 0.0, 0.0, 0.0, 1.6546754287539337E9, 0.0, 2022-06-08 10:03:48.753
71.0, 29857.48259514363, 32196.65970762488, -21627.190307043827, -15993.030785683488, 9313.502527892892, 2319.909908760775, 38161.69210215713, 1275.3458351309105, -0.062, 0.9460000000000001, 0.394, 192.0, 0.0, 0.0, 0.0, 0.0, 0.0, 0.0, 0.0, 0.0, 0.0, 1.6546754287539485E9, 0.0, 2022-06-08 10:03:48.753
72.0, 29892.843054871926, 32215.23400726724, -21575.22250118524, -15937.978439090068, 9346.203130031006, 2365.5745226829677, 38118.75440105848, 1275.837573508927, -0.062, 0.9460000000000001, 0.394, 192.0, 0.0, 0.0, 0.0, 0.0, 0.0, 0.0, 0.0, 0.0, 0.0, 1.6546754287539644E9, 0.0, 2022-06-08 10:03:48.753
73.0, 29942.46392756271, 32251.220315840284, -21514.984549878187, -15884.37895588624, 9406.418729593603, 2426.013639690118, 38058.73996719599, 1311.4439024262313, -0.062, 0.9460000000000001, 0.394, 192.0, 0.0, 0.0, 0.0, 0.0, 0.0, 0.0, 0.0, 0.0, 0.0, 1.6546754287539809E9, 0.0, 2022-06-08 10:03:48.753
74.0, 29973.286983166574, 32277.885946975464, -21489.72707864369, -15860.261423618964, 9442.472093400012, 2449.527674857101, 38063.411481787145, 1350.4923999896528, -0.062, 0.9460000000000001, 0.394, 192.0, 0.0, 0.0, 0.0, 0.0, 0.0, 0.0, 0.0, 0.0, 0.0, 1.6546754287539968E9, 0.0, 2022-06-08 10:03:48.753
75.0, 29941.525154295585, 32253.366083307992, -21543.617134525437, -15897.275912436953, 9402.685988269566, 2398.342180054448, 38123.045935993905, 1348.3913360108538, -0.062, 0.9460000000000001, 0.394, 192.0, 0.0, 0.0, 0.0, 0.0, 0.0, 0.0, 0.0, 0.0, 0.0, 1.6546754287540123E9, 0.0, 2022-06-08 10:03:48.754
76.0, 29894.810008383993, 32206.494475185216, -21607.6995858788, -15959.570224233894, 9347.588938187235, 2346.3743741958588, 38172.93502961815, 1305.9230215457706, -0.062, 0.9460000000000001, 0.394, 192.0, 0.0, 0.0, 0.0, 0.0, 0.0, 0.0, 0.0, 0.0, 0.0, 1.6546754287540276E9, 0.0, 2022-06-08 10:03:48.754
77.0, 29896.53109270705, 32197.821998336556, -21574.50724536267, -15969.695564472147, 9344.32558349676, 2355.4491824447136, 38141.083793769336, 1278.2515619101002, -0.062, 0.9460000000000001, 0.394, 192.0, 0.0, 0.0, 0.0, 0.0, 0.0, 0.0, 0.0, 0.0, 0.0, 1.654675428754042E9, 0.0, 2022-06-08 10:03:48.754
78.0, 29949.929410210778, 32243.866591914488, -21510.022462609108, -15891.1515344562, 9406.91046797162, 2412.110854638917, 38071.05577839086, 1316.6742106287732, -0.06, 0.9440000000000001, 0.396, 192.0, 254.0, 32.0, 29.0, 128.0, 12.0, 96.0, 0.0, 0.0, 0.0, 1.6546754287540574E9, 0.0, 2022-06-08 10:03:48.754
79.0, 29939.55820078352, 32235.216466810285, -21533.715311731736, -15873.516008080962, 9400.920200457598, 2396.2187643311936, 38064.39495854318, 1329.2805945015664, -0.06, 0.9440000000000001, 0.396, 192.0, 0.0, 0.0, 0.0, 0.0, 0.0, 0.0, 0.0, 0.0, 0.0, 1.6546754287540712E9, 0.0, 2022-06-08 10:03:48.754
80.0, 29908.422220757275, 32211.7024316433, -21586.35366992398, -15940.794758891436, 9355.322641768771, 2351.984662054141, 38116.51922661295, 1302.9502395332147, -0.06, 0.9440000000000001, 0.396, 192.0, 0.0, 0.0, 0.0, 0.0, 0.0, 0.0, 0.0, 0.0, 0.0, 1.6546754287540848E9, 0.0, 2022-06-08 10:03:48.754
81.0, 29902.454304987707, 32203.02995479464, -21594.757925839178, -15957.02212536599, 9338.46942644947, 2343.2227782276605, 38145.911770571685, 1278.944465988215, -0.06, 0.9440000000000001, 0.396, 192.0, 0.0, 0.0, 0.0, 0.0, 0.0, 0.0, 0.0, 0.0, 0.0, 1.6546754287540991E9, 0.0, 2022-06-08 10:03:48.754
82.0, 29931.422165801785, 32219.23496952474, -21547.036951427097, -15915.134956256743, 9375.305101311815, 2392.8660026628977, 38119.51436036997, 1295.5741638629634, -0.06, 0.9440000000000001, 0.396, 192.0, 0.0, 0.0, 0.0, 0.0, 0.0, 0.0, 0.0, 0.0, 0.0, 1.654675428754114E9, 0.0, 2022-06-08 10:03:48.754
83.0, 29968.637820319873, 32247.80049893862, -21499.137163059375, -15879.215702917065, 9425.797692036354, 2438.821189263009, 38073.49211853649, 1337.841312627949, -0.06, 0.9440000000000001, 0.396, 192.0, 0.0, 0.0, 0.0, 0.0, 0.0, 0.0, 0.0, 0.0, 0.0, 1.6546754287541285E9, 0.0, 2022-06-08 10:03:48.754
84.0, 29945.861392719915, 32222.855952126498, -21530.966047163733, -15895.778345558447, 9405.47995632648, 2406.6346772473667, 38058.67291196262, 1316.093065272935, -0.06, 0.9440000000000001, 0.396, 192.0, 0.0, 0.0, 0.0, 0.0, 0.0, 0.0, 0.0, 0.0, 0.0, 1.6546754287541437E9, 0.0, 2022-06-08 10:03:48.754
85.0, 29913.518418493084, 32195.117437257464, -21576.854178530477, -15953.803474164424, 9372.37702278817, 2364.6581011603002, 38120.36372665927, 1305.1854139787454, -0.06, 0.9440000000000001, 0.396, 192.0, 0.0, 0.0, 0.0, 0.0, 0.0, 0.0, 0.0, 0.0, 0.0, 1.6546754287541592E9, 0.0, 2022-06-08 10:03:48.754
86.0, 29878.560290164984, 32164.070864209043, -21614.159240026383, -15975.73053547508, 9337.061266548786, 2330.951670521697, 38183.68621870115, 1297.3175999304772, -0.06, 0.9440000000000001, 0.396, 192.0, 0.0, 0.0, 0.0, 0.0, 0.0, 0.0, 0.0, 0.0, 0.0, 1.654675428754176E9, 0.0, 2022-06-08 10:03:48.754
87.0, 29896.64285142933, 32173.27978292463, -21584.096143733997, -15947.008543850012, 9350.13703705514, 2355.9632725671854, 38153.041977052926, 1270.4508030951981, -0.06, 0.9440000000000001, 0.396, 192.0, 0.0, 0.0, 0.0, 0.0, 0.0, 0.0, 0.0, 0.0, 0.0, 1.6546754287541919E9, 0.0, 2022-06-08 10:03:48.754
88.0, 29937.568895526994, 32206.159199018384, -21533.245925098174, -15904.741395085026, 9397.634494022668, 2405.4500347912353, 38080.37645582872, 1284.6888643132288, -0.06, 0.9420000000000001, 0.398, 192.0, 254.0, 32.0, 29.0, 112.0, 12.0, 112.0, 0.0, 0.0, 0.0, 1.6546754287542071E9, 0.0, 2022-06-08 10:03:48.754
89.0, 29960.099453937943, 32223.57120794907, -21520.237209825184, -15881.786153529425, 9421.39439837866, 2427.9358897132743, 38074.16267087015, 1346.0444028430466, -0.06, 0.9420000000000001, 0.398, 192.0, 0.0, 0.0, 0.0, 0.0, 0.0, 0.0, 0.0, 0.0, 0.0, 1.6546754287542214E9, 0.0, 2022-06-08 10:03:48.754
90.0, 29930.282226834566, 32202.784085605635, -21566.17004468084, -15930.892936097734, 9383.57524676028, 2392.7095404517104, 38137.68632861213, 1363.03172862908, -0.06, 0.9420000000000001, 0.398, 192.0, 0.0, 0.0, 0.0, 0.0, 0.0, 0.0, 0.0, 0.0, 0.0, 1.6546754287542367E9, 0.0, 2022-06-08 10:03:48.754
91.0, 29887.72450539166, 32157.499451339183, -21616.461469705282, -15968.756791205025, 9326.93592631053, 2339.467685159169, 38184.69204720164, 1303.553736633508, -0.06, 0.9420000000000001, 0.398, 192.0, 0.0, 0.0, 0.0, 0.0, 0.0, 0.0, 0.0, 0.0, 0.0, 1.6546754287542548E9, 0.0, 2022-06-08 10:03:48.754
92.0, 29917.228808072665, 32175.492605625703, -21571.757980794668, -15933.753959388014, 9354.830903390754, 2373.4199849867805, 38151.924389830165, 1279.1232799438574, -0.06, 0.9420000000000001, 0.398, 192.0, 0.0, 0.0, 0.0, 0.0, 0.0, 0.0, 0.0, 0.0, 0.0, 1.6546754287542696E9, 0.0, 2022-06-08 10:03:48.754
93.0, 29968.59311683096, 32219.436135224838, -21511.49767774316, -15874.790057514914, 9411.939610474064, 2433.456770593735, 38077.56013602736, 1309.3204867029772, -0.06, 0.9420000000000001, 0.398, 192.0, 0.0, 0.0, 0.0, 0.0, 0.0, 0.0, 0.0, 0.0, 0.0, 1.6546754287542832E9, 0.0, 2022-06-08 10:03:48.754
94.0, 29955.763215513616, 32204.013431550677, -21536.621038510926, -15896.426546147652, 9399.869668468198, 2416.558851785523, 38072.709807480554, 1339.7859143955607, -0.06, 0.9420000000000001, 0.398, 192.0, 0.0, 0.0, 0.0, 0.0, 0.0, 0.0, 0.0, 0.0, 0.0, 1.6546754287542963E9, 0.0, 2022-06-08 10:03:48.754
95.0, 29938.954703683223, 32190.04359126611, -21579.446980887293, -15944.013410092999, 9373.069926866285, 2381.6454269463334, 38134.73589834403, 1330.129960790868, -0.06, 0.9420000000000001, 0.398, 192.0, 0.0, 0.0, 0.0, 0.0, 0.0, 0.0, 0.0, 0.0, 0.0, 1.65467542875431E9, 0.0, 2022-06-08 10:03:48.754
96.0, 29923.219075586687, 32175.827881792535, -21587.98534726922, -15993.544875805961, 9344.884377108143, 2361.081822047451, 38183.999143123525, 1313.1426350048346, -0.06, 0.9420000000000001, 0.398, 192.0, 0.0, 0.0, 0.0, 0.0, 0.0, 0.0, 0.0, 0.0, 0.0, 1.6546754287543244E9, 0.0, 2022-06-08 10:03:48.754
97.0, 29926.72829946617, 32167.93771599981, -21559.93390797781, -15920.119395270276, 9349.488836465936, 2365.3286534939593, 38153.06432879738, 1280.3302741444438, -0.06, 0.9420000000000001, 0.398, 192.0, 0.0, 0.0, 0.0, 0.0, 0.0, 0.0, 0.0, 0.0, 0.0, 1.6546754287543383E9, 0.0, 2022-06-08 10:03:48.754
98.0, 29956.54552656955, 32184.388599918915, -21524.7299104607, -15896.158325214188, 9383.083508382262, 2399.9962091441407, 38081.315229095846, 1276.3069601424886, -0.066, 0.932, 0.404, 192.0, 253.0, 240.0, 29.0, 32.0, 12.0, 160.0, 0.0, 0.0, 0.0, 1.6546754287543516E9, 0.0, 2022-06-08 10:03:48.754
99.0, 29962.379331872387, 32186.266146453163, -21529.513183774136, -15907.28949395293, 9392.962979431508, 2410.948563927241, 38072.486290036, 1305.3418761899325, -0.066, 0.932, 0.404, 192.0, 0.0, 0.0, 0.0, 0.0, 0.0, 0.0, 0.0, 0.0, 0.0, 1.6546754287543654E9, 0.0, 2022-06-08 10:03:48.754
100.0, 29925.387194798852, 32156.69478853879, -21587.068925746553, -15952.663535197204, 9341.889243351132, 2363.8087348709983, 38130.64552910871, 1295.3729981628655, -0.066, 0.932, 0.404, 192.0, 0.0, 0.0, 0.0, 0.0, 0.0, 0.0, 0.0, 0.0, 0.0, 1.6546754287543812E9, 0.0, 2022-06-08 10:03:48.754
101.0, 29916.178276083265, 32149.586933802002, -21602.22340848725, -15976.043459897455, 9324.097254764707, 2339.378278181348, 38174.16437556319, 1242.0864393814136, -0.066, 0.932, 0.404, 192.0, 0.0, 0.0, 0.0, 0.0, 0.0, 0.0, 0.0, 0.0, 0.0, 1.6546754287543952E9, 0.0, 2022-06-08 10:03:48.754
102.0, 29945.101433408432, 32168.496509611192, -21559.866852744442, -15945.086293826855, 9353.355688256705, 2377.6668164332887, 38147.56579966137, 1246.1768086167347, -0.066, 0.932, 0.404, 192.0, 0.0, 0.0, 0.0, 0.0, 0.0, 0.0, 0.0, 0.0, 0.0, 1.65467542875441E9, 0.0, 2022-06-08 10:03:48.754
103.0, 29968.459006364228, 32183.159253973874, -21527.143898861876, -15900.539267127428, 9381.317720570292, 2421.6550495213332, 38075.54847902638, 1300.290381943033, -0.066, 0.932, 0.404, 192.0, 0.0, 0.0, 0.0, 0.0, 0.0, 0.0, 0.0, 0.0, 0.0, 1.6546754287544239E9, 0.0, 2022-06-08 10:03:48.754
104.0, 29966.782625530082, 32180.968783017255, -21538.587992022993, -15914.643217878727, 9381.764755459399, 2409.9427354267523, 38056.72831019501, 1301.9444110327258, -0.066, 0.932, 0.404, 192.0, 0.0, 0.0, 0.0, 0.0, 0.0, 0.0, 0.0, 0.0, 0.0, 1.6546754292314029E9, 0.0, 2022-06-08 10:03:49.231
105.0, 29947.671884020794, 32167.736550299713, -21569.187530182306, -15935.676209411171, 9360.776467415866, 2378.13620306685, 38122.129514471235, 1301.5420796325302, -0.066, 0.932, 0.404, 192.0, 0.0, 0.0, 0.0, 0.0, 0.0, 0.0, 0.0, 0.0, 0.0, 1.6546754292315862E9, 0.0, 2022-06-08 10:03:49.231
106.0, 29928.047052389033, 32150.59276230249, -21593.886207805423, -15961.559529490416, 9332.18858625753, 2349.2577492305936, 38172.666808684684, 1280.6208468223629, -0.066, 0.932, 0.404, 192.0, 0.0, 0.0, 0.0, 0.0, 0.0, 0.0, 0.0, 0.0, 0.0, 1.6546754292315977E9, 0.0, 2022-06-08 10:03:49.231
107.0, 29942.97801768518, 32164.115567697954, -21569.54515809359, -15955.390448020751, 9343.319754996272, 2368.5696564399786, 38147.722261872565, 1271.970721718159, -0.07200000000000001, 0.924, 0.402, 192.0, 253.0, 192.0, 28.0, 224.0, 12.0, 144.0, 0.0, 0.0, 0.0, 1.6546754292316272E9, 0.0, 2022-06-08 10:03:49.231
108.0, 29966.112073196422, 32179.046532994096, -21535.726968732713, -15908.183563731143, 9376.892075168142, 2404.3100958240148, 38088.512490810455, 1273.5129920855752, -0.07200000000000001, 0.924, 0.402, 192.0, 0.0, 0.0, 0.0, 0.0, 0.0, 0.0, 0.0, 0.0, 0.0, 1.6546754292316325E9, 0.0, 2022-06-08 10:03:49.231
109.0, 29968.682523808784, 32177.258393437674, -21538.856212956456, -15897.320615925863, 9381.42947929257, 2409.361590070914, 38084.53388029741, 1278.6985967992064, -0.07200000000000001, 0.924, 0.402, 192.0, 0.0, 0.0, 0.0, 0.0, 0.0, 0.0, 0.0, 0.0, 0.0, 1.6546754292316375E9, 0.0, 2022-06-08 10:03:49.231
110.0, 29944.16266014131, 32163.400311875383, -21580.005774498677, -15946.1144740718, 9349.824112632765, 2372.8164878864873, 38139.58622689083, 1277.8715822543602, -0.07200000000000001, 0.924, 0.402, 192.0, 0.0, 0.0, 0.0, 0.0, 0.0, 0.0, 0.0, 0.0, 0.0, 1.6546754292316425E9, 0.0, 2022-06-08 10:03:49.231
111.0, 29906.812895156494, 32131.102041137463, -21619.121327295463, -15988.44867807015, 9309.926248780042, 2330.594042610412, 38195.10796011781, 1263.2758931250446, -0.07200000000000001, 0.924, 0.402, 192.0, 0.0, 0.0, 0.0, 0.0, 0.0, 0.0, 0.0, 0.0, 0.0, 1.654675429231648E9, 0.0, 2022-06-08 10:03:49.231
112.0, 29943.87208746339, 32159.26523915115, -21566.348858636484, -15946.762674661002, 9346.225481775462, 2366.401537227814, 38169.64932318322, 1240.8347416919162, -0.07200000000000001, 0.924, 0.402, 192.0, 0.0, 0.0, 0.0, 0.0, 0.0, 0.0, 0.0, 0.0, 0.0, 1.6546754292316527E9, 0.0, 2022-06-08 10:03:49.231
113.0, 29992.21891072022, 32198.447847181305, -21505.887389884876, -15913.391520189229, 9404.451776081536, 2427.690020524266, 38098.21314790406, 1277.9833409766366, -0.07200000000000001, 0.924, 0.402, 192.0, 0.0, 0.0, 0.0, 0.0, 0.0, 0.0, 0.0, 0.0, 0.0, 1.6546754292316585E9, 0.0, 2022-06-08 10:03:49.231
114.0, 29984.954593772247, 32188.210748220772, -21516.705634201247, -15870.14089466821, 9399.154412645628, 2421.43153207678, 38088.66895302164, 1316.0483617840246, -0.07200000000000001, 0.924, 0.402, 192.0, 0.0, 0.0, 0.0, 0.0, 0.0, 0.0, 0.0, 0.0, 0.0, 1.654675429231663E9, 0.0, 2022-06-08 10:03:49.231
115.0, 29952.477509078686, 32160.494585096192, -21569.835730771512, -15924.746206372525, 9358.876569137165, 2374.626979187367, 38143.54248565942, 1301.4750243991643, -0.07200000000000001, 0.924, 0.402, 192.0, 0.0, 0.0, 0.0, 0.0, 0.0, 0.0, 0.0, 0.0, 0.0, 1.6546754292316675E9, 0.0, 2022-06-08 10:03:49.231
116.0, 29949.080043921476, 32161.478061852227, -21579.8940157764, -15949.936622373656, 9344.750266641411, 2365.015729071585, 38180.869898899786, 1269.5343815725305, -0.07200000000000001, 0.924, 0.402, 192.0, 0.0, 0.0, 0.0, 0.0, 0.0, 0.0, 0.0, 0.0, 0.0, 1.654675429231672E9, 0.0, 2022-06-08 10:03:49.231
117.0, 29978.36082915793, 32186.199091219794, -21541.381960079903, -15911.58102888835, 9387.419746806592, 2401.1584998558164, 38161.22271552357, 1287.616942836874, -0.066, 0.926, 0.396, 192.0, 253.0, 240.0, 28.0, 240.0, 12.0, 96.0, 0.0, 0.0, 0.0, 1.654675429231677E9, 0.0, 2022-06-08 10:03:49.231
118.0, 30005.227625993208, 32208.41672520837, -21501.26057878263, -15877.85224650529, 9430.715075816523, 2436.764828773121, 38117.07802022434, 1318.3952949518318, -0.066, 0.926, 0.396, 192.0, 0.0, 0.0, 0.0, 0.0, 0.0, 0.0, 0.0, 0.0, 0.0, 1.654675429231682E9, 0.0, 2022-06-08 10:03:49.231
119.0, 30005.004108548655, 32202.694678627813, -21493.05748856753, -15894.794868802413, 9428.546956604358, 2428.360572857925, 38105.79038927441, 1317.389466451343, -0.066, 0.926, 0.396, 192.0, 0.0, 0.0, 0.0, 0.0, 0.0, 0.0, 0.0, 0.0, 0.0, 1.6546754292316897E9, 0.0, 2022-06-08 10:03:49.231
120.0, 29969.509538353628, 32177.101931226487, -21551.619059040437, -15936.257354767009, 9387.598560762235, 2377.085671077451, 38152.59494216382, 1298.8822220423488, -0.066, 0.926, 0.396, 192.0, 0.0, 0.0, 0.0, 0.0, 0.0, 0.0, 0.0, 0.0, 0.0, 1.6546754292316945E9, 0.0, 2022-06-08 10:03:49.231
121.0, 29938.015930416102, 32150.302189624574, -21590.8463705595, -15991.041480426966, 9356.551987713812, 2339.2888712035265, 38194.03507638396, 1263.6558727807849, -0.066, 0.926, 0.396, 192.0, 0.0, 0.0, 0.0, 0.0, 0.0, 0.0, 0.0, 0.0, 0.0, 1.6546754292316992E9, 0.0, 2022-06-08 10:03:49.231
122.0, 29932.763270469102, 32137.986378429698, -21580.296347176594, -15965.694602214648, 9356.194359802528, 2341.9710805381633, 38176.95834362011, 1231.0223258760366, -0.066, 0.926, 0.396, 192.0, 0.0, 0.0, 0.0, 0.0, 0.0, 0.0, 0.0, 0.0, 0.0, 1.6546754292317035E9, 0.0, 2022-06-08 10:03:49.231
123.0, 29963.876898750892, 32162.75211128618, -21538.967971678732, -15919.940581314635, 9392.448889309037, 2384.2158775586936, 38122.97888076054, 1254.5810645319302, -0.066, 0.926, 0.396, 192.0, 0.0, 0.0, 0.0, 0.0, 0.0, 0.0, 0.0, 0.0, 0.0, 1.654675429231708E9, 0.0, 2022-06-08 10:03:49.231
124.0, 29986.85449205095, 32178.353628915982, -21524.774613949612, -15910.843421321324, 9413.213659908017, 2396.7775579425765, 38110.193682932106, 1291.1708702052679, -0.066, 0.926, 0.396, 192.0, 0.0, 0.0, 0.0, 0.0, 0.0, 0.0, 0.0, 0.0, 0.0, 1.6546754292317128E9, 0.0, 2022-06-08 10:03:49.231
125.0, 29966.44734936325, 32163.8920502534, -21560.7385707782, -15948.662572939704, 9385.698662483534, 2354.2198364996716, 38153.13138403075, 1269.6684920392624, -0.066, 0.926, 0.396, 192.0, 0.0, 0.0, 0.0, 0.0, 0.0, 0.0, 0.0, 0.0, 0.0, 1.6546754292317176E9, 0.0, 2022-06-08 10:03:49.231
126.0, 29944.274418863588, 32140.422718575326, -21592.12041999345, -15982.25724485603, 9348.41595273208, 2317.1382924483173, 38199.55595726442, 1229.748276442084, -0.066, 0.926, 0.396, 192.0, 0.0, 0.0, 0.0, 0.0, 0.0, 0.0, 0.0, 0.0, 0.0, 1.6546754292317224E9, 0.0, 2022-06-08 10:03:49.231
127.0, 29965.68739005177, 32153.789061759602, -21551.50730031816, -15943.208747292609, 9377.763793201899, 2351.850551587409, 38197.83487294136, 1261.9347884577262, -0.07200000000000001, 0.92, 0.384, 192.0, 253.0, 192.0, 28.0, 192.0, 12.0, 0.0, 0.0, 0.0, 0.0, 1.654675429231727E9, 0.0, 2022-06-08 10:03:49.231
128.0, 29994.431733421297, 32173.995038747198, -21510.804773665044, -15900.852191549802, 9408.139813916661, 2386.361645026403, 38143.6542443817, 1286.9240387587595, -0.07200000000000001, 0.92, 0.384, 192.0, 0.0, 0.0, 0.0, 0.0, 0.0, 0.0, 0.0, 0.0, 0.0, 1.654675429231737E9, 0.0, 2022-06-08 10:03:49.231
129.0, 29989.112018240932, 32168.362399144462, -21528.954390162755, -15920.007636548, 9392.33713058676, 2375.7222146656773, 38116.608633590775, 1273.133012429835, -0.07200000000000001, 0.92, 0.384, 192.0, 0.0, 0.0, 0.0, 0.0, 0.0, 0.0, 0.0, 0.0, 0.0, 1.6546754292317436E9, 0.0, 2022-06-08 10:03:49.231
130.0, 29979.523119869606, 32169.94937300079, -21548.042779927586, -15936.816148378392, 9380.736575214456, 2367.049737817018, 38164.10609055831, 1289.2709719265667, -0.07200000000000001, 0.92, 0.384, 192.0, 0.0, 0.0, 0.0, 0.0, 0.0, 0.0, 0.0, 0.0, 0.0, 1.6546754292317483E9, 0.0, 2022-06-08 10:03:49.231
131.0, 29963.765140028616, 32161.008675218665, -21564.42660861333, -15971.595462750849, 9356.730801669455, 2348.4083829412916, 38222.51119882002, 1277.2010299207009, -0.07200000000000001, 0.92, 0.384, 192.0, 0.0, 0.0, 0.0, 0.0, 0.0, 0.0, 0.0, 0.0, 0.0, 1.6546754292317529E9, 0.0, 2022-06-08 10:03:49.231
132.0, 29979.746637314158, 32168.87648926693, -21539.236192612196, -15965.180512092176, 9368.733688441955, 2361.439449958736, 38206.64146025675, 1252.7258697421396, -0.07200000000000001, 0.92, 0.384, 192.0, 0.0, 0.0, 0.0, 0.0, 0.0, 0.0, 0.0, 0.0, 0.0, 1.6546754292317572E9, 0.0, 2022-06-08 10:03:49.231
133.0, 30024.04779482458, 32202.80643735009, -21486.754296631134, -15858.85326371828, 9418.019284965907, 2402.9019359233303, 38144.45890718209, 1259.0290616785362, -0.07200000000000001, 0.92, 0.384, 192.0, 0.0, 0.0, 0.0, 0.0, 0.0, 0.0, 0.0, 0.0, 0.0, 1.6546754292317617E9, 0.0, 2022-06-08 10:03:49.231
134.0, 30025.567713447537, 32199.31956521506, -21493.34806124545, -15878.99218547251, 9421.550860589847, 2411.596764516445, 38123.82824704984, 1317.3447629624322, -0.07200000000000001, 0.92, 0.384, 192.0, 0.0, 0.0, 0.0, 0.0, 0.0, 0.0, 0.0, 0.0, 0.0, 1.6546754292317665E9, 0.0, 2022-06-08 10:03:49.231
135.0, 29994.677602610303, 32172.944506757798, -21538.990323423186, -15935.430340222161, 9383.217618848994, 2373.7552611536103, 38168.1070528158, 1326.486626444653, -0.07200000000000001, 0.92, 0.384, 192.0, 0.0, 0.0, 0.0, 0.0, 0.0, 0.0, 0.0, 0.0, 0.0, 1.654675429231771E9, 0.0, 2022-06-08 10:03:49.231
136.0, 29974.11399771142, 32151.620942547437, -21564.381905124417, -15968.175645849187, 9362.698717439023, 2345.3238422064596, 38217.75027725104, 1296.1553092188012, -0.07200000000000001, 0.92, 0.384, 192.0, 0.0, 0.0, 0.0, 0.0, 0.0, 0.0, 0.0, 0.0, 0.0, 1.6546754292317755E9, 0.0, 2022-06-08 10:03:49.231
137.0, 29968.682523808784, 32140.445070319784, -21557.117588176443, -15964.73347720307, 9359.882397637653, 2357.8408191014314, 38195.62205024029, 1269.2214571501563, -0.068, 0.9480000000000001, 0.386, 192.0, 253.0, 224.0, 29.0, 160.0, 12.0, 16.0, 0.0, 0.0, 0.0, 1.65467542923178E9, 0.0, 2022-06-08 10:03:49.231
138.0, 30010.36852721793, 32178.17481496034, -21501.90877937183, -15906.306017196897, 9414.778282019888, 2415.4859680516684, 38134.512380899476, 1294.4789283846533, -0.068, 0.9480000000000001, 0.386, 192.0, 0.0, 0.0, 0.0, 0.0, 0.0, 0.0, 0.0, 0.0, 0.0, 1.6546754292317848E9, 0.0, 2022-06-08 10:03:49.231
139.0, 30020.583274434004, 32190.065943010562, -21497.706651414235, -15919.38178770325, 9437.308840430838, 2426.326564112492, 38118.285014424924, 1325.8160741109937, -0.068, 0.9480000000000001, 0.386, 192.0, 0.0, 0.0, 0.0, 0.0, 0.0, 0.0, 0.0, 0.0, 0.0, 1.6546754292317896E9, 0.0, 2022-06-08 10:03:49.231
