%OpenBCI Raw EEG Data
%Number of channels = 8
%Sample Rate = 250 Hz
%Board = OpenBCI_GUI$BoardCytonSerial
Sample Index, EXG Channel 0, EXG Channel 1, EXG Channel 2, EXG Channel 3, EXG Channel 4, EXG Channel 5, EXG Channel 6, EXG Channel 7, Accel Channel 0, Accel Channel 1, Accel Channel 2, Other, Other, Other, Other, Other, Other, Other, Analog Channel 0, Analog Channel 1, Analog Channel 2, Timestamp, Other, Timestamp (Formatted)
0.0, 0.0, 0.0, 0.0, 0.0, 0.0, 0.0, 0.0, 0.0, 0.0, 0.0, 0.0, 192.0, 0.0, 0.0, 0.0, 0.0, 0.0, 0.0, 0.0, 0.0, 0.0, 1.6541551205042505E9, 0.0, 2022-06-02 09:32:00.504
1.0, 22366.787179325485, -8699.120128049866, -62915.824403265055, -29094.014059783705, -14137.277202281619, -39054.510182679915, -9799.965894218194, -31323.48881047831, -0.042, 0.916, 0.456, 192.0, 254.0, 176.0, 28.0, 160.0, 14.0, 64.0, 0.0, 0.0, 0.0, 1.6541551209910476E9, 0.0, 2022-06-02 09:32:00.991
2.0, 22375.683173618698, -8691.453479701697, -62917.567839332565, -29088.85080681453, -14128.515318455138, -39051.00095880043, -9795.517897071588, -31319.53255170972, -0.042, 0.916, 0.456, 192.0, 0.0, 0.0, 0.0, 0.0, 0.0, 0.0, 0.0, 0.0, 0.0, 1.6541551209913027E9, 0.0, 2022-06-02 09:32:00.991
3.0, 22372.37511543931, -8703.255200774098, -62932.02941799515, -29105.05582154463, -14144.094484340489, -39067.83182237528, -9810.27004841209, -31344.834726433128, -0.042, 0.916, 0.456, 192.0, 0.0, 0.0, 0.0, 0.0, 0.0, 0.0, 0.0, 0.0, 0.0, 1.6541551209913087E9, 0.0, 2022-06-02 09:32:00.991
4.0, 22375.437304429688, -8704.261029274587, -62936.388008163936, -29108.69915589084, -14150.934118143812, -39071.721025910505, -9821.624734595387, -31353.976589915346, -0.042, 0.916, 0.456, 192.0, 0.0, 0.0, 0.0, 0.0, 0.0, 0.0, 0.0, 0.0, 0.0, 1.6541551209913146E9, 0.0, 2022-06-02 09:32:00.991
5.0, 22360.059304244438, -8711.77121541157, -62943.786435578644, -29111.6719379034, -14156.343240301996, -39073.93384861158, -9825.580993363976, -31349.305075324188, -0.042, 0.916, 0.456, 192.0, 0.0, 0.0, 0.0, 0.0, 0.0, 0.0, 0.0, 0.0, 0.0, 1.654155120991321E9, 0.0, 2022-06-02 09:32:00.991
6.0, 22362.741513579072, -8696.750843137605, -62930.084816227536, -29096.517455162702, -14146.329658786019, -39059.472269948994, -9821.289458428557, -31340.92317115345, -0.042, 0.916, 0.456, 192.0, 0.0, 0.0, 0.0, 0.0, 0.0, 0.0, 0.0, 0.0, 0.0, 1.654155120991327E9, 0.0, 2022-06-02 09:32:00.991
7.0, 22373.336240450888, -8693.554543680495, -62932.36469416198, -29096.62921388498, -14143.759208173658, -39060.58985717176, -9827.704409087231, -31335.670511206452, -0.042, 0.916, 0.456, 192.0, 0.0, 0.0, 0.0, 0.0, 0.0, 0.0, 0.0, 0.0, 0.0, 1.6541551209913325E9, 0.0, 2022-06-02 09:32:00.991
8.0, 22368.932946793193, -8712.195898556221, -62948.055618769606, -29115.53878969417, -14148.31896404254, -39082.271049293406, -9808.75012978913, -31346.198182844902, -0.036000000000000004, 0.92, 0.442, 192.0, 254.0, 224.0, 28.0, 192.0, 13.0, 208.0, 0.0, 0.0, 0.0, 1.6541551209913385E9, 0.0, 2022-06-02 09:32:00.991
9.0, 22357.913536776727, -8724.82463417347, -62960.08085728656, -29130.648568945955, -14160.791237448602, -39096.24088957797, -9823.167004962803, -31372.148558157514, -0.036000000000000004, 0.92, 0.442, 192.0, 0.0, 0.0, 0.0, 0.0, 0.0, 0.0, 0.0, 0.0, 0.0, 1.6541551209913447E9, 0.0, 2022-06-02 09:32:00.991
10.0, 22354.359609408333, -8722.455349261207, -62952.593022894034, -29125.351205510047, -14159.60659499247, -39087.74722668496, -9824.508109630122, -31360.816223718673, -0.036000000000000004, 0.92, 0.442, 192.0, 0.0, 0.0, 0.0, 0.0, 0.0, 0.0, 0.0, 0.0, 0.0, 1.6541551209913507E9, 0.0, 2022-06-02 09:32:00.991
11.0, 22361.33335367839, -8705.088043819433, -62928.475490626755, -29099.33377496407, -14139.46767323824, -39059.9193048381, -9804.70446404272, -31333.3459297831, -0.036000000000000004, 0.92, 0.442, 192.0, 0.0, 0.0, 0.0, 0.0, 0.0, 0.0, 0.0, 0.0, 0.0, 1.654155120991356E9, 0.0, 2022-06-02 09:32:00.991
12.0, 22372.509225906044, -8696.01323557058, -62922.93225800184, -29090.19191148185, -14126.771882387626, -39056.70065363654, -9794.422661593278, -31340.140860097512, -0.036000000000000004, 0.92, 0.442, 192.0, 0.0, 0.0, 0.0, 0.0, 0.0, 0.0, 0.0, 0.0, 0.0, 1.6541551209913619E9, 0.0, 2022-06-02 09:32:00.991
13.0, 22363.635583357285, -8720.287230049042, -62953.68825837234, -29119.115068807016, -14151.60467047747, -39087.61311621823, -9828.665534098809, -31374.62960179205, -0.036000000000000004, 0.92, 0.442, 192.0, 0.0, 0.0, 0.0, 0.0, 0.0, 0.0, 0.0, 0.0, 0.0, 1.6541551209913673E9, 0.0, 2022-06-02 09:32:00.991
14.0, 22359.791083310974, -8731.597212743427, -62963.34421197703, -29131.90026663545, -14169.843693953002, -39098.94545065707, -9857.745153635164, -31371.232136634844, -0.036000000000000004, 0.92, 0.442, 192.0, 0.0, 0.0, 0.0, 0.0, 0.0, 0.0, 0.0, 0.0, 0.0, 1.6541551209913733E9, 0.0, 2022-06-02 09:32:00.991
15.0, 22358.315868176924, -8730.189052842743, -62957.063371785094, -29126.28997877717, -14162.780542705124, -39092.55285174285, -9848.603290152943, -31344.38769154402, -0.036000000000000004, 0.92, 0.442, 192.0, 0.0, 0.0, 0.0, 0.0, 0.0, 0.0, 0.0, 0.0, 0.0, 1.6541551209913788E9, 0.0, 2022-06-02 09:32:00.991
16.0, 22369.71525784913, -8708.351398509909, -62932.47645288426, -29096.517455162702, -14137.992458104189, -39061.39451997215, -9807.856060010918, -31315.844513874596, -0.036000000000000004, 0.92, 0.442, 192.0, 0.0, 0.0, 0.0, 0.0, 0.0, 0.0, 0.0, 0.0, 0.0, 1.6541551209913845E9, 0.0, 2022-06-02 09:32:00.991
17.0, 22375.839635829885, -8703.143442051822, -62923.871031268965, -29089.834283570563, -14135.779635403114, -39055.18073501358, -9799.474155840178, -31317.185618541913, -0.036000000000000004, 0.92, 0.442, 192.0, 0.0, 0.0, 0.0, 0.0, 0.0, 0.0, 0.0, 0.0, 0.0, 1.6541551209913902E9, 0.0, 2022-06-02 09:32:00.991
18.0, 22366.340144436377, -8719.281401548553, -62943.428807667355, -29111.873103603495, -14147.80487392007, -39078.09127308027, -9822.854080540428, -31361.509127796788, -0.036000000000000004, 0.918, 0.448, 192.0, 254.0, 224.0, 28.0, 176.0, 14.0, 0.0, 0.0, 0.0, 0.0, 1.6541551209913957E9, 0.0, 2022-06-02 09:32:00.991
19.0, 22347.028237226994, -8743.354230326919, -62968.44040971284, -29140.036301617183, -14173.37526957694, -39103.63931699268, -9846.524577918599, -31402.479875383364, -0.036000000000000004, 0.918, 0.448, 192.0, 0.0, 0.0, 0.0, 0.0, 0.0, 0.0, 0.0, 0.0, 0.0, 1.6541551209914014E9, 0.0, 2022-06-02 09:32:00.991
20.0, 22339.0710162009, -8742.661326248804, -62964.953537577814, -29133.420185258412, -14176.169237633854, -39091.61407847572, -9864.540083949576, -31367.477043566352, -0.036000000000000004, 0.918, 0.448, 192.0, 0.0, 0.0, 0.0, 0.0, 0.0, 0.0, 0.0, 0.0, 0.0, 1.654155120991408E9, 0.0, 2022-06-02 09:32:00.991
21.0, 22350.582164595387, -8719.34845678192, -62944.94872629032, -29106.821609356597, -14158.131379858421, -39063.741453139955, -9868.272825273612, -31324.315825023157, -0.036000000000000004, 0.918, 0.448, 192.0, 0.0, 0.0, 0.0, 0.0, 0.0, 0.0, 0.0, 0.0, 0.0, 1.6541551209914136E9, 0.0, 2022-06-02 09:32:00.991
22.0, 22354.404312897244, -8718.208517814699, -62944.68050535685, -29108.497990190746, -14148.60953672046, -39069.21763053151, -9834.253470212636, -31369.376941845054, -0.036000000000000004, 0.918, 0.448, 192.0, 0.0, 0.0, 0.0, 0.0, 0.0, 0.0, 0.0, 0.0, 0.0, 1.6541551209914286E9, 0.0, 2022-06-02 09:32:00.991
23.0, 22354.94075476417, -8736.335782567952, -62963.6124329105, -29128.838077645076, -14158.354897302974, -39089.06597960782, -9828.151443976336, -31392.287479911745, -0.036000000000000004, 0.918, 0.448, 192.0, 0.0, 0.0, 0.0, 0.0, 0.0, 0.0, 0.0, 0.0, 0.0, 1.654155120991434E9, 0.0, 2022-06-02 09:32:00.991
24.0, 22346.670609315708, -8745.54470128354, -62971.03321206966, -29141.95855164034, -14167.809685207569, -39099.57129950182, -9842.85889182793, -31365.845366221118, -0.036000000000000004, 0.918, 0.448, 192.0, 0.0, 0.0, 0.0, 0.0, 0.0, 0.0, 0.0, 0.0, 0.0, 1.654155120991439E9, 0.0, 2022-06-02 09:32:00.991
25.0, 22352.95144950765, -8727.752712697114, -62946.60275538001, -29119.18212404038, -14152.051705366577, -39074.224421289495, -9824.37399916339, -31340.699653708896, -0.036000000000000004, 0.918, 0.448, 192.0, 0.0, 0.0, 0.0, 0.0, 0.0, 0.0, 0.0, 0.0, 0.0, 1.6541551209914443E9, 0.0, 2022-06-02 09:32:00.991
26.0, 22362.205071712146, -8709.066654332479, -62925.14508070292, -29098.372649952493, -14122.860327107946, -39053.97374081299, -9791.561638303, -31321.85713313307, -0.036000000000000004, 0.918, 0.448, 192.0, 0.0, 0.0, 0.0, 0.0, 0.0, 0.0, 0.0, 0.0, 0.0, 1.6541551209914496E9, 0.0, 2022-06-02 09:32:00.991
27.0, 22375.437304429688, -8698.226058271654, -62920.96530448977, -29091.89064406045, -14110.253943235153, -39045.90476106462, -9795.719062771686, -31339.35854904158, -0.03, 0.916, 0.448, 192.0, 255.0, 16.0, 28.0, 160.0, 14.0, 0.0, 0.0, 0.0, 0.0, 1.6541551209914556E9, 0.0, 2022-06-02 09:32:00.991
28.0, 22373.559757895444, -8713.425244501263, -62943.67467685637, -29114.354147238035, -14128.850594621968, -39066.35660724123, -9821.37886540638, -31352.47902303684, -0.03, 0.916, 0.448, 192.0, 0.0, 0.0, 0.0, 0.0, 0.0, 0.0, 0.0, 0.0, 0.0, 1.6541551209914615E9, 0.0, 2022-06-02 09:32:00.991
29.0, 22365.24490895807, -8728.378561541864, -62966.80873236761, -29135.43184225939, -14154.510397256661, -39088.17190982961, -9854.325336733502, -31363.16315688648, -0.03, 0.916, 0.448, 192.0, 0.0, 0.0, 0.0, 0.0, 0.0, 0.0, 0.0, 0.0, 0.0, 1.6541551209914665E9, 0.0, 2022-06-02 09:32:00.991
30.0, 22368.262394459536, -8714.788700913037, -62957.86803458548, -29123.831286887085, -14147.246080308687, -39076.54900271285, -9832.107702744926, -31375.948354714914, -0.03, 0.916, 0.448, 192.0, 0.0, 0.0, 0.0, 0.0, 0.0, 0.0, 0.0, 0.0, 0.0, 1.6541551209914725E9, 0.0, 2022-06-02 09:32:00.991
31.0, 22382.545159166475, -8691.945218079713, -62931.87295578396, -29095.869254573496, -14117.965295072234, -39049.145764010646, -9799.60826630691, -31342.82306943215, -0.03, 0.916, 0.448, 192.0, 0.0, 0.0, 0.0, 0.0, 0.0, 0.0, 0.0, 0.0, 0.0, 1.654155120991478E9, 0.0, 2022-06-02 09:32:00.991
32.0, 22383.774505111516, -8697.890782104825, -62938.24320295372, -29102.39596395445, -14121.452167207262, -39057.237095503464, -9793.886219726352, -31326.10396457958, -0.03, 0.916, 0.448, 192.0, 0.0, 0.0, 0.0, 0.0, 0.0, 0.0, 0.0, 0.0, 0.0, 1.6541551209914832E9, 0.0, 2022-06-02 09:32:00.991
33.0, 22379.706487620653, -8712.06178808949, -62957.39864795192, -29119.070365318104, -14136.494891225684, -39073.956200356035, -9805.062091954005, -31359.989209173826, -0.03, 0.916, 0.448, 192.0, 0.0, 0.0, 0.0, 0.0, 0.0, 0.0, 0.0, 0.0, 0.0, 1.6541551209914885E9, 0.0, 2022-06-02 09:32:00.991
34.0, 22374.67734511821, -8720.197823071221, -62966.3616974785, -29123.250141531247, -14144.630926207416, -39078.35949401373, -9829.537252132566, -31362.470252808365, -0.03, 0.916, 0.448, 192.0, 0.0, 0.0, 0.0, 0.0, 0.0, 0.0, 0.0, 0.0, 0.0, 1.654155120991494E9, 0.0, 2022-06-02 09:32:00.991
35.0, 22374.90086256276, -8719.035532359545, -62962.383086965456, -29118.04218507316, -14145.100312840977, -39076.258430034926, -9827.302077687034, -31366.4041598325, -0.03, 0.916, 0.448, 192.0, 0.0, 0.0, 0.0, 0.0, 0.0, 0.0, 0.0, 0.0, 0.0, 1.6541551209914992E9, 0.0, 2022-06-02 09:32:00.991
36.0, 22371.659859616742, -8709.826613643958, -62947.18390073585, -29104.340565722057, -14128.671780666326, -39060.70161589404, -9815.969743248193, -31341.63842697602, -0.03, 0.916, 0.448, 192.0, 0.0, 0.0, 0.0, 0.0, 0.0, 0.0, 0.0, 0.0, 0.0, 1.654155120991505E9, 0.0, 2022-06-02 09:32:00.991
37.0, 22365.155501980247, -8713.24643054562, -62947.45212166931, -29103.826475599588, -14121.742739885181, -39056.186563514064, -9808.884240255862, -31316.313900508154, -0.034, 0.908, 0.45, 192.0, 254.0, 240.0, 28.0, 96.0, 14.0, 16.0, 0.0, 0.0, 0.0, 1.6541551209915102E9, 0.0, 2022-06-02 09:32:00.991
38.0, 22365.42372291371, -8725.20461382921, -62964.8641306, -29119.71856590731, -14137.634830192905, -39070.379921243184, -9825.782159064074, -31331.91541813796, -0.034, 0.908, 0.45, 192.0, 0.0, 0.0, 0.0, 0.0, 0.0, 0.0, 0.0, 0.0, 0.0, 1.6541551209915154E9, 0.0, 2022-06-02 09:32:00.991
39.0, 22359.321696677413, -8740.49320703664, -62982.879636630976, -29138.38227252749, -14154.778618190125, -39089.06597960782, -9839.953165048739, -31368.25935462229, -0.034, 0.908, 0.45, 192.0, 0.0, 0.0, 0.0, 0.0, 0.0, 0.0, 0.0, 0.0, 0.0, 1.6541551209915204E9, 0.0, 2022-06-02 09:32:00.991
40.0, 22352.48206287409, -8738.168625613287, -62977.04583132814, -29135.09656609256, -14154.935080401312, -39087.50135749595, -9838.477949914688, -31371.92504071296, -0.034, 0.908, 0.45, 192.0, 0.0, 0.0, 0.0, 0.0, 0.0, 0.0, 0.0, 0.0, 0.0, 1.654155120991526E9, 0.0, 2022-06-02 09:32:00.991
41.0, 22354.113740219324, -8726.903346407813, -62956.70574387381, -29121.730222908285, -14141.03229535011, -39071.63161893268, -9834.85696731293, -31356.323523083156, -0.034, 0.908, 0.45, 192.0, 0.0, 0.0, 0.0, 0.0, 0.0, 0.0, 0.0, 0.0, 0.0, 1.654155120991531E9, 0.0, 2022-06-02 09:32:00.991
42.0, 22362.38388566779, -8723.148253339321, -62955.0070112952, -29116.90224610594, -14129.051760322067, -39064.54611594035, -9822.630563095876, -31345.170002599956, -0.034, 0.908, 0.45, 192.0, 0.0, 0.0, 0.0, 0.0, 0.0, 0.0, 0.0, 0.0, 0.0, 1.6541551209915361E9, 0.0, 2022-06-02 09:32:00.991
43.0, 22362.76386532353, -8729.898480164824, -62963.59008116604, -29123.51836246471, -14138.528899971117, -39073.464461978016, -9828.151443976336, -31331.66954894895, -0.034, 0.908, 0.45, 192.0, 0.0, 0.0, 0.0, 0.0, 0.0, 0.0, 0.0, 0.0, 0.0, 1.654155120991544E9, 0.0, 2022-06-02 09:32:00.991
44.0, 22356.974763509603, -8736.15696861231, -62970.94380509184, -29133.531943980688, -14158.109028113966, -39084.17094757211, -9845.42934244029, -31360.458595807388, -0.034, 0.908, 0.45, 192.0, 0.0, 0.0, 0.0, 0.0, 0.0, 0.0, 0.0, 0.0, 0.0, 1.6541551209915493E9, 0.0, 2022-06-02 09:32:00.991
45.0, 22355.790121053473, -8735.911099423301, -62968.75333413522, -29132.459060246834, -14165.060420639566, -39080.50526148144, -9847.888034330374, -31371.58976454613, -0.034, 0.908, 0.45, 192.0, 0.0, 0.0, 0.0, 0.0, 0.0, 0.0, 0.0, 0.0, 0.0, 1.6541551209915547E9, 0.0, 2022-06-02 09:32:00.991
46.0, 22359.52286237751, -8725.763407440592, -62946.80392108011, -29112.56600768161, -14142.485158739706, -39063.62969441768, -9823.189356707258, -31347.762804956772, -0.034, 0.908, 0.45, 192.0, 0.0, 0.0, 0.0, 0.0, 0.0, 0.0, 0.0, 0.0, 0.0, 1.6541551209915602E9, 0.0, 2022-06-02 09:32:00.991
47.0, 22366.943641536673, -8722.63416321685, -62936.05273199711, -29106.307519234124, -14130.728141156214, -39058.13116528167, -9805.687940798753, -31336.788098429217, -0.03, 0.922, 0.452, 192.0, 255.0, 16.0, 28.0, 208.0, 14.0, 32.0, 0.0, 0.0, 0.0, 1.654155120991566E9, 0.0, 2022-06-02 09:32:00.991
48.0, 22364.440246157676, -8734.413532544797, -62945.7086856018, -29119.71856590731, -14136.69605692578, -39072.23511603298, -9820.954182261728, -31349.282723579734, -0.03, 0.922, 0.452, 192.0, 0.0, 0.0, 0.0, 0.0, 0.0, 0.0, 0.0, 0.0, 0.0, 1.6541551209915712E9, 0.0, 2022-06-02 09:32:00.991
49.0, 22345.32950464839, -8760.699184024237, -62975.68237491637, -29149.96047615534, -14169.933100930823, -39099.86187217973, -9856.582862923487, -31384.620831563574, -0.03, 0.922, 0.452, 192.0, 0.0, 0.0, 0.0, 0.0, 0.0, 0.0, 0.0, 0.0, 0.0, 1.6541551209915764E9, 0.0, 2022-06-02 09:32:00.991
50.0, 22357.98059201009, -8740.515558781095, -62956.52692991817, -29131.58734221308, -14161.439438037807, -39081.26522079292, -9860.494418203167, -31363.78900573123, -0.03, 0.922, 0.452, 192.0, 0.0, 0.0, 0.0, 0.0, 0.0, 0.0, 0.0, 0.0, 0.0, 1.654155120991582E9, 0.0, 2022-06-02 09:32:00.991
51.0, 22372.19630148367, -8712.9558578677, -62927.11203421498, -29100.80899009812, -14135.645524936383, -39046.0165197869, -9834.029952768082, -31310.681260905418, -0.03, 0.922, 0.452, 192.0, 0.0, 0.0, 0.0, 0.0, 0.0, 0.0, 0.0, 0.0, 0.0, 1.6541551209915872E9, 0.0, 2022-06-02 09:32:00.991
52.0, 22385.42853420121, -8701.109433306388, -62917.52313584366, -29092.382382438467, -14124.60376317546, -39034.25950220341, -9832.130054489382, -31317.52089470874, -0.03, 0.922, 0.452, 192.0, 0.0, 0.0, 0.0, 0.0, 0.0, 0.0, 0.0, 0.0, 0.0, 1.6541551209915924E9, 0.0, 2022-06-02 09:32:00.991
53.0, 22369.201167726656, -8724.265840562086, -62944.211118723295, -29123.451307231346, -14149.682420454315, -39068.92705785359, -9851.28549948758, -31390.856968266606, -0.03, 0.922, 0.452, 192.0, 0.0, 0.0, 0.0, 0.0, 0.0, 0.0, 0.0, 0.0, 0.0, 1.6541551209915977E9, 0.0, 2022-06-02 09:32:00.991
54.0, 22350.112777961825, -8749.746829241138, -62966.76402887869, -29154.363769813037, -14181.533656303127, -39099.99598264647, -9858.125133290903, -31384.77729377476, -0.03, 0.922, 0.452, 192.0, 0.0, 0.0, 0.0, 0.0, 0.0, 0.0, 0.0, 0.0, 0.0, 1.654155120991603E9, 0.0, 2022-06-02 09:32:00.991
55.0, 22353.219670441114, -8741.409628559308, -62949.12850250346, -29139.410452772434, -14174.42580156634, -39086.69669469556, -9838.209728981225, -31318.057336575668, -0.03, 0.922, 0.452, 192.0, 0.0, 0.0, 0.0, 0.0, 0.0, 0.0, 0.0, 0.0, 0.0, 1.654155120991608E9, 0.0, 2022-06-02 09:32:00.991
56.0, 22369.737609593583, -8717.96264862569, -62914.93033348684, -29104.966414566807, -14144.206243062765, -39051.31388322281, -9806.291437899046, -31345.371168300055, -0.03, 0.922, 0.452, 192.0, 0.0, 0.0, 0.0, 0.0, 0.0, 0.0, 0.0, 0.0, 0.0, 1.6541551209916134E9, 0.0, 2022-06-02 09:32:00.991
57.0, 22389.653013903262, -8695.968532081668, -62890.25400760818, -29085.207472468315, -14115.21603050423, -39031.7114033355, -9798.334216872958, -31348.120432868058, -0.036000000000000004, 0.932, 0.456, 192.0, 254.0, 224.0, 29.0, 32.0, 14.0, 64.0, 0.0, 0.0, 0.0, 1.6541551209916186E9, 0.0, 2022-06-02 09:32:00.991
58.0, 22392.424630215723, -8702.048206573512, -62893.62912102093, -29093.52232140569, -14116.735949127193, -39040.36152843971, -9793.282722626058, -31330.328444281633, -0.036000000000000004, 0.932, 0.456, 192.0, 0.0, 0.0, 0.0, 0.0, 0.0, 0.0, 0.0, 0.0, 0.0, 1.6541551209916239E9, 0.0, 2022-06-02 09:32:00.991
59.0, 22376.621946885818, -8727.551546997018, -62922.93225800184, -29121.774926397196, -14143.781559918114, -39071.229287532486, -9826.5197666311, -31357.26229635028, -0.036000000000000004, 0.932, 0.456, 192.0, 0.0, 0.0, 0.0, 0.0, 0.0, 0.0, 0.0, 0.0, 0.0, 1.654155120991629E9, 0.0, 2022-06-02 09:32:00.991
60.0, 22366.206033969647, -8730.501977265118, -62927.35790340399, -29125.909999121428, -14149.190682076298, -39073.15153755564, -9834.298173701545, -31362.380845830543, -0.036000000000000004, 0.932, 0.456, 192.0, 0.0, 0.0, 0.0, 0.0, 0.0, 0.0, 0.0, 0.0, 0.0, 1.6541551209916344E9, 0.0, 2022-06-02 09:32:00.991
61.0, 22358.315868176924, -8726.992753385633, -62921.010007978686, -29119.04801357365, -14140.115873827443, -39063.339121739766, -9812.438167624256, -31347.516935767766, -0.036000000000000004, 0.932, 0.456, 192.0, 0.0, 0.0, 0.0, 0.0, 0.0, 0.0, 0.0, 0.0, 0.0, 1.6541551209916396E9, 0.0, 2022-06-02 09:32:00.991
62.0, 22356.728894320597, -8729.11616910889, -62924.854508025, -29123.540714209168, -14136.763112159148, -39064.34495024025, -9805.084443698459, -31343.717139210363, -0.036000000000000004, 0.932, 0.456, 192.0, 0.0, 0.0, 0.0, 0.0, 0.0, 0.0, 0.0, 0.0, 0.0, 1.6541551209916449E9, 0.0, 2022-06-02 09:32:00.991
63.0, 22362.830920556895, -8731.86543367689, -62931.135348216936, -29130.58151371259, -14144.69798144078, -39069.28468576488, -9817.89199327135, -31355.809432960683, -0.036000000000000004, 0.932, 0.456, 192.0, 0.0, 0.0, 0.0, 0.0, 0.0, 0.0, 0.0, 0.0, 0.0, 1.65415512099165E9, 0.0, 2022-06-02 09:32:00.991
64.0, 22359.142882721768, -8742.147236126333, -62943.719380345276, -29141.01977837322, -14161.305327571074, -39081.6228487042, -9841.830711582985, -31374.383732603044, -0.036000000000000004, 0.932, 0.456, 192.0, 0.0, 0.0, 0.0, 0.0, 0.0, 0.0, 0.0, 0.0, 0.0, 1.6541551209916575E9, 0.0, 2022-06-02 09:32:00.991
65.0, 22361.33335367839, -8729.96553539819, -62932.14117671743, -29125.95470261034, -14155.918557157345, -39064.30024675134, -9843.194167994758, -31349.506241024286, -0.036000000000000004, 0.932, 0.456, 192.0, 0.0, 0.0, 0.0, 0.0, 0.0, 0.0, 0.0, 0.0, 0.0, 1.6541551209916627E9, 0.0, 2022-06-02 09:32:00.991
66.0, 22365.446074658164, -8712.575878211961, -62913.097490441505, -29106.821609356597, -14141.613440705949, -39042.95433079652, -9830.006638766126, -31340.54319149771, -0.036000000000000004, 0.932, 0.456, 192.0, 0.0, 0.0, 0.0, 0.0, 0.0, 0.0, 0.0, 0.0, 0.0, 1.6541551209916685E9, 0.0, 2022-06-02 09:32:00.991
67.0, 22373.62681312881, -8712.77704391206, -62913.365711374965, -29106.95571982333, -14131.510452212151, -39045.8153540868, -9814.740397303152, -31361.754996985794, -0.038, 0.922, 0.454, 192.0, 254.0, 208.0, 28.0, 208.0, 14.0, 48.0, 0.0, 0.0, 0.0, 1.6541551209916737E9, 0.0, 2022-06-02 09:32:00.991
68.0, 22367.010696770038, -8731.798378443526, -62935.73980757473, -29129.374519512003, -14145.167368074342, -39068.88235436468, -9831.146577733347, -31358.64810450651, -0.038, 0.922, 0.454, 192.0, 0.0, 0.0, 0.0, 0.0, 0.0, 0.0, 0.0, 0.0, 0.0, 1.654155120991679E9, 0.0, 2022-06-02 09:32:00.991
69.0, 22351.364475651324, -8746.930509439768, -62948.56970889208, -29146.786528442688, -14164.076943883532, -39085.04266560586, -9850.927871576294, -31374.562546558685, -0.038, 0.922, 0.454, 192.0, 0.0, 0.0, 0.0, 0.0, 0.0, 0.0, 0.0, 0.0, 0.0, 1.6541551209916842E9, 0.0, 2022-06-02 09:32:00.991
70.0, 22338.64633305625, -8749.031573418568, -62943.2052902228, -29146.00421738675, -14168.457885796774, -39083.50039523845, -9850.99492680966, -31364.280744109245, -0.038, 0.922, 0.454, 192.0, 0.0, 0.0, 0.0, 0.0, 0.0, 0.0, 0.0, 0.0, 0.0, 1.65415512099169E9, 0.0, 2022-06-02 09:32:00.991
71.0, 22344.61424882582, -8732.91596566629, -62922.08289171254, -29127.04993808865, -14153.526920500628, -39063.607342673226, -9843.015354039117, -31345.415871788966, -0.038, 0.922, 0.454, 192.0, 0.0, 0.0, 0.0, 0.0, 0.0, 0.0, 0.0, 0.0, 0.0, 1.6541551209916952E9, 0.0, 2022-06-02 09:32:00.991
72.0, 22359.701676333152, -8719.281401548553, -62908.4483275948, -29115.359975738524, -14135.779635403114, -39049.79396459985, -9821.691789828754, -31358.737511484327, -0.038, 0.922, 0.454, 192.0, 0.0, 0.0, 0.0, 0.0, 0.0, 0.0, 0.0, 0.0, 0.0, 1.6541551209917026E9, 0.0, 2022-06-02 09:32:00.991
73.0, 22352.41500764072, -8736.648706990327, -62930.53185111664, -29136.48237424879, -14148.721295442736, -39071.81043288833, -9831.258336455625, -31374.048456436212, -0.038, 0.922, 0.454, 192.0, 0.0, 0.0, 0.0, 0.0, 0.0, 0.0, 0.0, 0.0, 0.0, 1.654155120991708E9, 0.0, 2022-06-02 09:32:00.991
74.0, 22345.28480115948, -8749.63507051886, -62947.8097495806, -29151.90507792295, -14164.881606683924, -39092.44109302057, -9857.096953045959, -31388.46533160989, -0.038, 0.922, 0.454, 192.0, 0.0, 0.0, 0.0, 0.0, 0.0, 0.0, 0.0, 0.0, 0.0, 1.6541551209917133E9, 0.0, 2022-06-02 09:32:00.991
75.0, 22344.27897265899, -8742.929547182268, -62943.786435578644, -29142.584400485088, -14164.345164816996, -39084.66268595013, -9862.528426948598, -31379.144654172025, -0.038, 0.922, 0.454, 192.0, 0.0, 0.0, 0.0, 0.0, 0.0, 0.0, 0.0, 0.0, 0.0, 1.6541551209917183E9, 0.0, 2022-06-02 09:32:00.991
76.0, 22354.449016386156, -8724.623468473372, -62924.22865918025, -29119.115068807016, -14148.207205320265, -39060.92513333859, -9847.396295952356, -31350.02033114676, -0.038, 0.922, 0.454, 192.0, 0.0, 0.0, 0.0, 0.0, 0.0, 0.0, 0.0, 0.0, 0.0, 1.6541551209917233E9, 0.0, 2022-06-02 09:32:00.991
77.0, 22350.112777961825, -8730.233756331654, -62930.12951971645, -29125.977054354797, -14149.011868120655, -39069.03881657586, -9856.582862923487, -31348.92509566845, -0.044, 0.92, 0.446, 192.0, 254.0, 160.0, 28.0, 192.0, 13.0, 240.0, 0.0, 0.0, 0.0, 1.6541551209917285E9, 0.0, 2022-06-02 09:32:00.991
78.0, 22352.23619368508, -8734.480587778162, -62944.211118723295, -29136.996464371263, -14152.163464088853, -39082.762787671425, -9862.640185670876, -31374.517843069774, -0.044, 0.92, 0.446, 192.0, 0.0, 0.0, 0.0, 0.0, 0.0, 0.0, 0.0, 0.0, 0.0, 1.6541551209917338E9, 0.0, 2022-06-02 09:32:00.991
79.0, 22352.370304151813, -8737.453369790717, -62957.68922062984, -29146.317141809126, -14163.719315972248, -39093.379866287694, -9869.345709007468, -31385.291383897234, -0.044, 0.92, 0.446, 192.0, 0.0, 0.0, 0.0, 0.0, 0.0, 0.0, 0.0, 0.0, 0.0, 1.6541551209917393E9, 0.0, 2022-06-02 09:32:00.991
80.0, 22347.117644204813, -8738.77212271358, -62959.45500844181, -29148.48526102129, -14169.933100930823, -39095.25741282194, -9881.505057991155, -31365.286572609733, -0.044, 0.92, 0.446, 192.0, 0.0, 0.0, 0.0, 0.0, 0.0, 0.0, 0.0, 0.0, 0.0, 1.6541551209917445E9, 0.0, 2022-06-02 09:32:00.991
81.0, 22360.193414711168, -8718.387331770342, -62941.97594427776, -29129.86625789002, -14161.797065949091, -39078.20303180254, -9872.564360209031, -31360.704464996397, -0.044, 0.92, 0.446, 192.0, 0.0, 0.0, 0.0, 0.0, 0.0, 0.0, 0.0, 0.0, 0.0, 1.6541551209917495E9, 0.0, 2022-06-02 09:32:00.991
82.0, 22375.929042807704, -8698.807203627492, -62921.68056031234, -29104.18410351087, -14140.406446505362, -39055.89599083614, -9839.506130159632, -31379.122302427568, -0.044, 0.92, 0.446, 192.0, 0.0, 0.0, 0.0, 0.0, 0.0, 0.0, 0.0, 0.0, 0.0, 1.6541551209917548E9, 0.0, 2022-06-02 09:32:00.991
83.0, 22345.46361511512, -8732.133654610356, -62939.69606634332, -29120.545580452155, -14145.122664585431, -39075.58787770127, -9812.996961235638, -31392.890977012037, -0.044, 0.92, 0.446, 192.0, 0.0, 0.0, 0.0, 0.0, 0.0, 0.0, 0.0, 0.0, 0.0, 1.6541551209917605E9, 0.0, 2022-06-02 09:32:00.991
84.0, 22325.32469336089, -8759.514541568105, -62966.18288352286, -29144.819574930618, -14172.838827710013, -39098.38665704568, -9844.80349359554, -31344.342988055112, -0.044, 0.92, 0.446, 192.0, 0.0, 0.0, 0.0, 0.0, 0.0, 0.0, 0.0, 0.0, 0.0, 1.6541551209917655E9, 0.0, 2022-06-02 09:32:00.991
85.0, 22331.985513208572, -8749.053925163022, -62950.82723508206, -29129.374519512003, -14167.317946829553, -39078.76182541392, -9850.346726220456, -31357.888145195026, -0.044, 0.92, 0.446, 192.0, 0.0, 0.0, 0.0, 0.0, 0.0, 0.0, 0.0, 0.0, 0.0, 1.6541551209917724E9, 0.0, 2022-06-02 09:32:00.991
86.0, 22329.504469574033, -8740.962593670201, -62939.07021749857, -29113.638891415467, -14154.689211212304, -39060.656912405124, -9846.748095363153, -31357.083482394635, -0.044, 0.92, 0.446, 192.0, 0.0, 0.0, 0.0, 0.0, 0.0, 0.0, 0.0, 0.0, 0.0, 1.6541551209917796E9, 0.0, 2022-06-02 09:32:00.991
87.0, 22327.246943384045, -8744.985907672157, -62941.5065576442, -29109.660280902423, -14152.56579548905, -39059.04758680434, -9855.353516978445, -31341.928999653937, -0.042, 0.91, 0.436, 192.0, 254.0, 176.0, 28.0, 112.0, 13.0, 160.0, 0.0, 0.0, 0.0, 1.6541551209917848E9, 0.0, 2022-06-02 09:32:00.991
88.0, 22331.583181808375, -8745.410590816808, -62942.7582553337, -29109.481466946778, -14142.619269206438, -39062.64621766165, -9843.015354039117, -31360.525651040753, -0.042, 0.91, 0.436, 192.0, 0.0, 0.0, 0.0, 0.0, 0.0, 0.0, 0.0, 0.0, 0.0, 1.65415512099179E9, 0.0, 2022-06-02 09:32:00.991
89.0, 22322.530725303975, -8758.665175278804, -62960.8631683425, -29129.15100206745, -14163.741667716702, -39082.002828359946, -9854.28063324459, -31381.82686350666, -0.042, 0.91, 0.436, 192.0, 0.0, 0.0, 0.0, 0.0, 0.0, 0.0, 0.0, 0.0, 0.0, 1.6541551209917953E9, 0.0, 2022-06-02 09:32:00.991
90.0, 22310.03610015346, -8765.59421605995, -62964.23828175525, -29135.72241493731, -14174.0458219106, -39085.33323828378, -9871.33501426399, -31367.655857521997, -0.042, 0.91, 0.436, 192.0, 0.0, 0.0, 0.0, 0.0, 0.0, 0.0, 0.0, 0.0, 0.0, 1.6541551209918003E9, 0.0, 2022-06-02 09:32:00.991
91.0, 22317.52393454599, -8749.724477496682, -62947.74269434723, -29122.780754897685, -14158.354897302974, -39073.28564802237, -9862.170799037314, -31374.316677369676, -0.042, 0.91, 0.436, 192.0, 0.0, 0.0, 0.0, 0.0, 0.0, 0.0, 0.0, 0.0, 0.0, 1.6541551209918056E9, 0.0, 2022-06-02 09:32:00.991
92.0, 22321.99428343705, -8745.678811750271, -62945.239298968234, -29118.936254851375, -14150.37532453243, -39070.78225264338, -9852.693659388264, -31357.73168298384, -0.042, 0.91, 0.436, 192.0, 0.0, 0.0, 0.0, 0.0, 0.0, 0.0, 0.0, 0.0, 0.0, 1.654155120991811E9, 0.0, 2022-06-02 09:32:00.991
93.0, 22320.18379213617, -8759.671003779293, -62959.65617414191, -29133.62135095851, -14160.65712698187, -39087.791930173866, -9851.844293098962, -31371.522709312765, -0.042, 0.91, 0.436, 192.0, 0.0, 0.0, 0.0, 0.0, 0.0, 0.0, 0.0, 0.0, 0.0, 1.6541551209918163E9, 0.0, 2022-06-02 09:32:00.991
94.0, 22313.99235892205, -8771.405669618329, -62967.59104342354, -29142.47264176281, -14173.844656210502, -39097.49258726747, -9855.599386167454, -31377.937659971438, -0.042, 0.91, 0.436, 192.0, 0.0, 0.0, 0.0, 0.0, 0.0, 0.0, 0.0, 0.0, 0.0, 1.6541551209918213E9, 0.0, 2022-06-02 09:32:00.991
95.0, 22313.478268799576, -8763.202579403232, -62955.4093426954, -29132.682577691387, -14172.481199798727, -39090.78706393088, -9862.707240904241, -31356.077653894146, -0.042, 0.91, 0.436, 192.0, 0.0, 0.0, 0.0, 0.0, 0.0, 0.0, 0.0, 0.0, 0.0, 1.654155120991829E9, 0.0, 2022-06-02 09:32:00.991
96.0, 22315.445222311642, -8753.457218820718, -62931.58238310604, -29115.225865271794, -14163.160522360866, -39074.89497362316, -9853.453618699745, -31350.24384859131, -0.042, 0.91, 0.436, 192.0, 0.0, 0.0, 0.0, 0.0, 0.0, 0.0, 0.0, 0.0, 0.0, 1.6541551209918344E9, 0.0, 2022-06-02 09:32:00.991
97.0, 22324.050643926937, -8746.751695484125, -62922.59698183501, -29106.4192779564, -14154.622155978937, -39066.401310730136, -9847.463351185723, -31357.418758561464, -0.04, 0.926, 0.436, 192.0, 254.0, 192.0, 28.0, 240.0, 13.0, 160.0, 0.0, 0.0, 0.0, 1.6541551209918396E9, 0.0, 2022-06-02 09:32:00.991
98.0, 22334.824184754394, -8749.098628651933, -62932.051769739606, -29114.421202471403, -14160.813589193058, -39072.68215092208, -9861.276729259102, -31371.857985479593, -0.04, 0.926, 0.436, 192.0, 0.0, 0.0, 0.0, 0.0, 0.0, 0.0, 0.0, 0.0, 0.0, 1.654155120991845E9, 0.0, 2022-06-02 09:32:00.991
99.0, 22327.93984746216, -8763.515503825605, -62949.48613041474, -29133.978978869796, -14184.215865637765, -39090.228270319494, -9892.256247074158, -31378.138825671536, -0.04, 0.926, 0.436, 192.0, 0.0, 0.0, 0.0, 0.0, 0.0, 0.0, 0.0, 0.0, 0.0, 1.6541551209918501E9, 0.0, 2022-06-02 09:32:00.991
100.0, 22327.068129428404, -8754.373640343385, -62939.42784540985, -29128.05576658914, -14180.885455713924, -39080.72877892599, -9881.840334157985, -31362.91728769747, -0.04, 0.926, 0.436, 192.0, 0.0, 0.0, 0.0, 0.0, 0.0, 0.0, 0.0, 0.0, 0.0, 1.6541551209918551E9, 0.0, 2022-06-02 09:32:00.991
101.0, 22329.124489918293, -8738.883881435857, -62918.953647488794, -29110.643757658454, -14164.211054350264, -39063.54028743986, -9865.322395005513, -31343.270104321255, -0.04, 0.926, 0.436, 192.0, 0.0, 0.0, 0.0, 0.0, 0.0, 0.0, 0.0, 0.0, 0.0, 1.6541551209918609E9, 0.0, 2022-06-02 09:32:00.991
102.0, 22339.987437723572, -8730.099645864922, -62908.40362410589, -29098.104429019026, -14150.889414654901, -39053.01261580141, -9836.153368491337, -31330.641368704008, -0.04, 0.926, 0.436, 192.0, 0.0, 0.0, 0.0, 0.0, 0.0, 0.0, 0.0, 0.0, 0.0, 1.654155120991866E9, 0.0, 2022-06-02 09:32:00.991
103.0, 22339.406292367734, -8738.995640158135, -62918.059577710585, -29108.497990190746, -14155.762094946158, -39066.82599387479, -9820.529499117078, -31371.142729657025, -0.04, 0.926, 0.436, 192.0, 0.0, 0.0, 0.0, 0.0, 0.0, 0.0, 0.0, 0.0, 0.0, 1.654155120991871E9, 0.0, 2022-06-02 09:32:00.991
104.0, 22332.09727193085, -8751.691431008749, -62932.07412148406, -29123.496010720257, -14170.380135819929, -39080.19233705907, -9850.257319242635, -31372.59559304662, -0.04, 0.926, 0.436, 192.0, 0.0, 0.0, 0.0, 0.0, 0.0, 0.0, 0.0, 0.0, 0.0, 1.6541551209918764E9, 0.0, 2022-06-02 09:32:00.991
105.0, 22333.863059742816, -8746.170550128289, -62926.240316181225, -29117.103411806038, -14166.222711351242, -39070.379921243184, -9856.605214667943, -31342.040758376213, -0.04, 0.926, 0.436, 192.0, 0.0, 0.0, 0.0, 0.0, 0.0, 0.0, 0.0, 0.0, 0.0, 1.6541551209918816E9, 0.0, 2022-06-02 09:32:00.991
106.0, 22328.699806773642, -8740.292041336543, -62918.88659225543, -29108.38623146847, -14158.578414747528, -39059.405214715625, -9846.077543029493, -31340.185563586423, -0.04, 0.926, 0.436, 192.0, 0.0, 0.0, 0.0, 0.0, 0.0, 0.0, 0.0, 0.0, 0.0, 1.6541551209918869E9, 0.0, 2022-06-02 09:32:00.991
107.0, 22338.84749875635, -8732.20070984372, -62906.88370548293, -29100.429010442378, -14142.261641295152, -39049.123412266184, -9821.512975873111, -31336.229304817833, -0.04, 0.9400000000000001, 0.438, 192.0, 254.0, 192.0, 29.0, 96.0, 13.0, 176.0, 0.0, 0.0, 0.0, 1.6541551209918945E9, 0.0, 2022-06-02 09:32:00.991
108.0, 22331.69494053065, -8751.177340886277, -62931.02358949466, -29121.171429296905, -14157.147903102388, -39072.01159858842, -9837.583880136477, -31361.53147954124, -0.04, 0.9400000000000001, 0.438, 192.0, 0.0, 0.0, 0.0, 0.0, 0.0, 0.0, 0.0, 0.0, 0.0, 1.6541551209918995E9, 0.0, 2022-06-02 09:32:00.991
109.0, 22315.333463589366, -8771.584483573972, -62955.2081769953, -29143.791394685675, -14186.741612761214, -39092.66461046512, -9880.946264379772, -31361.375017330054, -0.04, 0.9400000000000001, 0.438, 192.0, 0.0, 0.0, 0.0, 0.0, 0.0, 0.0, 0.0, 0.0, 0.0, 1.6541551209919047E9, 0.0, 2022-06-02 09:32:00.991
110.0, 22321.591952036855, -8757.078201422477, -62942.60179312251, -29127.04993808865, -14179.879627213435, -39075.900802123644, -9866.417630483822, -31353.93188642644, -0.04, 0.9400000000000001, 0.438, 192.0, 0.0, 0.0, 0.0, 0.0, 0.0, 0.0, 0.0, 0.0, 0.0, 1.65415512099191E9, 0.0, 2022-06-02 09:32:00.991
111.0, 22328.699806773642, -8736.313430823497, -62923.379292890946, -29103.871179088495, -14156.879682168923, -39053.482002434976, -9826.653877097831, -31355.20593586039, -0.04, 0.9400000000000001, 0.438, 192.0, 0.0, 0.0, 0.0, 0.0, 0.0, 0.0, 0.0, 0.0, 0.0, 1.6541551209919152E9, 0.0, 2022-06-02 09:32:00.991
112.0, 22334.444205098654, -8732.87126217738, -62924.54158360262, -29102.865350588007, -14150.0400483656, -39051.20212450053, -9819.143690960847, -31345.39352004451, -0.04, 0.9400000000000001, 0.438, 192.0, 0.0, 0.0, 0.0, 0.0, 0.0, 0.0, 0.0, 0.0, 0.0, 1.6541551209919205E9, 0.0, 2022-06-02 09:32:00.991
113.0, 22334.108928931826, -8743.242471604643, -62939.383141920945, -29114.510609449222, -14157.907862413867, -39061.14865078314, -9842.94829880575, -31352.143746870013, -0.04, 0.9400000000000001, 0.438, 192.0, 0.0, 0.0, 0.0, 0.0, 0.0, 0.0, 0.0, 0.0, 0.0, 1.6541551209919257E9, 0.0, 2022-06-02 09:32:00.991
114.0, 22323.737719504563, -8760.654480535326, -62960.12556077547, -29132.593170713568, -14179.320833602053, -39078.35949401373, -9869.837447385484, -31369.041665678225, -0.04, 0.9400000000000001, 0.438, 192.0, 0.0, 0.0, 0.0, 0.0, 0.0, 0.0, 0.0, 0.0, 0.0, 1.6541551209919307E9, 0.0, 2022-06-02 09:32:00.991
115.0, 22319.624998524785, -8760.520370068594, -62962.80777011011, -29132.235542802282, -14183.969996448755, -39075.699636423546, -9865.434153727789, -31358.178717872946, -0.04, 0.9400000000000001, 0.438, 192.0, 0.0, 0.0, 0.0, 0.0, 0.0, 0.0, 0.0, 0.0, 0.0, 1.654155120991936E9, 0.0, 2022-06-02 09:32:00.991
116.0, 22339.249830156547, -8732.379523799364, -62937.840871553526, -29100.160789508915, -14156.678516468826, -39043.758993596915, -9822.22823169568, -31331.87071464905, -0.038, 0.9380000000000001, 0.444, 192.0, 254.0, 208.0, 29.0, 80.0, 13.0, 224.0, 0.0, 0.0, 0.0, 1.6541551209919417E9, 0.0, 2022-06-02 09:32:00.991
117.0, 22354.113740219324, -8722.745921939126, -62930.285981927635, -29088.403771925423, -14140.965240116746, -39033.49954289193, -9819.546022361043, -31330.395499514998, -0.038, 0.9380000000000001, 0.444, 192.0, 0.0, 0.0, 0.0, 0.0, 0.0, 0.0, 0.0, 0.0, 0.0, 1.6541551209919467E9, 0.0, 2022-06-02 09:32:00.991
118.0, 22347.430568627187, -8741.63314600386, -62958.49388343023, -29114.175333282394, -14156.969089146745, -39059.49462169345, -9835.616926624409, -31358.02225566176, -0.038, 0.9380000000000001, 0.444, 192.0, 0.0, 0.0, 0.0, 0.0, 0.0, 0.0, 0.0, 0.0, 0.0, 1.6541551209919517E9, 0.0, 2022-06-02 09:32:00.991
119.0, 22340.121548190302, -8748.517483296095, -62979.862151129506, -29127.899304377952, -14171.654185253881, -39076.41489224612, -9858.125133290903, -31357.418758561464, -0.038, 0.9380000000000001, 0.444, 192.0, 0.0, 0.0, 0.0, 0.0, 0.0, 0.0, 0.0, 0.0, 0.0, 1.654155120991957E9, 0.0, 2022-06-02 09:32:00.991
120.0, 22329.683283529674, -8745.365887327896, -62980.10802031851, -29129.10629857854, -14171.587130020516, -39079.45472949204, -9852.961880321727, -31367.789967988727, -0.038, 0.9380000000000001, 0.444, 192.0, 0.0, 0.0, 0.0, 0.0, 0.0, 0.0, 0.0, 0.0, 0.0, 1.6541551209919624E9, 0.0, 2022-06-02 09:32:00.991
121.0, 22337.394635366756, -8722.455349261207, -62955.74461886223, -29105.10052503354, -14147.760170431158, -39052.25265648993, -9825.84921429744, -31347.069900878658, -0.038, 0.9380000000000001, 0.444, 192.0, 0.0, 0.0, 0.0, 0.0, 0.0, 0.0, 0.0, 0.0, 0.0, 1.6541551214703853E9, 0.0, 2022-06-02 09:32:01.470
122.0, 22349.442225628165, -8710.452462488707, -62947.38506643595, -29090.86246381551, -14135.332600514008, -39037.25463596042, -9826.855042797928, -31299.48303693331, -0.038, 0.9380000000000001, 0.444, 192.0, 0.0, 0.0, 0.0, 0.0, 0.0, 0.0, 0.0, 0.0, 0.0, 1.6541551214704723E9, 0.0, 2022-06-02 09:32:01.470
123.0, 22355.790121053473, -8719.34845678192, -62958.44917994132, -29102.842998843553, -14136.383132503408, -39055.02427280239, -9828.173795720792, -31336.07284260665, -0.038, 0.9380000000000001, 0.444, 192.0, 0.0, 0.0, 0.0, 0.0, 0.0, 0.0, 0.0, 0.0, 0.0, 1.6541551214706402E9, 0.0, 2022-06-02 09:32:01.470
124.0, 22347.430568627187, -8735.15114011182, -62975.525912705176, -29121.86433337502, -14154.242176323198, -39075.900802123644, -9838.969688292706, -31368.237002877835, -0.038, 0.9380000000000001, 0.444, 192.0, 0.0, 0.0, 0.0, 0.0, 0.0, 0.0, 0.0, 0.0, 0.0, 1.654155121470646E9, 0.0, 2022-06-02 09:32:01.470
125.0, 22333.728949276086, -8738.72741922467, -62980.622110440985, -29126.848772388552, -14163.920481672345, -39078.06892133581, -9864.674194416308, -31364.079578409146, -0.038, 0.9380000000000001, 0.444, 192.0, 0.0, 0.0, 0.0, 0.0, 0.0, 0.0, 0.0, 0.0, 0.0, 1.6541551214706516E9, 0.0, 2022-06-02 09:32:01.470
126.0, 22336.65702779973, -8723.751750439615, -62967.054601556614, -29107.827437857086, -14148.788350676103, -39059.94165658255, -9848.871511086407, -31337.458650762877, -0.04, 0.928, 0.446, 192.0, 254.0, 192.0, 29.0, 0.0, 13.0, 240.0, 0.0, 0.0, 0.0, 1.654155121470657E9, 0.0, 2022-06-02 09:32:01.470
127.0, 22350.38099889529, -8715.749825924615, -62957.84568284103, -29096.85273132953, -14130.303458011564, -39049.03400528837, -9825.13395847487, -31332.049528604693, -0.04, 0.928, 0.446, 192.0, 0.0, 0.0, 0.0, 0.0, 0.0, 0.0, 0.0, 0.0, 0.0, 1.6541551214706628E9, 0.0, 2022-06-02 09:32:01.470
128.0, 22347.922307005207, -8730.054942376011, -62971.055563814116, -29114.600016427044, -14139.646487193882, -39068.63648517567, -9843.417685439312, -31360.12331964056, -0.04, 0.928, 0.446, 192.0, 0.0, 0.0, 0.0, 0.0, 0.0, 0.0, 0.0, 0.0, 0.0, 1.654155121470682E9, 0.0, 2022-06-02 09:32:01.470
129.0, 22341.686170302175, -8745.365887327896, -62988.35581402252, -29133.911923636428, -14154.80096993458, -39086.69669469556, -9852.648955899353, -31364.68307550944, -0.04, 0.928, 0.446, 192.0, 0.0, 0.0, 0.0, 0.0, 0.0, 0.0, 0.0, 0.0, 0.0, 1.654155121470688E9, 0.0, 2022-06-02 09:32:01.470
130.0, 22343.451958114143, -8734.748808711625, -62980.64446218544, -29122.95956885333, -14154.331583301018, -39073.84444163376, -9836.46629291371, -31346.980493900835, -0.04, 0.928, 0.446, 192.0, 0.0, 0.0, 0.0, 0.0, 0.0, 0.0, 0.0, 0.0, 0.0, 1.654155121470693E9, 0.0, 2022-06-02 09:32:01.470
131.0, 22352.526766363, -8711.212421800188, -62955.18582525085, -29099.825513342086, -14132.024542334622, -39049.92807506658, -9821.37886540638, -31348.38865380152, -0.04, 0.928, 0.446, 192.0, 0.0, 0.0, 0.0, 0.0, 0.0, 0.0, 0.0, 0.0, 0.0, 1.6541551214706984E9, 0.0, 2022-06-02 09:32:01.470
132.0, 22350.023370984003, -8714.855756146402, -62959.097380530526, -29104.56408316661, -14132.851556879468, -39056.52183968089, -9820.32833341698, -31331.267217548757, -0.04, 0.928, 0.446, 192.0, 0.0, 0.0, 0.0, 0.0, 0.0, 0.0, 0.0, 0.0, 0.0, 1.654155121470704E9, 0.0, 2022-06-02 09:32:01.470
133.0, 22346.692961060162, -8726.791587685537, -62971.70376440332, -29116.879894361486, -14143.379228517919, -39069.41879623161, -9831.928888789284, -31337.413947273966, -0.04, 0.928, 0.446, 192.0, 0.0, 0.0, 0.0, 0.0, 0.0, 0.0, 0.0, 0.0, 0.0, 1.6541551214707096E9, 0.0, 2022-06-02 09:32:01.470
134.0, 22334.6230190543, -8738.034515146555, -62986.567674466096, -29133.82251665861, -14159.874815925934, -39088.55188948535, -9858.371002479911, -31375.009581447794, -0.04, 0.928, 0.446, 192.0, 0.0, 0.0, 0.0, 0.0, 0.0, 0.0, 0.0, 0.0, 0.0, 1.6541551214707162E9, 0.0, 2022-06-02 09:32:01.470
135.0, 22323.111870659814, -8742.549567526528, -62996.424793770886, -29137.041167860174, -14174.202284121786, -39093.044590120866, -9895.273732575624, -31388.01829672078, -0.04, 0.928, 0.446, 192.0, 0.0, 0.0, 0.0, 0.0, 0.0, 0.0, 0.0, 0.0, 0.0, 1.6541551214707215E9, 0.0, 2022-06-02 09:32:01.470
136.0, 22334.645370798753, -8723.148253339321, -62969.33447949106, -29112.275435003692, -14155.471522268239, -39063.9202670956, -9872.720822420219, -31332.563618727163, -0.042, 0.916, 0.444, 192.0, 254.0, 176.0, 28.0, 160.0, 13.0, 224.0, 0.0, 0.0, 0.0, 1.654155121470728E9, 0.0, 2022-06-02 09:32:01.470
137.0, 22356.639487342774, -8703.970456596668, -62945.328705946056, -29090.817760326598, -14130.906955111857, -39041.657929618115, -9841.875415071896, -31311.798848128183, -0.042, 0.916, 0.444, 192.0, 0.0, 0.0, 0.0, 0.0, 0.0, 0.0, 0.0, 0.0, 0.0, 1.6541551214707332E9, 0.0, 2022-06-02 09:32:01.470
138.0, 22339.450995856645, -8732.647744732827, -62974.87771211597, -29123.428955486892, -14148.855405909468, -39076.90663062414, -9843.350630205945, -31362.805528975194, -0.042, 0.916, 0.444, 192.0, 0.0, 0.0, 0.0, 0.0, 0.0, 0.0, 0.0, 0.0, 0.0, 1.654155121470739E9, 0.0, 2022-06-02 09:32:01.470
139.0, 22325.95054220564, -8754.284233365564, -62992.513238491214, -29145.35601679755, -14168.524941030139, -39095.30211631085, -9861.030860070094, -31385.246680408323, -0.042, 0.916, 0.444, 192.0, 0.0, 0.0, 0.0, 0.0, 0.0, 0.0, 0.0, 0.0, 0.0, 1.654155121470744E9, 0.0, 2022-06-02 09:32:01.470
140.0, 22320.966103192106, -8752.361983342407, -62987.79702041114, -29142.025606873707, -14173.844656210502, -39088.44013076307, -9876.654729444354, -31389.11353219909, -0.042, 0.916, 0.444, 192.0, 0.0, 0.0, 0.0, 0.0, 0.0, 0.0, 0.0, 0.0, 0.0, 1.654155121470749E9, 0.0, 2022-06-02 09:32:01.470
141.0, 22325.32469336089, -8736.760465712603, -62970.83204636956, -29126.714661921822, -14156.544406002095, -39072.68215092208, -9846.703391874242, -31359.855098707092, -0.042, 0.916, 0.444, 192.0, 0.0, 0.0, 0.0, 0.0, 0.0, 0.0, 0.0, 0.0, 0.0, 1.6541551214707549E9, 0.0, 2022-06-02 09:32:01.470
142.0, 22339.361588878823, -8724.288192306542, -62955.677563628866, -29114.48825770477, -14138.12656857092, -39058.354682726225, -9820.082464227971, -31319.510199965265, -0.042, 0.916, 0.444, 192.0, 0.0, 0.0, 0.0, 0.0, 0.0, 0.0, 0.0, 0.0, 0.0, 1.6541551214707599E9, 0.0, 2022-06-02 09:32:01.470
143.0, 22339.920382490207, -8731.284288321052, -62963.903005588414, -29120.791449641165, -14144.18389131831, -39064.27789500688, -9844.71408661772, -31340.63259847553, -0.042, 0.916, 0.444, 192.0, 0.0, 0.0, 0.0, 0.0, 0.0, 0.0, 0.0, 0.0, 0.0, 1.654155121470765E9, 0.0, 2022-06-02 09:32:01.470
144.0, 22338.4228156117, -8745.075314649977, -62980.33153776307, -29139.09752835006, -14160.858292681969, -39085.93673538408, -9870.150371807858, -31376.753017515304, -0.042, 0.916, 0.444, 192.0, 0.0, 0.0, 0.0, 0.0, 0.0, 0.0, 0.0, 0.0, 0.0, 1.65415512147077E9, 0.0, 2022-06-02 09:32:01.470
145.0, 22325.50350731653, -8750.05975366351, -62988.13229657797, -29147.94881915436, -14174.068173655054, -39093.22340407651, -9872.743174164674, -31376.35068611511, -0.042, 0.916, 0.444, 192.0, 0.0, 0.0, 0.0, 0.0, 0.0, 0.0, 0.0, 0.0, 0.0, 1.6541551214707751E9, 0.0, 2022-06-02 09:32:01.470
146.0, 22326.46463232811, -8730.63608773185, -62966.74167713424, -29125.284150276682, -14155.382115290418, -39067.67536016409, -9844.557624406532, -31340.654950219985, -0.044, 0.918, 0.444, 192.0, 254.0, 160.0, 28.0, 176.0, 13.0, 224.0, 0.0, 0.0, 0.0, 1.6541551214707804E9, 0.0, 2022-06-02 09:32:01.470
147.0, 22337.21582141111, -8722.790625428037, -62958.58329040805, -29117.23752227277, -14141.881661639412, -39063.02619731739, -9835.348705690945, -31351.92022942546, -0.044, 0.918, 0.444, 192.0, 0.0, 0.0, 0.0, 0.0, 0.0, 0.0, 0.0, 0.0, 0.0, 1.6541551214707854E9, 0.0, 2022-06-02 09:32:01.470
148.0, 22334.6230190543, -8731.552509254518, -62985.67360468789, -29139.209287072335, -14161.014754893156, -39089.93769764158, -9860.51676994762, -31395.237910179843, -0.044, 0.918, 0.444, 192.0, 0.0, 0.0, 0.0, 0.0, 0.0, 0.0, 0.0, 0.0, 0.0, 1.6541551214707904E9, 0.0, 2022-06-02 09:32:01.470
149.0, 22325.79407999445, -8745.231776861165, -63007.4218520429, -29164.82438621812, -14184.551141804593, -39118.16795088863, -9896.145450609381, -31411.01824176529, -0.044, 0.918, 0.444, 192.0, 0.0, 0.0, 0.0, 0.0, 0.0, 0.0, 0.0, 0.0, 0.0, 1.6541551214707956E9, 0.0, 2022-06-02 09:32:01.470
150.0, 22309.298492586433, -8757.34642235594, -63000.403404283934, -29157.716531481332, -14185.489915071717, -39109.69663974007, -9889.015244128137, -31369.68986626743, -0.044, 0.918, 0.444, 192.0, 0.0, 0.0, 0.0, 0.0, 0.0, 0.0, 0.0, 0.0, 0.0, 1.6541551214708033E9, 0.0, 2022-06-02 09:32:01.470
151.0, 22310.03610015346, -8751.9149484533, -62984.55601746512, -29141.44446151787, -14172.503551543183, -39092.44109302057, -9858.415705968822, -31336.05049086219, -0.044, 0.918, 0.444, 192.0, 0.0, 0.0, 0.0, 0.0, 0.0, 0.0, 0.0, 0.0, 0.0, 1.6541551214708085E9, 0.0, 2022-06-02 09:32:01.470
152.0, 22327.60457129533, -8739.710895980705, -62971.72611614777, -29125.32885376559, -14153.817493178547, -39073.464461978016, -9861.299081003557, -31346.667569478464, -0.044, 0.918, 0.444, 192.0, 0.0, 0.0, 0.0, 0.0, 0.0, 0.0, 0.0, 0.0, 0.0, 1.6541551214708135E9, 0.0, 2022-06-02 09:32:01.470
153.0, 22321.256675870023, -8756.742925255649, -62994.524895492184, -29143.90315340795, -14166.312118329064, -39091.435264520085, -9871.022089841616, -31376.797721004215, -0.044, 0.918, 0.444, 192.0, 0.0, 0.0, 0.0, 0.0, 0.0, 0.0, 0.0, 0.0, 0.0, 1.6541551214708183E9, 0.0, 2022-06-02 09:32:01.470
154.0, 22310.03610015346, -8770.042213206556, -63016.13903238047, -29164.01972341773, -14185.668729027358, -39112.55766303035, -9871.759697408641, -31387.124226942567, -0.044, 0.918, 0.444, 192.0, 0.0, 0.0, 0.0, 0.0, 0.0, 0.0, 0.0, 0.0, 0.0, 1.6541551214708235E9, 0.0, 2022-06-02 09:32:01.470
155.0, 22322.910704959715, -8757.569939800494, -63000.00107288374, -29151.390987800478, -14179.007909179678, -39101.851177436256, -9880.722746935218, -31393.181549689958, -0.044, 0.918, 0.444, 192.0, 0.0, 0.0, 0.0, 0.0, 0.0, 0.0, 0.0, 0.0, 0.0, 1.6541551214708288E9, 0.0, 2022-06-02 09:32:01.470
156.0, 22335.494737088055, -8736.53694826805, -62980.21977904079, -29131.4755834908, -14162.199397349286, -39081.80166265985, -9873.413726498333, -31378.071770438168, -0.036000000000000004, 0.914, 0.442, 192.0, 254.0, 224.0, 28.0, 144.0, 13.0, 208.0, 0.0, 0.0, 0.0, 1.654155121470834E9, 0.0, 2022-06-02 09:32:01.470
157.0, 22344.435434870178, -8725.58459348495, -62969.66975565789, -29118.623330429, -14145.994382619188, -39069.128223553686, -9854.19122626677, -31342.62190373205, -0.036000000000000004, 0.914, 0.442, 192.0, 0.0, 0.0, 0.0, 0.0, 0.0, 0.0, 0.0, 0.0, 0.0, 1.6541551214708393E9, 0.0, 2022-06-02 09:32:01.470
158.0, 22327.80573699543, -8749.456256563219, -62992.289721046654, -29140.23746731728, -14164.9933654062, -39086.38377027318, -9863.511903704632, -31351.2496770918, -0.036000000000000004, 0.914, 0.442, 192.0, 0.0, 0.0, 0.0, 0.0, 0.0, 0.0, 0.0, 0.0, 0.0, 1.6541551214708443E9, 0.0, 2022-06-02 09:32:01.470
159.0, 22315.199353122636, -8769.081088194978, -63012.853325945536, -29160.421092560424, -14185.62402553845, -39109.964860673535, -9885.126040592915, -31381.379828617555, -0.036000000000000004, 0.914, 0.442, 192.0, 0.0, 0.0, 0.0, 0.0, 0.0, 0.0, 0.0, 0.0, 0.0, 1.6541551214708493E9, 0.0, 2022-06-02 09:32:01.470
160.0, 22313.500620544033, -8768.008204461123, -63011.28870383367, -29161.136348382992, -14188.417993595362, -39114.904596198154, -9875.045403843571, -31392.1086659561, -0.036000000000000004, 0.914, 0.442, 192.0, 0.0, 0.0, 0.0, 0.0, 0.0, 0.0, 0.0, 0.0, 0.0, 1.6541551214708543E9, 0.0, 2022-06-02 09:32:01.470
161.0, 22317.70274850163, -8755.312413610509, -62990.74745067924, -29145.266609819726, -14167.89909218539, -39099.750113457456, -9861.008508325638, -31382.586822818143, -0.036000000000000004, 0.914, 0.442, 192.0, 0.0, 0.0, 0.0, 0.0, 0.0, 0.0, 0.0, 0.0, 0.0, 1.6541551214708595E9, 0.0, 2022-06-02 09:32:01.470
162.0, 22322.195449137147, -8748.405724573819, -62983.281968031166, -29138.09169984957, -14154.286879812107, -39093.6257354767, -9853.788894866573, -31356.83761320563, -0.036000000000000004, 0.914, 0.442, 192.0, 0.0, 0.0, 0.0, 0.0, 0.0, 0.0, 0.0, 0.0, 0.0, 1.6541551214708643E9, 0.0, 2022-06-02 09:32:01.470
163.0, 22327.291646872956, -8748.1151518959, -62988.13229657797, -29142.986731885285, -14157.37142054694, -39098.94545065707, -9874.374851509912, -31381.44688385092, -0.036000000000000004, 0.914, 0.442, 192.0, 0.0, 0.0, 0.0, 0.0, 0.0, 0.0, 0.0, 0.0, 0.0, 1.6541551214708695E9, 0.0, 2022-06-02 09:32:01.470
164.0, 22317.5686380349, -8762.219102647197, -63008.584142754575, -29164.265592606735, -14179.745516746703, -39118.72674450001, -9930.813006259563, -31383.63735480754, -0.036000000000000004, 0.914, 0.442, 192.0, 0.0, 0.0, 0.0, 0.0, 0.0, 0.0, 0.0, 0.0, 0.0, 1.6541551214708753E9, 0.0, 2022-06-02 09:32:01.470
165.0, 22312.830068210373, -8762.464971836207, -63010.99813115575, -29165.20436587386, -14194.520019831662, -39119.26318636694, -9940.759532542173, -31364.928944698448, -0.036000000000000004, 0.914, 0.442, 192.0, 0.0, 0.0, 0.0, 0.0, 0.0, 0.0, 0.0, 0.0, 0.0, 1.6541551214708803E9, 0.0, 2022-06-02 09:32:01.470
166.0, 22330.75616726353, -8744.695334994238, -62982.52200871969, -29136.996464371263, -14171.587130020516, -39093.46927326552, -9860.963804836727, -31351.83082244764, -0.036000000000000004, 0.93, 0.438, 192.0, 254.0, 224.0, 29.0, 16.0, 13.0, 176.0, 0.0, 0.0, 0.0, 1.6541551214708855E9, 0.0, 2022-06-02 09:32:01.470
167.0, 22345.351856392845, -8730.25610807611, -62956.83985434054, -29115.829362372086, -14134.930269113813, -39079.79000565887, -9809.420682122789, -31342.1972205874, -0.036000000000000004, 0.93, 0.438, 192.0, 0.0, 0.0, 0.0, 0.0, 0.0, 0.0, 0.0, 0.0, 0.0, 1.6541551214708908E9, 0.0, 2022-06-02 09:32:01.470
168.0, 22342.55788833593, -8736.067561634489, -62967.30047074563, -29123.831286887085, -14144.966202374246, -39088.149558085155, -9832.152406233836, -31352.590781759118, -0.036000000000000004, 0.93, 0.438, 192.0, 0.0, 0.0, 0.0, 0.0, 0.0, 0.0, 0.0, 0.0, 0.0, 1.654155121470896E9, 0.0, 2022-06-02 09:32:01.470
169.0, 22334.734777776575, -8749.858587963414, -62984.86894188749, -29144.171374341415, -14164.881606683924, -39106.54504377187, -9862.930758348795, -31382.11743618458, -0.036000000000000004, 0.93, 0.438, 192.0, 0.0, 0.0, 0.0, 0.0, 0.0, 0.0, 0.0, 0.0, 0.0, 1.6541551214709013E9, 0.0, 2022-06-02 09:32:01.470
170.0, 22327.403405595232, -8753.099590909433, -62988.91460763391, -29147.99352264327, -14172.592958521005, -39104.64514549317, -9875.134810821392, -31382.944450729425, -0.036000000000000004, 0.93, 0.438, 192.0, 0.0, 0.0, 0.0, 0.0, 0.0, 0.0, 0.0, 0.0, 0.0, 1.6541551214709065E9, 0.0, 2022-06-02 09:32:01.470
171.0, 22332.70076903114, -8737.609832001905, -62968.30629924611, -29126.893475877463, -14156.097371112988, -39082.11458708222, -9856.962842579227, -31341.236095575823, -0.036000000000000004, 0.93, 0.438, 192.0, 0.0, 0.0, 0.0, 0.0, 0.0, 0.0, 0.0, 0.0, 0.0, 1.654155121470914E9, 0.0, 2022-06-02 09:32:01.470
172.0, 22333.32661787589, -8736.49224477914, -62960.70670613131, -29122.691347919867, -14149.74947568768, -39079.49943298095, -9832.37592367839, -31337.63746471852, -0.036000000000000004, 0.93, 0.438, 192.0, 0.0, 0.0, 0.0, 0.0, 0.0, 0.0, 0.0, 0.0, 0.0, 1.6541551214709191E9, 0.0, 2022-06-02 09:32:01.470
173.0, 22329.41506259621, -8749.769180985591, -62975.70472666082, -29140.48333650629, -14163.004060149678, -39098.05138087885, -9848.37977270839, -31392.39923863402, -0.036000000000000004, 0.93, 0.438, 192.0, 0.0, 0.0, 0.0, 0.0, 0.0, 0.0, 0.0, 0.0, 0.0, 1.6541551214709244E9, 0.0, 2022-06-02 09:32:01.470
174.0, 22330.66676028571, -8756.720573511193, -62991.4180030129, -29155.21313610234, -14175.811609722568, -39111.39537231867, -9861.612005425932, -31397.227215436367, -0.036000000000000004, 0.93, 0.438, 192.0, 0.0, 0.0, 0.0, 0.0, 0.0, 0.0, 0.0, 0.0, 0.0, 1.6541551214709294E9, 0.0, 2022-06-02 09:32:01.470
175.0, 22328.81156549592, -8751.870244964392, -62979.95155810733, -29148.328798810104, -14177.264473112164, -39100.733590213495, -9859.510941447132, -31350.132089869036, -0.036000000000000004, 0.93, 0.438, 192.0, 0.0, 0.0, 0.0, 0.0, 0.0, 0.0, 0.0, 0.0, 0.0, 1.6541551214709346E9, 0.0, 2022-06-02 09:32:01.470
176.0, 22332.052568441937, -8738.548605269028, -62957.778627607666, -29127.206400299838, -14164.054592139077, -39077.06309283532, -9850.391429709367, -31340.654950219985, -0.032, 0.9380000000000001, 0.436, 192.0, 255.0, 0.0, 29.0, 80.0, 13.0, 160.0, 0.0, 0.0, 0.0, 1.6541551214709396E9, 0.0, 2022-06-02 09:32:01.470
177.0, 22343.116681947315, -8726.925698152269, -62941.104226244, -29108.09565879055, -14146.41906576384, -39055.04662454684, -9835.683981857776, -31331.624845460043, -0.032, 0.9380000000000001, 0.436, 192.0, 0.0, 0.0, 0.0, 0.0, 0.0, 0.0, 0.0, 0.0, 0.0, 1.654155121470945E9, 0.0, 2022-06-02 09:32:01.470
178.0, 22345.933001748683, -8731.843081932437, -62950.20138623731, -29117.662205417422, -14154.510397256661, -39065.708406652026, -9854.928833833794, -31350.690883480416, -0.032, 0.9380000000000001, 0.436, 192.0, 0.0, 0.0, 0.0, 0.0, 0.0, 0.0, 0.0, 0.0, 0.0, 1.65415512147095E9, 0.0, 2022-06-02 09:32:01.470
179.0, 22340.635638312775, -8744.427114060774, -62965.22175851128, -29132.839039902574, -14169.575473019539, -39078.471252736, -9865.277691516601, -31365.375979587556, -0.032, 0.9380000000000001, 0.436, 192.0, 0.0, 0.0, 0.0, 0.0, 0.0, 0.0, 0.0, 0.0, 0.0, 1.6541551214709551E9, 0.0, 2022-06-02 09:32:01.470
180.0, 22324.09534741585, -8752.429038575774, -62970.02738356917, -29138.426976016402, -14182.271263870152, -39080.21468880352, -9862.349612992957, -31361.665590007975, -0.032, 0.9380000000000001, 0.436, 192.0, 0.0, 0.0, 0.0, 0.0, 0.0, 0.0, 0.0, 0.0, 0.0, 1.6541551214709604E9, 0.0, 2022-06-02 09:32:01.470
181.0, 22330.018559696506, -8738.861529691403, -62953.62120313897, -29125.01592934322, -14168.27907184113, -39067.0718630638, -9847.843330841462, -31360.749168485305, -0.032, 0.9380000000000001, 0.436, 192.0, 0.0, 0.0, 0.0, 0.0, 0.0, 0.0, 0.0, 0.0, 0.0, 1.6541551214709656E9, 0.0, 2022-06-02 09:32:01.470
182.0, 22334.51126033202, -8736.335782567952, -62944.83696756804, -29121.372594997003, -14155.002135634679, -39064.00967407342, -9839.260260970625, -31326.77451691324, -0.032, 0.9380000000000001, 0.436, 192.0, 0.0, 0.0, 0.0, 0.0, 0.0, 0.0, 0.0, 0.0, 0.0, 1.6541551214709709E9, 0.0, 2022-06-02 09:32:01.470
183.0, 22339.85332725684, -8737.676887235271, -62946.20042397981, -29125.5747229546, -14154.868025167945, -39071.989246843965, -9841.696601116253, -31344.92413341095, -0.032, 0.9380000000000001, 0.436, 192.0, 0.0, 0.0, 0.0, 0.0, 0.0, 0.0, 0.0, 0.0, 0.0, 1.6541551214709756E9, 0.0, 2022-06-02 09:32:01.470
184.0, 22332.70076903114, -8752.473742064683, -62967.38987772344, -29145.400720286456, -14176.750382989692, -39092.70931395404, -9873.369023009423, -31387.4595031094, -0.032, 0.9380000000000001, 0.436, 192.0, 0.0, 0.0, 0.0, 0.0, 0.0, 0.0, 0.0, 0.0, 0.0, 1.654155121470981E9, 0.0, 2022-06-02 09:32:01.470
185.0, 22334.153632420737, -8748.606890273915, -62964.01476431069, -29142.20442082935, -14178.873798712946, -39088.64129646317, -9875.470086988222, -31386.051343208714, -0.032, 0.9380000000000001, 0.436, 192.0, 0.0, 0.0, 0.0, 0.0, 0.0, 0.0, 0.0, 0.0, 0.0, 1.654155121470986E9, 0.0, 2022-06-02 09:32:01.470
186.0, 22342.04379821346, -8728.087988863945, -62947.16154899139, -29123.540714209168, -14162.869949682947, -39066.8706973637, -9865.881188616895, -31354.937714926928, -0.046, 0.93, 0.434, 192.0, 254.0, 144.0, 29.0, 16.0, 13.0, 144.0, 0.0, 0.0, 0.0, 1.6541551214709911E9, 0.0, 2022-06-02 09:32:01.470
187.0, 22341.485004602077, -8724.511709751096, -62942.33357218905, -29117.595150184054, -14155.449170523783, -39061.439223461064, -9861.187322281281, -31346.44405203391, -0.046, 0.93, 0.434, 192.0, 0.0, 0.0, 0.0, 0.0, 0.0, 0.0, 0.0, 0.0, 0.0, 1.6541551214709966E9, 0.0, 2022-06-02 09:32:01.470
188.0, 22339.71921679011, -8733.29594532203, -62945.17224373487, -29123.406603742435, -14157.796103691591, -39072.346874755254, -9856.538159434576, -31357.977552172848, -0.046, 0.93, 0.434, 192.0, 0.0, 0.0, 0.0, 0.0, 0.0, 0.0, 0.0, 0.0, 0.0, 1.654155121471002E9, 0.0, 2022-06-02 09:32:01.471
189.0, 22323.245981126547, -8756.92173921129, -62967.25576725671, -29151.86037443404, -14185.467563327262, -39100.62183149121, -9874.933645121295, -31375.322505870165, -0.046, 0.93, 0.434, 192.0, 0.0, 0.0, 0.0, 0.0, 0.0, 0.0, 0.0, 0.0, 0.0, 1.654155121471007E9, 0.0, 2022-06-02 09:32:01.471
190.0, 22311.779536220973, -8767.471762594196, -62976.59879643903, -29161.605735016554, -14203.639531569426, -39108.914328684135, -9906.606067014465, -31385.44784610842, -0.046, 0.93, 0.434, 192.0, 0.0, 0.0, 0.0, 0.0, 0.0, 0.0, 0.0, 0.0, 0.0, 1.6541551214710124E9, 0.0, 2022-06-02 09:32:01.471
191.0, 22320.764937492007, -8746.841102461947, -62954.98465955075, -29138.15875508294, -14183.120630159454, -39085.33323828378, -9892.502116263166, -31373.713180269384, -0.046, 0.93, 0.434, 192.0, 0.0, 0.0, 0.0, 0.0, 0.0, 0.0, 0.0, 0.0, 0.0, 1.6541551214710176E9, 0.0, 2022-06-02 09:32:01.471
192.0, 22339.160423178724, -8727.216270830188, -62935.605697107996, -29119.785621140676, -14159.919519414845, -39068.860002620226, -9855.755848378642, -31360.592706274118, -0.046, 0.93, 0.434, 192.0, 0.0, 0.0, 0.0, 0.0, 0.0, 0.0, 0.0, 0.0, 0.0, 1.654155121471025E9, 0.0, 2022-06-02 09:32:01.471
193.0, 22337.21582141111, -8737.162797112798, -62946.46864491328, -29133.107260836037, -14161.99823164919, -39084.61798246121, -9848.938566319772, -31359.58687777363, -0.046, 0.93, 0.434, 192.0, 0.0, 0.0, 0.0, 0.0, 0.0, 0.0, 0.0, 0.0, 0.0, 1.65415512147103E9, 0.0, 2022-06-02 09:32:01.471
194.0, 22328.141013162258, -8754.664213021304, -62963.99241256624, -29153.62616224601, -14179.18672313532, -39105.24864259346, -9877.10176433346, -31369.5557558007, -0.046, 0.93, 0.434, 192.0, 0.0, 0.0, 0.0, 0.0, 0.0, 0.0, 0.0, 0.0, 0.0, 1.6541551214710352E9, 0.0, 2022-06-02 09:32:01.471
195.0, 22328.23042014008, -8750.171512385788, -62962.53954917665, -29151.323932567113, -14182.673595270348, -39101.06886638032, -9891.965674396239, -31385.53725308624, -0.05, 0.924, 0.432, 192.0, 254.0, 112.0, 28.0, 224.0, 13.0, 128.0, 0.0, 0.0, 0.0, 1.6541551214710405E9, 0.0, 2022-06-02 09:32:01.471
196.0, 22329.303303873934, -8742.191939615243, -62950.60371763751, -29136.86235390453, -14177.644452767903, -39083.23217430498, -9886.198924326769, -31362.425549319454, -0.05, 0.924, 0.432, 192.0, 0.0, 0.0, 0.0, 0.0, 0.0, 0.0, 0.0, 0.0, 0.0, 1.6541551214710455E9, 0.0, 2022-06-02 09:32:01.471
197.0, 22339.875679001296, -8730.72549470967, -62937.08091224205, -29122.132554308482, -14160.187740348309, -39070.96106659902, -9860.293252503068, -31337.749223440795, -0.05, 0.924, 0.432, 192.0, 0.0, 0.0, 0.0, 0.0, 0.0, 0.0, 0.0, 0.0, 0.0, 1.6541551214710505E9, 0.0, 2022-06-02 09:32:01.471
198.0, 22346.000056982048, -8735.329954067463, -62946.021610024174, -29131.028548601695, -14160.500664770683, -39080.54996497035, -9868.317528762524, -31368.415816833476, -0.05, 0.924, 0.432, 192.0, 0.0, 0.0, 0.0, 0.0, 0.0, 0.0, 0.0, 0.0, 0.0, 1.654155121471056E9, 0.0, 2022-06-02 09:32:01.471
199.0, 22331.203202152636, -8753.814846732002, -62972.173151036885, -29153.424996545913, -14187.90390347289, -39101.851177436256, -9916.887869463906, -31384.59847981912, -0.05, 0.924, 0.432, 192.0, 0.0, 0.0, 0.0, 0.0, 0.0, 0.0, 0.0, 0.0, 0.0, 1.6541551214710612E9, 0.0, 2022-06-02 09:32:01.471
200.0, 22318.149783390738, -8759.134561912366, -62972.106095803516, -29153.424996545913, -14187.792144750614, -39101.76177045843, -9905.376721069422, -31362.380845830543, -0.05, 0.924, 0.432, 192.0, 0.0, 0.0, 0.0, 0.0, 0.0, 0.0, 0.0, 0.0, 0.0, 1.6541551214710662E9, 0.0, 2022-06-02 09:32:01.471
201.0, 22332.432548097677, -8735.553471512017, -62940.299563443616, -29123.183086297882, -14160.65712698187, -39072.21276428852, -9867.244645028668, -31361.97851443035, -0.05, 0.924, 0.432, 192.0, 0.0, 0.0, 0.0, 0.0, 0.0, 0.0, 0.0, 0.0, 0.0, 1.6541551214710712E9, 0.0, 2022-06-02 09:32:01.471
202.0, 22334.51126033202, -8730.97136389868, -62935.85156629701, -29118.80214438464, -14153.504568756172, -39065.6189996742, -9840.489606915666, -31349.036854390724, -0.05, 0.924, 0.432, 192.0, 0.0, 0.0, 0.0, 0.0, 0.0, 0.0, 0.0, 0.0, 0.0, 1.6541551214710765E9, 0.0, 2022-06-02 09:32:01.471
203.0, 22341.864984257816, -8733.005372644111, -62952.12363626047, -29130.737975923777, -14160.61242349296, -39080.3264475258, -9856.4264007123, -31373.467311080374, -0.05, 0.924, 0.432, 192.0, 0.0, 0.0, 0.0, 0.0, 0.0, 0.0, 0.0, 0.0, 0.0, 1.6541551214710815E9, 0.0, 2022-06-02 09:32:01.471
204.0, 22336.679379544184, -8743.376582071374, -62971.14497079194, -29149.178165099405, -14178.382060334929, -39100.82299719131, -9885.10368884846, -31386.87835775356, -0.05, 0.924, 0.432, 192.0, 0.0, 0.0, 0.0, 0.0, 0.0, 0.0, 0.0, 0.0, 0.0, 1.6541551214710867E9, 0.0, 2022-06-02 09:32:01.471
205.0, 22311.13133563177, -8761.749716013637, -62979.437467984855, -29155.682522735897, -14195.27997914314, -39104.62279374871, -9898.112404121448, -31363.20786037539, -0.044, 0.926, 0.43, 192.0, 254.0, 160.0, 28.0, 240.0, 13.0, 112.0, 0.0, 0.0, 0.0, 1.654155121471092E9, 0.0, 2022-06-02 09:32:01.471
206.0, 22310.013748409005, -8750.640899019349, -62965.89231084494, -29136.705891693342, -14188.507400573184, -39086.40612201764, -9896.503078520665, -31355.96589517187, -0.044, 0.926, 0.43, 192.0, 0.0, 0.0, 0.0, 0.0, 0.0, 0.0, 0.0, 0.0, 0.0, 1.654155121471097E9, 0.0, 2022-06-02 09:32:01.471
207.0, 22325.99524569455, -8730.949012154224, -62946.40158967991, -29115.04705131615, -14167.027374151634, -39070.20110728754, -9881.750927180163, -31335.178772828436, -0.044, 0.926, 0.43, 192.0, 0.0, 0.0, 0.0, 0.0, 0.0, 0.0, 0.0, 0.0, 0.0, 1.654155121471102E9, 0.0, 2022-06-02 09:32:01.471
208.0, 22329.28095212948, -8739.085047135955, -62951.207214737806, -29117.930426350886, -14162.981708405223, -39074.44793873405, -9879.71691843473, -31328.96498786986, -0.044, 0.926, 0.43, 192.0, 0.0, 0.0, 0.0, 0.0, 0.0, 0.0, 0.0, 0.0, 0.0, 1.6541551214711072E9, 0.0, 2022-06-02 09:32:01.471
209.0, 22333.79600450945, -8741.275518092576, -62954.895252572926, -29122.780754897685, -14163.85342643898, -39082.98630511598, -9860.963804836727, -31360.212726618378, -0.044, 0.926, 0.43, 192.0, 0.0, 0.0, 0.0, 0.0, 0.0, 0.0, 0.0, 0.0, 0.0, 1.6541551214711127E9, 0.0, 2022-06-02 09:32:01.471
210.0, 22321.100213658836, -8749.858587963414, -62962.40543870991, -29132.548467224657, -14170.693060242304, -39096.84438667827, -9875.023052099115, -31378.96584021638, -0.044, 0.926, 0.43, 192.0, 0.0, 0.0, 0.0, 0.0, 0.0, 0.0, 0.0, 0.0, 0.0, 1.6541551214711182E9, 0.0, 2022-06-02 09:32:01.471
211.0, 22324.22945788258, -8733.944145911235, -62943.2052902228, -29114.778830382686, -14152.878719911423, -39080.169985314606, -9862.953110093249, -31350.534421269233, -0.044, 0.926, 0.43, 192.0, 0.0, 0.0, 0.0, 0.0, 0.0, 0.0, 0.0, 0.0, 0.0, 1.6541551214711232E9, 0.0, 2022-06-02 09:32:01.471
212.0, 22336.008827210528, -8719.750788182115, -62932.878784284454, -29102.015984298705, -14137.992458104189, -39066.624828174696, -9848.022144797105, -31320.2925110212, -0.044, 0.926, 0.43, 192.0, 0.0, 0.0, 0.0, 0.0, 0.0, 0.0, 0.0, 0.0, 0.0, 1.6541551214711285E9, 0.0, 2022-06-02 09:32:01.471
213.0, 22337.260524900023, -8727.931526652757, -62946.24512746873, -29114.46590596031, -14149.168330331842, -39081.8240144043, -9850.436133198278, -31336.899857151493, -0.044, 0.926, 0.43, 192.0, 0.0, 0.0, 0.0, 0.0, 0.0, 0.0, 0.0, 0.0, 0.0, 1.6541551214711337E9, 0.0, 2022-06-02 09:32:01.471
214.0, 22338.579277822886, -8740.068523891989, -62960.32672647557, -29128.65926368943, -14166.625042751437, -39096.06207562233, -9877.90642713385, -31373.847290736117, -0.044, 0.926, 0.43, 192.0, 0.0, 0.0, 0.0, 0.0, 0.0, 0.0, 0.0, 0.0, 0.0, 1.654155121471141E9, 0.0, 2022-06-02 09:32:01.471
215.0, 22331.739644019563, -8743.48834079365, -62963.72419163278, -29132.19083931337, -14173.218807365753, -39099.683058224095, -9884.05315685906, -31356.904668438994, -0.036000000000000004, 0.936, 0.426, 192.0, 254.0, 224.0, 29.0, 64.0, 13.0, 80.0, 0.0, 0.0, 0.0, 1.6541551214711463E9, 0.0, 2022-06-02 09:32:01.471
216.0, 22324.3188648604, -8737.341611068441, -62953.62120313897, -29124.14421130946, -14165.395696806396, -39093.35751454324, -9864.987118838682, -31336.20695307338, -0.036000000000000004, 0.936, 0.426, 192.0, 0.0, 0.0, 0.0, 0.0, 0.0, 0.0, 0.0, 0.0, 0.0, 1.6541551214711516E9, 0.0, 2022-06-02 09:32:01.471
217.0, 22347.117644204813, -8715.660418946794, -62928.29667667111, -29100.406658697924, -14143.423932006828, -39066.35660724123, -9845.161121506826, -31325.94750236839, -0.036000000000000004, 0.936, 0.426, 192.0, 0.0, 0.0, 0.0, 0.0, 0.0, 0.0, 0.0, 0.0, 0.0, 1.6541551214711568E9, 0.0, 2022-06-02 09:32:01.471
218.0, 22351.945621007162, -8720.086064348945, -62934.86808954097, -29107.4698099458, -14143.80391166257, -39069.910534609626, -9850.99492680966, -31327.82504890264, -0.036000000000000004, 0.936, 0.426, 192.0, 0.0, 0.0, 0.0, 0.0, 0.0, 0.0, 0.0, 0.0, 0.0, 1.6541551214711618E9, 0.0, 2022-06-02 09:32:01.471
219.0, 22332.49960333104, -8747.176378628776, -62961.89134858744, -29136.929409137894, -14167.832036952024, -39101.78412220289, -9876.47591548871, -31376.5071483263, -0.036000000000000004, 0.936, 0.426, 192.0, 0.0, 0.0, 0.0, 0.0, 0.0, 0.0, 0.0, 0.0, 0.0, 1.6541551214711668E9, 0.0, 2022-06-02 09:32:01.471
220.0, 22324.296513115947, -8749.992698430146, -62963.567729421586, -29141.355054540047, -14180.728993502737, -39104.60044200426, -9897.24068608769, -31369.756921500793, -0.036000000000000004, 0.936, 0.426, 192.0, 0.0, 0.0, 0.0, 0.0, 0.0, 0.0, 0.0, 0.0, 0.0, 1.654155121471172E9, 0.0, 2022-06-02 09:32:01.471
221.0, 22335.94177197716, -8730.501977265118, -62943.04882801162, -29115.851714116543, -14164.27810958363, -39076.9736858575, -9870.217427041225, -31338.93386589693, -0.036000000000000004, 0.936, 0.426, 192.0, 0.0, 0.0, 0.0, 0.0, 0.0, 0.0, 0.0, 0.0, 0.0, 1.654155121471177E9, 0.0, 2022-06-02 09:32:01.471
222.0, 22351.163309951226, -8711.167718311277, -62923.2004789353, -29093.835245828064, -14143.446283751284, -39059.49462169345, -9843.685906372775, -31327.333310524624, -0.036000000000000004, 0.936, 0.426, 192.0, 0.0, 0.0, 0.0, 0.0, 0.0, 0.0, 0.0, 0.0, 0.0, 1.654155121471182E9, 0.0, 2022-06-02 09:32:01.471
223.0, 22348.726969805597, -8718.208517814699, -62933.25876394019, -29103.13357152147, -14150.062400110055, -39069.262334020415, -9875.984177110693, -31314.995147585294, -0.036000000000000004, 0.936, 0.426, 192.0, 0.0, 0.0, 0.0, 0.0, 0.0, 0.0, 0.0, 0.0, 0.0, 1.6541551214711895E9, 0.0, 2022-06-02 09:32:01.471
224.0, 22344.726007548095, -8731.910137165802, -62949.866110070485, -29118.04218507316, -14164.859254939469, -39086.964915629025, -9877.973482367217, -31347.33812181212, -0.036000000000000004, 0.936, 0.426, 192.0, 0.0, 0.0, 0.0, 0.0, 0.0, 0.0, 0.0, 0.0, 0.0, 1.6541551214711947E9, 0.0, 2022-06-02 09:32:01.471
225.0, 22330.242077141058, -8745.030611161066, -62959.05267704162, -29131.38617651298, -14176.638624267414, -39101.60530824725, -9871.96086310874, -31393.494474112333, -0.036000000000000004, 0.9380000000000001, 0.43, 192.0, 254.0, 224.0, 29.0, 80.0, 13.0, 112.0, 0.0, 0.0, 0.0, 1.6541551214711998E9, 0.0, 2022-06-02 09:32:01.471
226.0, 22338.2216499116, -8721.471872505173, -62928.83311853804, -29104.966414566807, -14154.488045512206, -39071.989246843965, -9869.792743896574, -31343.337159554623, -0.036000000000000004, 0.9380000000000001, 0.43, 192.0, 0.0, 0.0, 0.0, 0.0, 0.0, 0.0, 0.0, 0.0, 0.0, 1.6541551214712048E9, 0.0, 2022-06-02 09:32:01.471
227.0, 22350.13512970628, -8709.871317132869, -62915.08679569803, -29089.61076612601, -14141.993420361689, -39053.884333835165, -9860.628528669899, -31304.15455152447, -0.036000000000000004, 0.9380000000000001, 0.43, 192.0, 0.0, 0.0, 0.0, 0.0, 0.0, 0.0, 0.0, 0.0, 0.0, 1.65415512147121E9, 0.0, 2022-06-02 09:32:01.471
228.0, 22340.792100523962, -8727.037456874545, -62937.12561573096, -29111.33666173657, -14155.449170523783, -39074.13501431167, -9863.958938593738, -31330.28374079272, -0.036000000000000004, 0.9380000000000001, 0.43, 192.0, 0.0, 0.0, 0.0, 0.0, 0.0, 0.0, 0.0, 0.0, 0.0, 1.6541551214712152E9, 0.0, 2022-06-02 09:32:01.471
229.0, 22331.94080971966, -8739.554433769517, -62951.207214737806, -29129.843906145565, -14170.42483930884, -39093.178700587596, -9871.133848563892, -31375.434264592444, -0.036000000000000004, 0.9380000000000001, 0.43, 192.0, 0.0, 0.0, 0.0, 0.0, 0.0, 0.0, 0.0, 0.0, 0.0, 1.6541551214712203E9, 0.0, 2022-06-02 09:32:01.471
230.0, 22324.452975327134, -8745.142369883344, -62958.91856657488, -29137.979941127294, -14180.9972144362, -39099.057209379345, -9889.61874122843, -31379.859909994593, -0.036000000000000004, 0.9380000000000001, 0.43, 192.0, 0.0, 0.0, 0.0, 0.0, 0.0, 0.0, 0.0, 0.0, 0.0, 1.6541551214712253E9, 0.0, 2022-06-02 09:32:01.471
231.0, 22331.829050997385, -8730.613735987394, -62941.59596462202, -29118.489219962266, -14166.982670662723, -39074.582049200784, -9869.993909596671, -31343.62773223254, -0.036000000000000004, 0.9380000000000001, 0.43, 192.0, 0.0, 0.0, 0.0, 0.0, 0.0, 0.0, 0.0, 0.0, 0.0, 1.6541551214712305E9, 0.0, 2022-06-02 09:32:01.471
232.0, 22342.04379821346, -8720.264878304586, -62926.374426647955, -29106.10635353403, -14146.687286697304, -39058.24292400395, -9838.880281314883, -31309.76483938275, -0.036000000000000004, 0.9380000000000001, 0.43, 192.0, 0.0, 0.0, 0.0, 0.0, 0.0, 0.0, 0.0, 0.0, 0.0, 1.6541551214712355E9, 0.0, 2022-06-02 09:32:01.471
233.0, 22346.201222682146, -8722.96943938368, -62927.849641782006, -29110.15201928044, -14146.195548319287, -39061.55098218334, -9832.733551589674, -31315.19631328539, -0.036000000000000004, 0.9380000000000001, 0.43, 192.0, 0.0, 0.0, 0.0, 0.0, 0.0, 0.0, 0.0, 0.0, 0.0, 1.6541551214712408E9, 0.0, 2022-06-02 09:32:01.471
234.0, 22344.547193592454, -8730.323163309475, -62940.12074948797, -29121.5737606971, -14164.814551450558, -39075.36436025672, -9864.294214760568, -31357.284648094734, -0.036000000000000004, 0.9380000000000001, 0.43, 192.0, 0.0, 0.0, 0.0, 0.0, 0.0, 0.0, 0.0, 0.0, 0.0, 1.654155121471246E9, 0.0, 2022-06-02 09:32:01.471
235.0, 22338.199298167146, -8736.425189545775, -62944.054656512104, -29126.267627032714, -14166.736801473715, -39080.08057833679, -9859.846217613962, -31353.26133409278, -0.034, 0.9420000000000001, 0.432, 192.0, 254.0, 240.0, 29.0, 112.0, 13.0, 128.0, 0.0, 0.0, 0.0, 1.6541551214712532E9, 0.0, 2022-06-02 09:32:01.471
236.0, 22345.642429070766, -8720.108416093399, -62926.68735107033, -29108.587397168565, -14150.151807087876, -39061.88625835017, -9841.562490649521, -31323.220589544846, -0.034, 0.9420000000000001, 0.432, 192.0, 0.0, 0.0, 0.0, 0.0, 0.0, 0.0, 0.0, 0.0, 0.0, 1.6541551214712582E9, 0.0, 2022-06-02 09:32:01.471
237.0, 22352.727932063095, -8709.111357821388, -62913.41041486388, -29098.28324297467, -14137.187795303798, -39052.54322916785, -9838.880281314883, -31330.28374079272, -0.034, 0.9420000000000001, 0.432, 192.0, 0.0, 0.0, 0.0, 0.0, 0.0, 0.0, 0.0, 0.0, 0.0, 1.6541551214712632E9, 0.0, 2022-06-02 09:32:01.471
238.0, 22344.05545521444, -8721.091892849434, -62929.5036708717, -29108.989728568762, -14144.876795396423, -39062.10977579472, -9847.753923863642, -31326.506295979776, -0.034, 0.9420000000000001, 0.432, 192.0, 0.0, 0.0, 0.0, 0.0, 0.0, 0.0, 0.0, 0.0, 0.0, 1.6541551214712684E9, 0.0, 2022-06-02 09:32:01.471
239.0, 22336.03117895498, -8735.44171278974, -62947.58623213604, -29127.09464157756, -14157.974917647234, -39079.45472949204, -9857.454580957245, -31340.58789498662, -0.034, 0.9420000000000001, 0.432, 192.0, 0.0, 0.0, 0.0, 0.0, 0.0, 0.0, 0.0, 0.0, 0.0, 1.6541551214712737E9, 0.0, 2022-06-02 09:32:01.471
240.0, 22329.593876551855, -8735.553471512017, -62948.972040292276, -29128.569856711612, -14161.014754893156, -39083.656857449634, -9860.85204611445, -31376.06011343719, -0.034, 0.9420000000000001, 0.432, 192.0, 0.0, 0.0, 0.0, 0.0, 0.0, 0.0, 0.0, 0.0, 0.0, 1.6541551214712784E9, 0.0, 2022-06-02 09:32:01.471
241.0, 22329.526821318486, -8724.15408183981, -62937.23737445324, -29113.23656001527, -14153.32575480053, -39066.69188340806, -9862.19315078177, -31352.188450358924, -0.034, 0.9420000000000001, 0.432, 192.0, 0.0, 0.0, 0.0, 0.0, 0.0, 0.0, 0.0, 0.0, 0.0, 1.65415512194991E9, 0.0, 2022-06-02 09:32:01.949
242.0, 22338.020484211505, -8715.950991624713, -62931.001237750206, -29103.33473722157, -14146.84374890849, -39054.666644891106, -9861.097915303459, -31330.48490649282, -0.034, 0.9420000000000001, 0.432, 192.0, 0.0, 0.0, 0.0, 0.0, 0.0, 0.0, 0.0, 0.0, 0.0, 1.654155121950058E9, 0.0, 2022-06-02 09:32:01.950
243.0, 22346.782368037984, -8718.208517814699, -62934.17518546286, -29106.173408767394, -14151.559966988561, -39057.19239201456, -9846.256356985135, -31302.880502090517, -0.034, 0.9420000000000001, 0.432, 192.0, 0.0, 0.0, 0.0, 0.0, 0.0, 0.0, 0.0, 0.0, 0.0, 1.65415512195008E9, 0.0, 2022-06-02 09:32:01.950
244.0, 22341.775577279997, -8728.311506308497, -62946.46864491328, -29118.4221647289, -14163.920481672345, -39068.05533981983, -9847.351592463445, -31335.357586784077, -0.034, 0.9420000000000001, 0.432, 192.0, 0.0, 0.0, 0.0, 0.0, 0.0, 0.0, 0.0, 0.0, 0.0, 1.6541551219501307E9, 0.0, 2022-06-02 09:32:01.950
245.0, 22331.292609130458, -8735.15114011182, -62950.17903449286, -29121.998443841752, -14170.827170709035, -39071.721025910505, -9872.094973575471, -31364.124281898057, -0.038, 0.93, 0.432, 192.0, 254.0, 208.0, 29.0, 16.0, 13.0, 128.0, 0.0, 0.0, 0.0, 1.654155121950137E9, 0.0, 2022-06-02 09:32:01.950
246.0, 22325.190582894156, -8733.474759277673, -62944.613450123485, -29112.543655937156, -14166.848560195991, -39060.791022871854, -9882.913217891839, -31345.617037489064, -0.038, 0.93, 0.432, 192.0, 0.0, 0.0, 0.0, 0.0, 0.0, 0.0, 0.0, 0.0, 0.0, 1.654155121950144E9, 0.0, 2022-06-02 09:32:01.950
247.0, 22337.03700745547, -8726.478663263162, -62929.45896738279, -29101.34543196505, -14149.593013476493, -39050.330406466775, -9839.930813304283, -31341.414909531464, -0.038, 0.93, 0.432, 192.0, 0.0, 0.0, 0.0, 0.0, 0.0, 0.0, 0.0, 0.0, 0.0, 1.65415512195015E9, 0.0, 2022-06-02 09:32:01.950
248.0, 22345.597725581854, -8726.63512547435, -62928.4531388823, -29104.362917466515, -14145.502644241173, -39050.97860705598, -9832.554737634033, -31343.49362176581, -0.038, 0.93, 0.432, 192.0, 0.0, 0.0, 0.0, 0.0, 0.0, 0.0, 0.0, 0.0, 0.0, 1.6541551219501565E9, 0.0, 2022-06-02 09:32:01.950
249.0, 22347.587030838375, -8730.077294120467, -62940.858357054996, -29114.868237360508, -14156.544406002095, -39060.43339496057, -9855.353516978445, -31356.748206227807, -0.038, 0.93, 0.432, 192.0, 0.0, 0.0, 0.0, 0.0, 0.0, 0.0, 0.0, 0.0, 0.0, 1.654155121950162E9, 0.0, 2022-06-02 09:32:01.950
250.0, 22332.253734142036, -8739.308564580508, -62951.69895311582, -29126.535847966177, -14174.51520854416, -39073.799738144844, -9875.403031754855, -31368.706389511397, -0.038, 0.93, 0.432, 192.0, 0.0, 0.0, 0.0, 0.0, 0.0, 0.0, 0.0, 0.0, 0.0, 1.654155121950168E9, 0.0, 2022-06-02 09:32:01.950
251.0, 22339.294533645458, -8720.801320171515, -62926.1509092034, -29102.95475756583, -14158.556063003072, -39051.89502857865, -9858.28159550209, -31322.81825814465, -0.038, 0.93, 0.432, 192.0, 0.0, 0.0, 0.0, 0.0, 0.0, 0.0, 0.0, 0.0, 0.0, 1.654155121950174E9, 0.0, 2022-06-02 09:32:01.950
252.0, 22358.98642051058, -8699.43305247224, -62904.6485310374, -29080.670068343887, -14137.098388325978, -39028.29158643384, -9842.56831915001, -31314.10107780708, -0.038, 0.93, 0.432, 192.0, 0.0, 0.0, 0.0, 0.0, 0.0, 0.0, 0.0, 0.0, 0.0, 1.6541551219501798E9, 0.0, 2022-06-02 09:32:01.950
253.0, 22354.13609196378, -8711.055959589, -62921.188821934324, -29095.355164451026, -14147.111969841955, -39041.76968834039, -9860.650880414352, -31338.464479263366, -0.038, 0.93, 0.432, 192.0, 0.0, 0.0, 0.0, 0.0, 0.0, 0.0, 0.0, 0.0, 0.0, 1.654155121950186E9, 0.0, 2022-06-02 09:32:01.950
254.0, 22344.010751725527, -8731.574860998971, -62942.378275677955, -29121.216132785816, -14163.451095038785, -39069.10587180923, -9877.302930033557, -31351.137918369524, -0.038, 0.93, 0.432, 192.0, 0.0, 0.0, 0.0, 0.0, 0.0, 0.0, 0.0, 0.0, 0.0, 1.6541551219501915E9, 0.0, 2022-06-02 09:32:01.950
255.0, 22328.386882351268, -8746.282308850565, -62954.02353453917, -29139.43280451689, -14180.013737680167, -39086.20495631754, -9888.076470861015, -31367.521747055263, -0.04, 0.93, 0.438, 192.0, 254.0, 192.0, 29.0, 16.0, 13.0, 176.0, 0.0, 0.0, 0.0, 1.6541551219501972E9, 0.0, 2022-06-02 09:32:01.950
0.0, 22324.542382304953, -8740.984945414657, -62934.04107499613, -29123.13838280897, -14167.18383636282, -39070.75990089893, -9863.690717660274, -31361.464424307876, -0.04, 0.93, 0.438, 192.0, 0.0, 0.0, 0.0, 0.0, 0.0, 0.0, 0.0, 0.0, 0.0, 1.6541551219502115E9, 0.0, 2022-06-02 09:32:01.950
1.0, 22330.376187607788, -8730.63608773185, -62920.78649053413, -29111.224903014292, -14148.453074509272, -39059.36051122672, -9838.366191192412, -31342.15251709849, -0.04, 0.93, 0.438, 192.0, 0.0, 0.0, 0.0, 0.0, 0.0, 0.0, 0.0, 0.0, 0.0, 1.6541551219502172E9, 0.0, 2022-06-02 09:32:01.950
2.0, 22346.692961060162, -8722.522404494573, -62916.517307343165, -29104.742897122254, -14138.595955204482, -39051.96208381201, -9846.636336640875, -31310.14481903849, -0.04, 0.93, 0.438, 192.0, 0.0, 0.0, 0.0, 0.0, 0.0, 0.0, 0.0, 0.0, 0.0, 1.6541551219502225E9, 0.0, 2022-06-02 09:32:01.950
3.0, 22345.88829825977, -8732.737151710648, -62935.89626978592, -29120.23265602978, -14164.456923539272, -39063.607342673226, -9872.989043353682, -31329.23320880332, -0.04, 0.93, 0.438, 192.0, 0.0, 0.0, 0.0, 0.0, 0.0, 0.0, 0.0, 0.0, 0.0, 1.6541551219502277E9, 0.0, 2022-06-02 09:32:01.950
4.0, 22343.317847647413, -8732.647744732827, -62934.01872325167, -29119.450344973844, -14172.436496309818, -39063.607342673226, -9859.28742400258, -31345.572334000153, -0.04, 0.93, 0.438, 192.0, 0.0, 0.0, 0.0, 0.0, 0.0, 0.0, 0.0, 0.0, 0.0, 1.6541551219502337E9, 0.0, 2022-06-02 09:32:01.950
5.0, 22337.528745833486, -8727.39508478583, -62921.36763588997, -29108.453286701835, -14156.678516468826, -39056.45478444753, -9843.060057528026, -31331.356624526576, -0.04, 0.93, 0.438, 192.0, 0.0, 0.0, 0.0, 0.0, 0.0, 0.0, 0.0, 0.0, 0.0, 1.6541551219502387E9, 0.0, 2022-06-02 09:32:01.950
6.0, 22344.435434870178, -8710.854793888902, -62909.54356307311, -29098.305594719124, -14142.395751761886, -39046.59766514274, -9838.94733654825, -31329.099098336592, -0.04, 0.93, 0.438, 192.0, 0.0, 0.0, 0.0, 0.0, 0.0, 0.0, 0.0, 0.0, 0.0, 1.654155121950244E9, 0.0, 2022-06-02 09:32:01.950
7.0, 22357.62296409881, -8705.602133941906, -62916.47260385426, -29102.932405821375, -14145.457940752261, -39051.783269856365, -9860.248549014157, -31347.20401134539, -0.04, 0.93, 0.438, 192.0, 0.0, 0.0, 0.0, 0.0, 0.0, 0.0, 0.0, 0.0, 0.0, 1.6541551219502492E9, 0.0, 2022-06-02 09:32:01.950
8.0, 22361.601574611854, -8713.089968334432, -62931.58238310604, -29112.454248959333, -14155.113894356955, -39057.99705481494, -9879.493400990177, -31344.767671199763, -0.04, 0.93, 0.438, 192.0, 0.0, 0.0, 0.0, 0.0, 0.0, 0.0, 0.0, 0.0, 0.0, 1.6541551219502544E9, 0.0, 2022-06-02 09:32:01.950
9.0, 22348.391693638765, -8722.410645772296, -62942.89236580043, -29122.691347919867, -14168.033202652123, -39068.90470610913, -9889.685796461798, -31373.891994225025, -0.048, 0.92, 0.44, 192.0, 254.0, 128.0, 28.0, 192.0, 13.0, 192.0, 0.0, 0.0, 0.0, 1.6541551219502597E9, 0.0, 2022-06-02 09:32:01.950
10.0, 22351.252716929044, -8707.166756053777, -62920.920601000864, -29099.75845810872, -14151.783484433114, -39047.9164180656, -9847.776275608096, -31316.425659230434, -0.048, 0.92, 0.44, 192.0, 0.0, 0.0, 0.0, 0.0, 0.0, 0.0, 0.0, 0.0, 0.0, 1.6541551219502666E9, 0.0, 2022-06-02 09:32:01.950
11.0, 22364.976688024606, -8694.023930314057, -62895.95370244428, -29075.909146774906, -14123.776748630615, -39023.64242358714, -9818.361379904913, -31287.86012981655, -0.048, 0.92, 0.44, 192.0, 0.0, 0.0, 0.0, 0.0, 0.0, 0.0, 0.0, 0.0, 0.0, 1.6541551219502718E9, 0.0, 2022-06-02 09:32:01.950
12.0, 22368.865891559828, -8699.43305247224, -62908.2471618947, -29086.235652713258, -14127.733007399203, -39037.56756038279, -9836.108665002426, -31330.01551985926, -0.048, 0.92, 0.44, 192.0, 0.0, 0.0, 0.0, 0.0, 0.0, 0.0, 0.0, 0.0, 0.0, 1.6541551219502797E9, 0.0, 2022-06-02 09:32:01.950
13.0, 22362.27212694551, -8717.068578847478, -62930.73301681674, -29105.167580266905, -14145.457940752261, -39055.270141991394, -9837.203900480736, -31337.793926929706, -0.048, 0.92, 0.44, 192.0, 0.0, 0.0, 0.0, 0.0, 0.0, 0.0, 0.0, 0.0, 0.0, 1.6541551219502847E9, 0.0, 2022-06-02 09:32:01.950
14.0, 22357.84648154336, -8718.320276536975, -62935.337476174536, -29107.76038262372, -14153.191644333798, -39056.72300538099, -9850.302022731546, -31344.097118866102, -0.048, 0.92, 0.44, 192.0, 0.0, 0.0, 0.0, 0.0, 0.0, 0.0, 0.0, 0.0, 0.0, 1.6541551219502912E9, 0.0, 2022-06-02 09:32:01.950
15.0, 22358.09235073237, -8705.356264752896, -62918.99835097771, -29090.504835904223, -14139.84765289398, -39041.993205784944, -9847.508054674632, -31332.25069430479, -0.048, 0.92, 0.44, 192.0, 0.0, 0.0, 0.0, 0.0, 0.0, 0.0, 0.0, 0.0, 0.0, 1.6541551219502964E9, 0.0, 2022-06-02 09:32:01.950
16.0, 22364.060266501936, -8698.024892571557, -62909.00712120618, -29078.74781832073, -14129.69996091127, -39030.37029866818, -9836.71216210272, -31319.063165076157, -0.048, 0.92, 0.44, 192.0, 0.0, 0.0, 0.0, 0.0, 0.0, 0.0, 0.0, 0.0, 0.0, 1.6541551219503024E9, 0.0, 2022-06-02 09:32:01.950
17.0, 22368.128283992803, -8702.070558317966, -62919.78066203364, -29087.688516102855, -14137.344257514986, -39038.59574062774, -9851.531368676588, -31323.824086645138, -0.048, 0.92, 0.44, 192.0, 0.0, 0.0, 0.0, 0.0, 0.0, 0.0, 0.0, 0.0, 0.0, 1.6541551219503076E9, 0.0, 2022-06-02 09:32:01.950
18.0, 22358.98642051058, -8716.174509069266, -62938.77964482065, -29106.732202378775, -14153.951603645279, -39056.58889491426, -9861.634357170387, -31335.670511206452, -0.048, 0.92, 0.44, 192.0, 0.0, 0.0, 0.0, 0.0, 0.0, 0.0, 0.0, 0.0, 0.0, 1.6541551219503133E9, 0.0, 2022-06-02 09:32:01.950
19.0, 22350.47040587311, -8723.68469520625, -62944.2558222122, -29110.4202402139, -14159.070153125544, -39057.86294434821, -9856.381697223389, -31330.753127426284, -0.036000000000000004, 0.922, 0.44, 192.0, 254.0, 224.0, 28.0, 208.0, 13.0, 192.0, 0.0, 0.0, 0.0, 1.6541551219503186E9, 0.0, 2022-06-02 09:32:01.950
20.0, 22354.404312897244, -8713.402892756807, -62933.32581917356, -29097.299766218635, -14152.163464088853, -39046.128278509175, -9854.101819288948, -31342.666607220963, -0.036000000000000004, 0.922, 0.44, 192.0, 0.0, 0.0, 0.0, 0.0, 0.0, 0.0, 0.0, 0.0, 0.0, 1.6541551219503238E9, 0.0, 2022-06-02 09:32:01.950
21.0, 22364.23908045758, -8698.561334438484, -62921.144118445416, -29081.78765556665, -14137.634830192905, -39031.174961468576, -9855.71114488973, -31321.00776684377, -0.036000000000000004, 0.922, 0.44, 192.0, 0.0, 0.0, 0.0, 0.0, 0.0, 0.0, 0.0, 0.0, 0.0, 1.6541551219503293E9, 0.0, 2022-06-02 09:32:01.950
22.0, 22365.289612446977, -8702.62935192935, -62928.78841504913, -29090.303670204125, -14141.769902917136, -39041.38970868465, -9851.486665187676, -31314.279891762722, -0.036000000000000004, 0.922, 0.44, 192.0, 0.0, 0.0, 0.0, 0.0, 0.0, 0.0, 0.0, 0.0, 0.0, 1.6541551219503365E9, 0.0, 2022-06-02 09:32:01.950
23.0, 22365.893109547273, -8710.765386911082, -62938.466720398275, -29101.680708131877, -14147.737818686703, -39056.85711584772, -9837.762694092118, -31327.95915936937, -0.036000000000000004, 0.922, 0.44, 192.0, 0.0, 0.0, 0.0, 0.0, 0.0, 0.0, 0.0, 0.0, 0.0, 1.654155121950343E9, 0.0, 2022-06-02 09:32:01.950
24.0, 22360.3275251779, -8711.234773544642, -62937.97498202026, -29101.233673242772, -14152.454036766772, -39055.47130769149, -9848.335069219478, -31326.215723301855, -0.036000000000000004, 0.922, 0.44, 192.0, 0.0, 0.0, 0.0, 0.0, 0.0, 0.0, 0.0, 0.0, 0.0, 1.654155121950348E9, 0.0, 2022-06-02 09:32:01.950
25.0, 22363.277955446, -8694.58272392544, -62918.327798644044, -29082.167635222395, -14135.064379580544, -39036.85230456023, -9831.66066785582, -31311.217702772345, -0.036000000000000004, 0.922, 0.44, 192.0, 0.0, 0.0, 0.0, 0.0, 0.0, 0.0, 0.0, 0.0, 0.0, 1.6541551219503531E9, 0.0, 2022-06-02 09:32:01.950
26.0, 22359.925193777704, -8696.01323557058, -62917.09845269901, -29082.167635222395, -14132.695094668281, -39035.779420826366, -9835.125188246393, -31300.153589266967, -0.036000000000000004, 0.922, 0.44, 192.0, 0.0, 0.0, 0.0, 0.0, 0.0, 0.0, 0.0, 0.0, 0.0, 1.6541551219503589E9, 0.0, 2022-06-02 09:32:01.950
27.0, 22368.061228759438, -8692.86163960238, -62917.05374921009, -29081.541786377646, -14130.683437667303, -39035.980586526464, -9843.909423817327, -31318.32555750913, -0.036000000000000004, 0.922, 0.44, 192.0, 0.0, 0.0, 0.0, 0.0, 0.0, 0.0, 0.0, 0.0, 0.0, 1.654155121950364E9, 0.0, 2022-06-02 09:32:01.950
28.0, 22368.03887701498, -8703.501069963106, -62935.471586641266, -29096.159827251417, -14142.552213973071, -39052.34206346775, -9857.633394912888, -31341.59372348711, -0.026000000000000002, 0.928, 0.438, 192.0, 255.0, 48.0, 29.0, 0.0, 13.0, 176.0, 0.0, 0.0, 0.0, 1.6541551219503696E9, 0.0, 2022-06-02 09:32:01.950
29.0, 22352.70558031864, -8717.537965481039, -62947.51917690268, -29106.821609356597, -14164.903958428378, -39061.10394729423, -9887.227104571713, -31335.044662361703, -0.026000000000000002, 0.928, 0.438, 192.0, 0.0, 0.0, 0.0, 0.0, 0.0, 0.0, 0.0, 0.0, 0.0, 1.6541551219503748E9, 0.0, 2022-06-02 09:32:01.950
30.0, 22353.309077418933, -8704.261029274587, -62930.151871460905, -29089.878987059474, -14154.108065856466, -39044.7648220974, -9848.80445585304, -31328.62971170303, -0.026000000000000002, 0.928, 0.438, 192.0, 0.0, 0.0, 0.0, 0.0, 0.0, 0.0, 0.0, 0.0, 0.0, 1.6541551219503803E9, 0.0, 2022-06-02 09:32:01.950
31.0, 22358.829958299397, -8696.549677437506, -62916.226734665244, -29079.99951601023, -14133.745626657681, -39035.66766210409, -9819.210746194214, -31316.850342375084, -0.026000000000000002, 0.928, 0.438, 192.0, 0.0, 0.0, 0.0, 0.0, 0.0, 0.0, 0.0, 0.0, 0.0, 1.6541551219503856E9, 0.0, 2022-06-02 09:32:01.950
32.0, 22355.633658842286, -8707.882011876347, -62930.30833367209, -29094.505798161725, -14140.629963949916, -39052.23030474548, -9858.348650735457, -31312.223531272833, -0.026000000000000002, 0.928, 0.438, 192.0, 0.0, 0.0, 0.0, 0.0, 0.0, 0.0, 0.0, 0.0, 0.0, 1.6541551219503908E9, 0.0, 2022-06-02 09:32:01.950
33.0, 22359.835786799882, -8712.039436345034, -62940.277211699155, -29105.27933898918, -14154.063362367555, -39062.623865917194, -9869.748040407663, -31331.021348359747, -0.026000000000000002, 0.928, 0.438, 192.0, 0.0, 0.0, 0.0, 0.0, 0.0, 0.0, 0.0, 0.0, 0.0, 1.6541551219503963E9, 0.0, 2022-06-02 09:32:01.950
34.0, 22353.599650096854, -8715.995695113623, -62941.059522755095, -29107.648623901445, -14162.37821130493, -39064.5684676848, -9852.961880321727, -31347.896915423506, -0.026000000000000002, 0.928, 0.438, 192.0, 0.0, 0.0, 0.0, 0.0, 0.0, 0.0, 0.0, 0.0, 0.0, 1.6541551219504015E9, 0.0, 2022-06-02 09:32:01.950
35.0, 22361.556871122943, -8700.505936206095, -62920.20534517829, -29089.789580081655, -14143.602745962471, -39047.11175526521, -9836.175720235791, -31315.73275515232, -0.026000000000000002, 0.928, 0.438, 192.0, 0.0, 0.0, 0.0, 0.0, 0.0, 0.0, 0.0, 0.0, 0.0, 1.6541551219504068E9, 0.0, 2022-06-02 09:32:01.950
36.0, 22360.931022278193, -8695.320331492465, -62914.148022430905, -29088.76139983671, -14136.964277859244, -39046.687072120556, -9847.865682585918, -31300.757086367263, -0.026000000000000002, 0.928, 0.438, 192.0, 0.0, 0.0, 0.0, 0.0, 0.0, 0.0, 0.0, 0.0, 0.0, 1.654155121950412E9, 0.0, 2022-06-02 09:32:01.950
37.0, 22364.82022581342, -8695.052110559, -62915.15385093139, -29086.593280624544, -14134.796158647081, -39040.607397628715, -9846.748095363153, -31325.05343259018, -0.026000000000000002, 0.928, 0.438, 192.0, 0.0, 0.0, 0.0, 0.0, 0.0, 0.0, 0.0, 0.0, 0.0, 1.6541551219504173E9, 0.0, 2022-06-02 09:32:01.950
38.0, 22346.670609315708, -8725.271669062575, -62950.357848448504, -29117.259874017225, -14166.446228795796, -39073.39740674465, -9871.491476475177, -31374.003752947305, -0.03, 0.9380000000000001, 0.446, 192.0, 255.0, 16.0, 29.0, 80.0, 13.0, 240.0, 0.0, 0.0, 0.0, 1.6541551219504223E9, 0.0, 2022-06-02 09:32:01.950
39.0, 22334.55596382093, -8737.855701190914, -62958.404476452415, -29132.347301524558, -14182.830057481535, -39090.31767729732, -9884.902523148361, -31374.11551166958, -0.03, 0.9380000000000001, 0.446, 192.0, 0.0, 0.0, 0.0, 0.0, 0.0, 0.0, 0.0, 0.0, 0.0, 1.6541551219504275E9, 0.0, 2022-06-02 09:32:01.950
40.0, 22345.32950464839, -8717.001523614112, -62933.95166801831, -29110.554350680635, -14167.832036952024, -39066.960104341524, -9872.564360209031, -31351.272028836254, -0.03, 0.9380000000000001, 0.446, 192.0, 0.0, 0.0, 0.0, 0.0, 0.0, 0.0, 0.0, 0.0, 0.0, 1.6541551219504328E9, 0.0, 2022-06-02 09:32:01.950
41.0, 22349.79985353945, -8703.791642641025, -62919.62419982245, -29094.058763272616, -14153.504568756172, -39045.860057575715, -9867.62462468441, -31337.190429829414, -0.03, 0.9380000000000001, 0.446, 192.0, 0.0, 0.0, 0.0, 0.0, 0.0, 0.0, 0.0, 0.0, 0.0, 1.6541551219504383E9, 0.0, 2022-06-02 09:32:01.950
42.0, 22350.60451633984, -8709.625447943861, -62926.575592348054, -29101.054859287127, -14156.075019368533, -39053.34789196824, -9875.33597652149, -31319.800772643182, -0.03, 0.9380000000000001, 0.446, 192.0, 0.0, 0.0, 0.0, 0.0, 0.0, 0.0, 0.0, 0.0, 0.0, 1.6541551219504435E9, 0.0, 2022-06-02 09:32:01.950
43.0, 22346.13416744878, -8720.466044004685, -62938.22085120927, -29116.298749005648, -14165.70862122877, -39069.3740927427, -9872.340842764479, -31342.912476409972, -0.03, 0.9380000000000001, 0.446, 192.0, 0.0, 0.0, 0.0, 0.0, 0.0, 0.0, 0.0, 0.0, 0.0, 1.654155121950451E9, 0.0, 2022-06-02 09:32:01.950
44.0, 22340.90385924624, -8725.785759185048, -62938.37731342046, -29120.344414752057, -14171.765943976157, -39072.23511603298, -9864.607139182943, -31356.01059866078, -0.03, 0.9380000000000001, 0.446, 192.0, 0.0, 0.0, 0.0, 0.0, 0.0, 0.0, 0.0, 0.0, 0.0, 1.654155121950456E9, 0.0, 2022-06-02 09:32:01.950
45.0, 22350.895089017762, -8708.507860721094, -62910.9517229738, -29099.266719730702, -14153.146940844887, -39047.02234828739, -9857.52163619061, -31334.485868750322, -0.03, 0.9380000000000001, 0.446, 192.0, 0.0, 0.0, 0.0, 0.0, 0.0, 0.0, 0.0, 0.0, 0.0, 1.6541551219504611E9, 0.0, 2022-06-02 09:32:01.950
46.0, 22357.779426309997, -8698.829555371947, -62900.40169959089, -29090.84011207105, -14140.965240116746, -39034.90770279261, -9850.838464598473, -31318.95140635388, -0.03, 0.9380000000000001, 0.446, 192.0, 0.0, 0.0, 0.0, 0.0, 0.0, 0.0, 0.0, 0.0, 0.0, 1.6541551219504664E9, 0.0, 2022-06-02 09:32:01.950
47.0, 22360.03695249998, -8704.283381019042, -62909.34239737301, -29101.39013545396, -14140.853481394468, -39043.401365685626, -9842.14363600536, -31329.501429736785, -0.03, 0.9380000000000001, 0.446, 192.0, 0.0, 0.0, 0.0, 0.0, 0.0, 0.0, 0.0, 0.0, 0.0, 1.6541551219504716E9, 0.0, 2022-06-02 09:32:01.950
48.0, 22357.13122572079, -8714.252259046109, -62920.47356611176, -29114.309443749124, -14152.65520246687, -39055.560714669315, -9857.320470490513, -31349.550944513197, -0.038, 0.934, 0.442, 192.0, 254.0, 208.0, 29.0, 48.0, 13.0, 208.0, 0.0, 0.0, 0.0, 1.654155121950477E9, 0.0, 2022-06-02 09:32:01.950
49.0, 22347.94465874966, -8721.874203905369, -62927.69317957082, -29121.14907755245, -14165.842731695502, -39060.29928449384, -9872.072621831016, -31338.218610074357, -0.038, 0.934, 0.442, 192.0, 0.0, 0.0, 0.0, 0.0, 0.0, 0.0, 0.0, 0.0, 0.0, 1.654155121950482E9, 0.0, 2022-06-02 09:32:01.950
50.0, 22345.105987203835, -8714.274610790564, -62922.28405741264, -29110.174371024892, -14164.747496217191, -39046.10592676472, -9870.664461930332, -31328.339139025113, -0.038, 0.934, 0.442, 192.0, 0.0, 0.0, 0.0, 0.0, 0.0, 0.0, 0.0, 0.0, 0.0, 1.6541551219504871E9, 0.0, 2022-06-02 09:32:01.950
51.0, 22359.2769931885, -8698.874258860858, -62908.895362483905, -29092.5164929052, -14147.670763453338, -39029.34211842324, -9845.295231973558, -31319.86782787655, -0.038, 0.934, 0.442, 192.0, 0.0, 0.0, 0.0, 0.0, 0.0, 0.0, 0.0, 0.0, 0.0, 1.6541551219504924E9, 0.0, 2022-06-02 09:32:01.950
52.0, 22369.53644389349, -8696.48262220414, -62913.03043520814, -29095.019888284194, -14141.814606406047, -39032.091382991246, -9843.909423817327, -31318.81729588715, -0.038, 0.934, 0.442, 192.0, 0.0, 0.0, 0.0, 0.0, 0.0, 0.0, 0.0, 0.0, 0.0, 1.6541551219504976E9, 0.0, 2022-06-02 09:32:01.950
53.0, 22354.33725766388, -8722.0083143721, -62945.663982112885, -29125.3735572545, -14169.66487999736, -39061.19335427205, -9873.90546487635, -31354.468328293366, -0.038, 0.934, 0.442, 192.0, 0.0, 0.0, 0.0, 0.0, 0.0, 0.0, 0.0, 0.0, 0.0, 1.6541551219505029E9, 0.0, 2022-06-02 09:32:01.950
54.0, 22334.265391143013, -8740.336744825452, -62965.78055212266, -29142.182069084894, -14192.776583764147, -39076.481947479486, -9900.794613456084, -31357.26229635028, -0.038, 0.934, 0.442, 192.0, 0.0, 0.0, 0.0, 0.0, 0.0, 0.0, 0.0, 0.0, 0.0, 1.654155121950508E9, 0.0, 2022-06-02 09:32:01.950
55.0, 22330.555001563433, -8731.261936576599, -62956.48222642925, -29128.65926368943, -14191.658996541382, -39064.07672930679, -9896.592485498488, -31360.92798244095, -0.038, 0.934, 0.442, 192.0, 0.0, 0.0, 0.0, 0.0, 0.0, 0.0, 0.0, 0.0, 0.0, 1.6541551219505131E9, 0.0, 2022-06-02 09:32:01.950
56.0, 22344.793062781464, -8712.732340423148, -62939.383141920945, -29113.795353626654, -14165.798028206591, -39050.55392391133, -9859.108610046937, -31353.216630603867, -0.038, 0.934, 0.442, 192.0, 0.0, 0.0, 0.0, 0.0, 0.0, 0.0, 0.0, 0.0, 0.0, 1.6541551219505184E9, 0.0, 2022-06-02 09:32:01.950
57.0, 22366.25073745856, -8700.841212372925, -62938.86905179847, -29110.911978591917, -14157.080847869021, -39049.07870877728, -9870.887979374884, -31333.122412338547, -0.038, 0.934, 0.442, 192.0, 0.0, 0.0, 0.0, 0.0, 0.0, 0.0, 0.0, 0.0, 0.0, 1.6541551219505239E9, 0.0, 2022-06-02 09:32:01.950
58.0, 22364.216728713123, -8709.737206666137, -62950.04492402613, -29114.801182127143, -14168.904920685878, -39051.67151113409, -9893.262075574647, -31322.05829883317, -0.042, 0.922, 0.43, 192.0, 254.0, 176.0, 28.0, 208.0, 13.0, 112.0, 0.0, 0.0, 0.0, 1.654155121950529E9, 0.0, 2022-06-02 09:32:01.950
59.0, 22350.13512970628, -8720.734264938148, -62961.62312765398, -29121.23848453027, -14184.260569126674, -39058.60055191524, -9908.841241459995, -31354.893011438016, -0.042, 0.922, 0.43, 192.0, 0.0, 0.0, 0.0, 0.0, 0.0, 0.0, 0.0, 0.0, 0.0, 1.654155121950534E9, 0.0, 2022-06-02 09:32:01.950
60.0, 22343.60842032533, -8714.63223870185, -62957.55511016311, -29116.544618194657, -14178.09148765701, -39056.92417108109, -9901.15224136737, -31367.87937496655, -0.042, 0.922, 0.43, 192.0, 0.0, 0.0, 0.0, 0.0, 0.0, 0.0, 0.0, 0.0, 0.0, 1.6541551219505394E9, 0.0, 2022-06-02 09:32:01.950
61.0, 22360.595746111365, -8696.929657093246, -62941.908889044396, -29102.70888837682, -14151.649373966382, -39044.49660116394, -9861.343784492468, -31353.52955502624, -0.042, 0.922, 0.43, 192.0, 0.0, 0.0, 0.0, 0.0, 0.0, 0.0, 0.0, 0.0, 0.0, 1.6541551219505448E9, 0.0, 2022-06-02 09:32:01.950
62.0, 22372.486874161586, -8698.024892571557, -62948.79322633663, -29107.96154832382, -14149.32479254303, -39047.55879015432, -9849.005621553139, -31339.58206648613, -0.042, 0.922, 0.43, 192.0, 0.0, 0.0, 0.0, 0.0, 0.0, 0.0, 0.0, 0.0, 0.0, 1.65415512195055E9, 0.0, 2022-06-02 09:32:01.950
63.0, 22358.025295499003, -8719.214346315188, -62979.4151162404, -29135.118917837015, -14173.822304466046, -39075.31965676781, -9879.471049245722, -31353.10487188159, -0.042, 0.922, 0.43, 192.0, 0.0, 0.0, 0.0, 0.0, 0.0, 0.0, 0.0, 0.0, 0.0, 1.654155121950555E9, 0.0, 2022-06-02 09:32:01.950
64.0, 22351.297420417955, -8723.617639972883, -62984.73483142076, -29134.403662014447, -14180.594883036005, -39074.13501431167, -9907.187212370303, -31348.67922647944, -0.042, 0.922, 0.43, 192.0, 0.0, 0.0, 0.0, 0.0, 0.0, 0.0, 0.0, 0.0, 0.0, 1.6541551219505637E9, 0.0, 2022-06-02 09:32:01.950
65.0, 22354.001981497047, -8708.86548863238, -62968.686278901856, -29111.582530925578, -14170.603653264483, -39052.49852567894, -9908.751834482175, -31335.96108388437, -0.042, 0.922, 0.43, 192.0, 0.0, 0.0, 0.0, 0.0, 0.0, 0.0, 0.0, 0.0, 0.0, 1.654155121950569E9, 0.0, 2022-06-02 09:32:01.950
66.0, 22363.76969382402, -8694.403909969797, -62951.14015950444, -29093.27645221668, -14146.910804141857, -39038.48398190546, -9854.99588906716, -31339.269142063757, -0.042, 0.922, 0.43, 192.0, 0.0, 0.0, 0.0, 0.0, 0.0, 0.0, 0.0, 0.0, 0.0, 1.654155121950574E9, 0.0, 2022-06-02 09:32:01.950
67.0, 22354.76194080853, -8711.190070055733, -62969.446238213335, -29111.783696625676, -14156.834978680014, -39058.53349668187, -9860.159142036337, -31342.756014198785, -0.042, 0.922, 0.43, 192.0, 0.0, 0.0, 0.0, 0.0, 0.0, 0.0, 0.0, 0.0, 0.0, 1.6541551219505792E9, 0.0, 2022-06-02 09:32:01.950
68.0, 22359.61226935533, -8718.34262828143, -62981.94086336385, -29123.697176420355, -14164.255757839175, -39072.01159858842, -9888.836430172496, -31362.98434293084, -0.042, 0.92, 0.43, 192.0, 254.0, 176.0, 28.0, 192.0, 13.0, 112.0, 0.0, 0.0, 0.0, 1.6541551219505851E9, 0.0, 2022-06-02 09:32:01.950
69.0, 22359.85813854434, -8718.186166070243, -62982.99139535325, -29124.457135731835, -14169.217845108253, -39075.49847072345, -9891.138659851393, -31376.93183147095, -0.042, 0.92, 0.43, 192.0, 0.0, 0.0, 0.0, 0.0, 0.0, 0.0, 0.0, 0.0, 0.0, 1.6541551219505906E9, 0.0, 2022-06-02 09:32:01.950
70.0, 22363.881452546295, -8708.127881065355, -62971.77081963669, -29111.940158836864, -14159.338374059007, -39066.91540085261, -9869.725688663208, -31333.614150716563, -0.042, 0.92, 0.43, 192.0, 0.0, 0.0, 0.0, 0.0, 0.0, 0.0, 0.0, 0.0, 0.0, 1.654155121950596E9, 0.0, 2022-06-02 09:32:01.950
71.0, 22365.468426402622, -8698.091947804922, -62962.98658406575, -29100.5184174202, -14149.123626842933, -39051.090365778255, -9875.984177110693, -31308.24492075979, -0.042, 0.92, 0.43, 192.0, 0.0, 0.0, 0.0, 0.0, 0.0, 0.0, 0.0, 0.0, 0.0, 1.6541551219506016E9, 0.0, 2022-06-02 09:32:01.950
72.0, 22368.754132837552, -8693.420433213763, -62959.231490997256, -29096.539806907156, -14151.761132688658, -39047.20116224303, -9885.707185948753, -31320.270159276744, -0.042, 0.92, 0.43, 192.0, 0.0, 0.0, 0.0, 0.0, 0.0, 0.0, 0.0, 0.0, 0.0, 1.6541551219506068E9, 0.0, 2022-06-02 09:32:01.950
73.0, 22354.314905919422, -8712.084139833945, -62983.25961628671, -29116.969301339308, -14175.789257978113, -39069.8211276318, -9889.506982506155, -31340.073804864147, -0.042, 0.92, 0.43, 192.0, 0.0, 0.0, 0.0, 0.0, 0.0, 0.0, 0.0, 0.0, 0.0, 1.6541551219506123E9, 0.0, 2022-06-02 09:32:01.950
74.0, 22354.449016386156, -8711.502994478107, -62978.05165982863, -29113.884760604473, -14171.207150364775, -39073.57622070029, -9889.730499950707, -31362.045569663715, -0.042, 0.92, 0.43, 192.0, 0.0, 0.0, 0.0, 0.0, 0.0, 0.0, 0.0, 0.0, 0.0, 1.6541551219506178E9, 0.0, 2022-06-02 09:32:01.950
75.0, 22355.410141397733, -8703.076386818455, -62961.64547939843, -29099.132609263972, -14160.880644426423, -39060.47809844949, -9880.38747076839, -31330.574313470643, -0.042, 0.92, 0.43, 192.0, 0.0, 0.0, 0.0, 0.0, 0.0, 0.0, 0.0, 0.0, 0.0, 1.654155121950623E9, 0.0, 2022-06-02 09:32:01.950
76.0, 22360.08165598889, -8696.86260185988, -62948.36854319198, -29085.028658512674, -14150.330621043518, -39047.55879015432, -9857.253415257146, -31320.851304632582, -0.042, 0.92, 0.43, 192.0, 0.0, 0.0, 0.0, 0.0, 0.0, 0.0, 0.0, 0.0, 0.0, 1.6541551219506288E9, 0.0, 2022-06-02 09:32:01.950
77.0, 22362.115664734327, -8704.842174630425, -62955.63286013995, -29092.7176586053, -14157.32671705803, -39060.14282228265, -9867.3787554954, -31345.10294736659, -0.042, 0.92, 0.43, 192.0, 0.0, 0.0, 0.0, 0.0, 0.0, 0.0, 0.0, 0.0, 0.0, 1.654155121950634E9, 0.0, 2022-06-02 09:32:01.950
78.0, 22355.164272208724, -8720.913078893791, -62977.694031917345, -29114.600016427044, -14179.052612668589, -39083.0757120938, -9910.629381016419, -31348.92509566845, -0.036000000000000004, 0.934, 0.426, 192.0, 254.0, 224.0, 29.0, 48.0, 13.0, 80.0, 0.0, 0.0, 0.0, 1.6541551219506392E9, 0.0, 2022-06-02 09:32:01.950
79.0, 22353.309077418933, -8720.600154471416, -62972.374316736976, -29115.13645829397, -14178.694984757303, -39081.95812487103, -9888.81407842804, -31346.15347935599, -0.036000000000000004, 0.934, 0.426, 192.0, 0.0, 0.0, 0.0, 0.0, 0.0, 0.0, 0.0, 0.0, 0.0, 1.6541551219506445E9, 0.0, 2022-06-02 09:32:01.950
80.0, 22356.728894320597, -8706.563258953483, -62946.580403635555, -29094.505798161725, -14156.477350768728, -39060.947485083045, -9858.23689201318, -31320.2925110212, -0.036000000000000004, 0.934, 0.426, 192.0, 0.0, 0.0, 0.0, 0.0, 0.0, 0.0, 0.0, 0.0, 0.0, 1.6541551219506505E9, 0.0, 2022-06-02 09:32:01.950
81.0, 22365.960164780638, -8689.777098867547, -62931.18005170585, -29078.211376453804, -14143.647449451382, -39044.72011860849, -9855.465275700722, -31294.789170597694, -0.036000000000000004, 0.934, 0.426, 192.0, 0.0, 0.0, 0.0, 0.0, 0.0, 0.0, 0.0, 0.0, 0.0, 1.6541551219506557E9, 0.0, 2022-06-02 09:32:01.950
82.0, 22376.28667071899, -8685.127936020845, -62933.705798829295, -29081.966469522296, -14141.74755117268, -39049.8163163443, -9858.058078057538, -31337.30218855169, -0.036000000000000004, 0.934, 0.426, 192.0, 0.0, 0.0, 0.0, 0.0, 0.0, 0.0, 0.0, 0.0, 0.0, 1.6541551219506607E9, 0.0, 2022-06-02 09:32:01.950
83.0, 22364.931984535695, -8704.261029274587, -62958.13625551895, -29103.62530989949, -14164.121647372443, -39073.88914512267, -9889.574037739521, -31344.588857244118, -0.036000000000000004, 0.934, 0.426, 192.0, 0.0, 0.0, 0.0, 0.0, 0.0, 0.0, 0.0, 0.0, 0.0, 1.6541551219506664E9, 0.0, 2022-06-02 09:32:01.950
84.0, 22352.48206287409, -8720.041360860034, -62969.5132934467, -29114.801182127143, -14184.394679593406, -39085.93673538408, -9898.29121807709, -31355.272991093756, -0.036000000000000004, 0.934, 0.426, 192.0, 0.0, 0.0, 0.0, 0.0, 0.0, 0.0, 0.0, 0.0, 0.0, 1.6541551219506717E9, 0.0, 2022-06-02 09:32:01.950
85.0, 22362.495644390066, -8706.272686275564, -62947.6085838805, -29100.76428660921, -14170.380135819929, -39076.79487190186, -9863.310738004535, -31344.611208988576, -0.036000000000000004, 0.934, 0.426, 192.0, 0.0, 0.0, 0.0, 0.0, 0.0, 0.0, 0.0, 0.0, 0.0, 1.654155121950677E9, 0.0, 2022-06-02 09:32:01.950
86.0, 22365.066095002425, -8696.236753015131, -62937.215022708784, -29090.258966715213, -14156.387943790907, -39060.9698368275, -9855.152351278348, -31300.19829275588, -0.036000000000000004, 0.934, 0.426, 192.0, 0.0, 0.0, 0.0, 0.0, 0.0, 0.0, 0.0, 0.0, 0.0, 1.6541551219506848E9, 0.0, 2022-06-02 09:32:01.950
87.0, 22378.58890039789, -8685.351453465397, -62935.65040059691, -29082.145283477937, -14149.74947568768, -39051.04566228935, -9862.126095548403, -31316.11273480806, -0.036000000000000004, 0.934, 0.426, 192.0, 0.0, 0.0, 0.0, 0.0, 0.0, 0.0, 0.0, 0.0, 0.0, 1.65415512195069E9, 0.0, 2022-06-02 09:32:01.950
88.0, 22370.89990030526, -8700.125956550355, -62949.97786879276, -29100.540769164654, -14158.37724904743, -39073.73268291148, -9858.303947246546, -31332.608322216074, -0.03, 0.9480000000000001, 0.432, 192.0, 255.0, 16.0, 29.0, 160.0, 13.0, 128.0, 0.0, 0.0, 0.0, 1.6541551219506955E9, 0.0, 2022-06-02 09:32:01.950
89.0, 22360.685153089187, -8709.848965388413, -62960.68435438685, -29110.8225716141, -14168.435534052318, -39082.53927022687, -9878.733441678696, -31332.58597047162, -0.03, 0.9480000000000001, 0.432, 192.0, 0.0, 0.0, 0.0, 0.0, 0.0, 0.0, 0.0, 0.0, 0.0, 1.6541551219507005E9, 0.0, 2022-06-02 09:32:01.950
90.0, 22363.479121146098, -8697.801375127003, -62949.03909552564, -29096.450399929334, -14160.634775237415, -39066.35660724123, -9856.158179778837, -31325.16519131246, -0.03, 0.9480000000000001, 0.432, 192.0, 0.0, 0.0, 0.0, 0.0, 0.0, 0.0, 0.0, 0.0, 0.0, 1.6541551219507062E9, 0.0, 2022-06-02 09:32:01.950
91.0, 22370.47521716061, -8687.787793611025, -62937.639705853435, -29086.19094922435, -14144.541519229595, -39055.11367978021, -9851.106685531937, -31322.885313378018, -0.03, 0.9480000000000001, 0.432, 192.0, 0.0, 0.0, 0.0, 0.0, 0.0, 0.0, 0.0, 0.0, 0.0, 1.6541551219507117E9, 0.0, 2022-06-02 09:32:01.950
92.0, 22376.91251956374, -8689.374767467352, -62934.82338605206, -29087.867330058496, -14138.975934860222, -39055.96304606951, -9826.653877097831, -31317.58794994211, -0.03, 0.9480000000000001, 0.432, 192.0, 0.0, 0.0, 0.0, 0.0, 0.0, 0.0, 0.0, 0.0, 0.0, 1.654155121950717E9, 0.0, 2022-06-02 09:32:01.950
93.0, 22370.81049332744, -8703.836346129936, -62956.68339212935, -29105.145228522448, -14161.171217104342, -39069.53055495388, -9855.219406511713, -31331.043700104205, -0.03, 0.9480000000000001, 0.432, 192.0, 0.0, 0.0, 0.0, 0.0, 0.0, 0.0, 0.0, 0.0, 0.0, 1.6541551219507225E9, 0.0, 2022-06-02 09:32:01.950
94.0, 22365.267260702523, -8708.597267698917, -62963.88065384396, -29111.6719379034, -14170.46954279775, -39073.598572444746, -9876.207694555247, -31345.30411306669, -0.03, 0.9480000000000001, 0.432, 192.0, 0.0, 0.0, 0.0, 0.0, 0.0, 0.0, 0.0, 0.0, 0.0, 1.6541551219507277E9, 0.0, 2022-06-02 09:32:01.950
95.0, 22362.987382768082, -8700.058901316988, -62953.12946476096, -29101.81481859861, -14161.864121182458, -39060.23222926047, -9872.072621831016, -31325.902798879484, -0.03, 0.9480000000000001, 0.432, 192.0, 0.0, 0.0, 0.0, 0.0, 0.0, 0.0, 0.0, 0.0, 0.0, 1.654155121950736E9, 0.0, 2022-06-02 09:32:01.950
96.0, 22366.787179325485, -8694.403909969797, -62947.04979026911, -29093.857597572518, -14154.75626644567, -39051.04566228935, -9852.850121599451, -31304.735696880307, -0.03, 0.9480000000000001, 0.432, 192.0, 0.0, 0.0, 0.0, 0.0, 0.0, 0.0, 0.0, 0.0, 0.0, 1.6541551219507413E9, 0.0, 2022-06-02 09:32:01.950
97.0, 22390.547083681475, -8681.082270274434, -62938.399665164914, -29083.732257334264, -14138.260679037652, -39043.177848241074, -9841.271917971602, -31305.093324791593, -0.03, 0.9480000000000001, 0.432, 192.0, 0.0, 0.0, 0.0, 0.0, 0.0, 0.0, 0.0, 0.0, 0.0, 1.6541551219507468E9, 0.0, 2022-06-02 09:32:01.950
98.0, 22385.56264466794, -8692.302845990998, -62954.67173512837, -29099.490237175258, -14149.70477219877, -39061.32746473879, -9844.199996495247, -31351.763767214274, -0.026000000000000002, 0.936, 0.438, 192.0, 255.0, 48.0, 29.0, 64.0, 13.0, 176.0, 0.0, 0.0, 0.0, 1.6541551219507523E9, 0.0, 2022-06-02 09:32:01.950
99.0, 22370.452865416155, -8704.506898463595, -62971.14497079194, -29114.376498982492, -14166.602691006981, -39076.86192713522, -9859.71210714723, -31350.713235224874, -0.026000000000000002, 0.936, 0.438, 192.0, 0.0, 0.0, 0.0, 0.0, 0.0, 0.0, 0.0, 0.0, 0.0, 1.6541551219507575E9, 0.0, 2022-06-02 09:32:01.950
100.0, 22371.39163868328, -8694.985055325635, -62958.87386308597, -29097.5679871521, -14159.673650225837, -39055.225438502486, -9862.684889159786, -31309.72013589384, -0.026000000000000002, 0.936, 0.438, 192.0, 0.0, 0.0, 0.0, 0.0, 0.0, 0.0, 0.0, 0.0, 0.0, 1.6541551219507625E9, 0.0, 2022-06-02 09:32:01.950
101.0, 22373.269185217523, -8687.452517444197, -62944.6581536124, -29082.48055964477, -14145.614402963449, -39038.707499350014, -9854.101819288948, -31318.504371464776, -0.026000000000000002, 0.936, 0.438, 192.0, 0.0, 0.0, 0.0, 0.0, 0.0, 0.0, 0.0, 0.0, 0.0, 1.654155121950768E9, 0.0, 2022-06-02 09:32:01.950
102.0, 22373.00096428406, -8691.900514590801, -62950.626069381964, -29087.308536447115, -14146.84374890849, -39045.65889187562, -9850.637298898375, -31335.089365850614, -0.026000000000000002, 0.936, 0.438, 192.0, 0.0, 0.0, 0.0, 0.0, 0.0, 0.0, 0.0, 0.0, 0.0, 1.6541551219507737E9, 0.0, 2022-06-02 09:32:01.950
103.0, 22361.109836233838, -8715.034570102045, -62972.19550278134, -29110.733164636276, -14162.333507816018, -39068.703540409035, -9864.316566505024, -31350.087386380124, -0.026000000000000002, 0.936, 0.438, 192.0, 0.0, 0.0, 0.0, 0.0, 0.0, 0.0, 0.0, 0.0, 0.0, 1.6541551219507787E9, 0.0, 2022-06-02 09:32:01.950
104.0, 22351.43153088469, -8728.959706897702, -62985.00305235423, -29122.557237453133, -14178.471467312751, -39077.800700402346, -9895.921933164827, -31352.657836992486, -0.026000000000000002, 0.936, 0.438, 192.0, 0.0, 0.0, 0.0, 0.0, 0.0, 0.0, 0.0, 0.0, 0.0, 1.6541551219507844E9, 0.0, 2022-06-02 09:32:01.950
105.0, 22359.321696677413, -8713.805224157004, -62967.92631959037, -29105.368745967004, -14166.490932284705, -39055.78423211387, -9882.95792138075, -31320.20310404338, -0.026000000000000002, 0.936, 0.438, 192.0, 0.0, 0.0, 0.0, 0.0, 0.0, 0.0, 0.0, 0.0, 0.0, 1.6541551224309535E9, 0.0, 2022-06-02 09:32:02.430
106.0, 22367.323621192412, -8698.784851883036, -62947.005086780206, -29086.034487013163, -14139.937059871801, -39039.40040342813, -9842.635374383375, -31298.23133924381, -0.026000000000000002, 0.936, 0.438, 192.0, 0.0, 0.0, 0.0, 0.0, 0.0, 0.0, 0.0, 0.0, 0.0, 1.6541551224311512E9, 0.0, 2022-06-02 09:32:02.431
107.0, 22379.43826668719, -8692.347549479908, -62946.111017002, -29082.27939394467, -14131.152824300865, -39037.63461561616, -9845.317583718013, -31308.222569015335, -0.04, 0.924, 0.438, 192.0, 254.0, 192.0, 28.0, 224.0, 13.0, 176.0, 0.0, 0.0, 0.0, 1.6541551224312036E9, 0.0, 2022-06-02 09:32:02.431
108.0, 22375.57141489642, -8705.758596153093, -62961.01963055368, -29102.440667443356, -14146.642583208393, -39060.09811879374, -9853.05128729955, -31337.615112974065, -0.04, 0.924, 0.438, 192.0, 0.0, 0.0, 0.0, 0.0, 0.0, 0.0, 0.0, 0.0, 0.0, 1.6541551224312105E9, 0.0, 2022-06-02 09:32:02.431
109.0, 22359.4781588886, -8722.365942283386, -62974.22951152677, -29122.132554308482, -14168.636699752415, -39077.4207207466, -9873.681947431796, -31350.087386380124, -0.04, 0.924, 0.438, 192.0, 0.0, 0.0, 0.0, 0.0, 0.0, 0.0, 0.0, 0.0, 0.0, 1.6541551224312184E9, 0.0, 2022-06-02 09:32:02.431
110.0, 22359.23228969959, -8711.39123575583, -62957.7115723743, -29106.754554123232, -14160.746533959691, -39058.220572259495, -9878.219351556225, -31332.943598382903, -0.04, 0.924, 0.438, 192.0, 0.0, 0.0, 0.0, 0.0, 0.0, 0.0, 0.0, 0.0, 0.0, 1.6541551224312243E9, 0.0, 2022-06-02 09:32:02.431
111.0, 22369.111760748838, -8695.81206987048, -62937.349133175514, -29086.52622539118, -14143.08865584, -39039.288644705855, -9867.222293284214, -31323.757031411773, -0.04, 0.924, 0.438, 192.0, 0.0, 0.0, 0.0, 0.0, 0.0, 0.0, 0.0, 0.0, 0.0, 1.6541551224312336E9, 0.0, 2022-06-02 09:32:02.431
112.0, 22381.449923688167, -8692.280494246543, -62932.252935439705, -29085.006306768217, -14131.152824300865, -39037.85813306071, -9818.741359560652, -31307.61907191504, -0.04, 0.924, 0.438, 192.0, 0.0, 0.0, 0.0, 0.0, 0.0, 0.0, 0.0, 0.0, 0.0, 1.6541551224312396E9, 0.0, 2022-06-02 09:32:02.431
113.0, 22374.2303102291, -8705.468023475174, -62947.54152864713, -29106.374574467492, -14151.783484433114, -39059.204049015534, -9860.449714714256, -31318.616130187052, -0.04, 0.924, 0.438, 192.0, 0.0, 0.0, 0.0, 0.0, 0.0, 0.0, 0.0, 0.0, 0.0, 1.654155122431246E9, 0.0, 2022-06-02 09:32:02.431
114.0, 22365.04374325797, -8713.939334623736, -62954.135293261446, -29116.745783894752, -14166.692097984804, -39066.84834561925, -9890.579866240008, -31345.617037489064, -0.04, 0.924, 0.438, 192.0, 0.0, 0.0, 0.0, 0.0, 0.0, 0.0, 0.0, 0.0, 0.0, 1.6541551224312522E9, 0.0, 2022-06-02 09:32:02.431
115.0, 22374.409124184745, -8693.733357636138, -62932.230583695244, -29095.645737128943, -14151.738780944203, -39044.98833954195, -9866.954072350749, -31332.071880349147, -0.04, 0.924, 0.438, 192.0, 0.0, 0.0, 0.0, 0.0, 0.0, 0.0, 0.0, 0.0, 0.0, 1.654155122431259E9, 0.0, 2022-06-02 09:32:02.431
116.0, 22379.706487620653, -8682.065747030467, -62922.820499279565, -29085.006306768217, -14141.188757561298, -39030.07972599027, -9854.593557666965, -31316.760935397262, -0.04, 0.924, 0.438, 192.0, 0.0, 0.0, 0.0, 0.0, 0.0, 0.0, 0.0, 0.0, 0.0, 1.6541551224312656E9, 0.0, 2022-06-02 09:32:02.431
117.0, 22364.306135690946, -8704.216325785676, -62945.73103734625, -29108.69915589084, -14162.646432238393, -39051.42564194508, -9883.628473714409, -31326.3945372575, -0.044, 0.918, 0.436, 192.0, 254.0, 160.0, 28.0, 176.0, 13.0, 160.0, 0.0, 0.0, 0.0, 1.6541551224312716E9, 0.0, 2022-06-02 09:32:02.431
118.0, 22372.844502072872, -8709.737206666137, -62949.240261225736, -29116.298749005648, -14172.503551543183, -39060.947485083045, -9899.364101810945, -31334.262351305766, -0.044, 0.918, 0.436, 192.0, 0.0, 0.0, 0.0, 0.0, 0.0, 0.0, 0.0, 0.0, 0.0, 1.6541551224312785E9, 0.0, 2022-06-02 09:32:02.431
119.0, 22368.530615393, -8712.464119489685, -62949.64259262593, -29120.925560107895, -14172.436496309818, -39064.7696333849, -9901.19694485628, -31358.044607406213, -0.044, 0.918, 0.436, 192.0, 0.0, 0.0, 0.0, 0.0, 0.0, 0.0, 0.0, 0.0, 0.0, 1.6541551224312844E9, 0.0, 2022-06-02 09:32:02.431
120.0, 22361.75803682304, -8706.697369420215, -62941.66301985539, -29109.347356480048, -14167.13913287391, -39053.10202277923, -9886.511848749144, -31318.57142669814, -0.044, 0.918, 0.436, 192.0, 0.0, 0.0, 0.0, 0.0, 0.0, 0.0, 0.0, 0.0, 0.0, 1.654155122431292E9, 0.0, 2022-06-02 09:32:02.431
121.0, 22366.67542060321, -8698.449575716208, -62928.43078713785, -29096.696269118343, -14150.934118143812, -39041.099136006735, -9838.500301659144, -31305.04862130268, -0.044, 0.918, 0.436, 192.0, 0.0, 0.0, 0.0, 0.0, 0.0, 0.0, 0.0, 0.0, 0.0, 1.6541551224313E9, 0.0, 2022-06-02 09:32:02.431
122.0, 22376.3313742079, -8696.90730534879, -62918.953647488794, -29092.89647256094, -14139.355914515963, -39037.20993247151, -9825.737455575163, -31335.40229027299, -0.044, 0.918, 0.436, 192.0, 0.0, 0.0, 0.0, 0.0, 0.0, 0.0, 0.0, 0.0, 0.0, 1.6541551224313073E9, 0.0, 2022-06-02 09:32:02.431
123.0, 22377.180740497202, -8704.953933352701, -62930.285981927635, -29104.98876631126, -14148.341315786996, -39052.900857079134, -9852.961880321727, -31341.81724093166, -0.044, 0.918, 0.436, 192.0, 0.0, 0.0, 0.0, 0.0, 0.0, 0.0, 0.0, 0.0, 0.0, 1.6541551224313128E9, 0.0, 2022-06-02 09:32:02.431
124.0, 22355.14192046427, -8730.591384242938, -62960.37142996448, -29131.073252090606, -14177.197417878799, -39076.63840969067, -9896.368968053934, -31349.72975846884, -0.044, 0.918, 0.436, 192.0, 0.0, 0.0, 0.0, 0.0, 0.0, 0.0, 0.0, 0.0, 0.0, 1.6541551224313192E9, 0.0, 2022-06-02 09:32:02.431
125.0, 22352.05737972944, -8719.817843415482, -62952.48126417176, -29116.634025172476, -14173.777600977135, -39056.477136191985, -9893.10561336346, -31329.344967525598, -0.044, 0.918, 0.436, 192.0, 0.0, 0.0, 0.0, 0.0, 0.0, 0.0, 0.0, 0.0, 0.0, 1.6541551224313247E9, 0.0, 2022-06-02 09:32:02.431
126.0, 22360.193414711168, -8701.645875173315, -62927.24614468171, -29095.310460962115, -14151.51526349965, -39033.477191147475, -9862.99781358216, -31312.290586506202, -0.044, 0.918, 0.436, 192.0, 0.0, 0.0, 0.0, 0.0, 0.0, 0.0, 0.0, 0.0, 0.0, 1.6541551224313323E9, 0.0, 2022-06-02 09:32:02.431
127.0, 22366.697772347663, -8703.09873856291, -62925.54741210311, -29098.596167397045, -14143.334525029008, -39040.65210111762, -9850.413781453823, -31336.58693272912, -0.054, 0.92, 0.432, 192.0, 254.0, 80.0, 28.0, 192.0, 13.0, 128.0, 0.0, 0.0, 0.0, 1.6541551224313412E9, 0.0, 2022-06-02 09:32:02.431
128.0, 22367.636545614787, -8714.431073001751, -62943.31704894508, -29115.427030971892, -14158.667821725348, -39060.54515368285, -9870.128020063403, -31365.44303482092, -0.054, 0.92, 0.432, 192.0, 0.0, 0.0, 0.0, 0.0, 0.0, 0.0, 0.0, 0.0, 0.0, 1.6541551224313636E9, 0.0, 2022-06-02 09:32:02.431
129.0, 22356.460673387133, -8723.86350916189, -62953.73296186125, -29121.66316767492, -14171.385964320418, -39067.16127004162, -9890.266941817636, -31333.368281527553, -0.054, 0.92, 0.432, 192.0, 0.0, 0.0, 0.0, 0.0, 0.0, 0.0, 0.0, 0.0, 0.0, 1.6541551224313707E9, 0.0, 2022-06-02 09:32:02.431
130.0, 22354.493719875067, -8715.302791035509, -62942.31122044459, -29107.112182034518, -14168.681403241326, -39052.49852567894, -9890.333997051, -31302.43346720141, -0.054, 0.92, 0.432, 192.0, 0.0, 0.0, 0.0, 0.0, 0.0, 0.0, 0.0, 0.0, 0.0, 1.6541551224313776E9, 0.0, 2022-06-02 09:32:02.431
131.0, 22373.47035091762, -8690.090023289922, -62915.06444395357, -29079.95481252132, -14138.439492993295, -39028.04571724483, -9839.886109815372, -31307.462609703853, -0.054, 0.92, 0.432, 192.0, 0.0, 0.0, 0.0, 0.0, 0.0, 0.0, 0.0, 0.0, 0.0, 1.6541551224313836E9, 0.0, 2022-06-02 09:32:02.431
132.0, 22373.224481728612, -8699.00836932759, -62927.134385959434, -29088.76139983671, -14143.245118051187, -39039.64627261714, -9862.953110093249, -31321.275987777233, -0.054, 0.92, 0.432, 192.0, 0.0, 0.0, 0.0, 0.0, 0.0, 0.0, 0.0, 0.0, 0.0, 1.6541551224313896E9, 0.0, 2022-06-02 09:32:02.431
133.0, 22362.495644390066, -8717.91794513678, -62950.626069381964, -29110.889626847464, -14163.540502016605, -39063.5179356954, -9893.753813952662, -31348.254543334788, -0.054, 0.92, 0.432, 192.0, 0.0, 0.0, 0.0, 0.0, 0.0, 0.0, 0.0, 0.0, 0.0, 1.6541551224314015E9, 0.0, 2022-06-02 09:32:02.431
134.0, 22366.25073745856, -8716.643895702828, -62945.73103734625, -29112.923635592895, -14161.640603737904, -39066.98245608598, -9862.953110093249, -31358.089310895124, -0.054, 0.92, 0.432, 192.0, 0.0, 0.0, 0.0, 0.0, 0.0, 0.0, 0.0, 0.0, 0.0, 1.6541551224314086E9, 0.0, 2022-06-02 09:32:02.431
135.0, 22366.407199669746, -8710.63127644435, -62933.929316273854, -29101.837170343064, -14150.129455343422, -39054.510182679915, -9838.14267374786, -31331.53543848222, -0.054, 0.92, 0.432, 192.0, 0.0, 0.0, 0.0, 0.0, 0.0, 0.0, 0.0, 0.0, 0.0, 1.654155122431416E9, 0.0, 2022-06-02 09:32:02.431
136.0, 22381.360516710345, -8690.805279112492, -62913.25395265269, -29075.931498519363, -14123.9332108418, -39033.76776382539, -9834.700505101742, -31292.129313007514, -0.054, 0.92, 0.432, 192.0, 0.0, 0.0, 0.0, 0.0, 0.0, 0.0, 0.0, 0.0, 0.0, 1.654155122431422E9, 0.0, 2022-06-02 09:32:02.431
137.0, 22384.825037100916, -8692.571066924462, -62920.02653122265, -29075.350353163525, -14128.962353344245, -39036.98641502696, -9849.385601208878, -31310.591853927595, -0.046, 0.932, 0.426, 192.0, 254.0, 144.0, 29.0, 32.0, 13.0, 80.0, 0.0, 0.0, 0.0, 1.6541551224314291E9, 0.0, 2022-06-02 09:32:02.431
138.0, 22368.798836326463, -8712.285305534042, -62944.52404314567, -29097.031545285172, -14152.163464088853, -39057.661778648115, -9862.014336826127, -31319.219627287344, -0.046, 0.932, 0.426, 192.0, 0.0, 0.0, 0.0, 0.0, 0.0, 0.0, 0.0, 0.0, 0.0, 1.6541551224314344E9, 0.0, 2022-06-02 09:32:02.431
139.0, 22356.259507687035, -8721.404817271807, -62961.041982298135, -29107.067478545607, -14171.832999209524, -39065.149613040645, -9886.3330347935, -31339.626769975042, -0.046, 0.932, 0.426, 192.0, 0.0, 0.0, 0.0, 0.0, 0.0, 0.0, 0.0, 0.0, 0.0, 1.6541551224314415E9, 0.0, 2022-06-02 09:32:02.431
140.0, 22345.75418779304, -8720.443692260229, -62957.979793307764, -29100.741934864753, -14165.574510762039, -39059.98636007147, -9870.217427041225, -31346.511107267277, -0.046, 0.932, 0.426, 192.0, 0.0, 0.0, 0.0, 0.0, 0.0, 0.0, 0.0, 0.0, 0.0, 1.6541551224314477E9, 0.0, 2022-06-02 09:32:02.431
141.0, 22350.582164595387, -8710.832442144447, -62946.7592175912, -29088.60493762552, -14151.649373966382, -39048.87754307718, -9858.371002479911, -31330.998996615293, -0.046, 0.932, 0.426, 192.0, 0.0, 0.0, 0.0, 0.0, 0.0, 0.0, 0.0, 0.0, 0.0, 1.6541551224314544E9, 0.0, 2022-06-02 09:32:02.431
142.0, 22361.601574611854, -8708.753729910104, -62950.782531593155, -29088.537882392156, -14153.772789689636, -39049.1681157551, -9865.367098494424, -31316.96210109736, -0.046, 0.932, 0.426, 192.0, 0.0, 0.0, 0.0, 0.0, 0.0, 0.0, 0.0, 0.0, 0.0, 1.654155122431463E9, 0.0, 2022-06-02 09:32:02.431
143.0, 22363.970859524117, -8714.855756146402, -62960.50554043121, -29096.62921388498, -14165.418048550851, -39058.39938621514, -9878.420517256322, -31333.10006059409, -0.046, 0.932, 0.426, 192.0, 0.0, 0.0, 0.0, 0.0, 0.0, 0.0, 0.0, 0.0, 0.0, 1.6541551224314692E9, 0.0, 2022-06-02 09:32:02.431
