%OpenBCI Raw EEG Data
%Number of channels = 8
%Sample Rate = 250 Hz
%Board = OpenBCI_GUI$BoardCytonSerial
Sample Index, EXG Channel 0, EXG Channel 1, EXG Channel 2, EXG Channel 3, EXG Channel 4, EXG Channel 5, EXG Channel 6, EXG Channel 7, Accel Channel 0, Accel Channel 1, Accel Channel 2, Other, Other, Other, Other, Other, Other, Other, Analog Channel 0, Analog Channel 1, Analog Channel 2, Timestamp, Other, Timestamp (Formatted)
0.0, 0.0, 0.0, 0.0, 0.0, 0.0, 0.0, 0.0, 0.0, 0.0, 0.0, 0.0, 192.0, 0.0, 0.0, 0.0, 0.0, 0.0, 0.0, 0.0, 0.0, 0.0, 1.65415633029643E9, 0.0, 2022-06-02 09:52:10.296
1.0, 26293.675755700562, 2996.273695978367, -78042.94860874994, -50423.45677893839, -34017.768087121025, -39217.16382708119, -2843.6112813486197, -39844.71140440839, 0.012, 0.776, 0.656, 192.0, 0.0, 96.0, 24.0, 64.0, 20.0, 128.0, 0.0, 0.0, 0.0, 1.654156330779796E9, 0.0, 2022-06-02 09:52:10.779
2.0, 26293.54164523383, 2998.6653326350847, -78055.175012967, -50434.47618895485, -34025.77001163602, -39222.10356260581, -2859.5257234007986, -39859.64236970453, 0.012, 0.776, 0.656, 192.0, 0.0, 0.0, 0.0, 0.0, 0.0, 0.0, 0.0, 0.0, 0.0, 1.6541563307799485E9, 0.0, 2022-06-02 09:52:10.779
3.0, 26289.138351576134, 2981.856820804694, -78094.62584193061, -50480.67724474397, -34061.21987834214, -39261.35322586933, -2908.945430391482, -39904.837596993166, 0.012, 0.776, 0.656, 192.0, 0.0, 0.0, 0.0, 0.0, 0.0, 0.0, 0.0, 0.0, 0.0, 1.654156330779955E9, 0.0, 2022-06-02 09:52:10.779
4.0, 26304.67281397257, 2991.9374575540373, -78084.81342611474, -50477.19037260895, -34049.97695088112, -39259.87801073528, -2906.0397036122927, -39896.25452712233, 0.012, 0.776, 0.656, 192.0, 0.0, 0.0, 0.0, 0.0, 0.0, 0.0, 0.0, 0.0, 0.0, 1.6541563307799604E9, 0.0, 2022-06-02 09:52:10.779
5.0, 26306.282139573355, 2998.7100361239955, -78064.8309665717, -50453.2069508084, -34038.77872690901, -39258.581609556866, -2873.495563685365, -39877.836689691154, 0.012, 0.776, 0.656, 192.0, 0.0, 0.0, 0.0, 0.0, 0.0, 0.0, 0.0, 0.0, 0.0, 1.6541563307799656E9, 0.0, 2022-06-02 09:52:10.779
6.0, 26304.382241294654, 3006.756664127906, -78040.53462034877, -50440.93584310244, -34020.67381390021, -39247.38338558476, -2845.5558831162316, -39864.87267790707, 0.012, 0.776, 0.656, 192.0, 0.0, 0.0, 0.0, 0.0, 0.0, 0.0, 0.0, 0.0, 0.0, 1.654156330779971E9, 0.0, 2022-06-02 09:52:10.779
7.0, 26307.1091541182, 3008.209527517501, -78051.3752164096, -50458.481962499856, -34029.726270404615, -39258.73807176806, -2865.024252536804, -39892.74530324284, 0.012, 0.776, 0.656, 192.0, 0.0, 0.0, 0.0, 0.0, 0.0, 0.0, 0.0, 0.0, 0.0, 1.6541563307799768E9, 0.0, 2022-06-02 09:52:10.779
8.0, 26319.179096124066, 3003.02392280387, -78083.49467319188, -50492.41191058301, -34068.61830575685, -39292.66801985121, -2919.6519159855743, -39948.736423103386, 0.01, 0.776, 0.656, 192.0, 0.0, 80.0, 24.0, 64.0, 20.0, 128.0, 0.0, 0.0, 0.0, 1.6541563307799823E9, 0.0, 2022-06-02 09:52:10.779
9.0, 26314.10525013271, 2992.026864531859, -78093.70942040795, -50511.16502418101, -34083.90689896428, -39319.467761453125, -2953.2018844129902, -39978.0395600843, 0.01, 0.776, 0.656, 192.0, 0.0, 0.0, 0.0, 0.0, 0.0, 0.0, 0.0, 0.0, 0.0, 1.654156330779988E9, 0.0, 2022-06-02 09:52:10.779
10.0, 26322.17422988108, 3007.3825129726547, -78060.427672914, -50479.090270887646, -34051.65333171527, -39286.49893838155, -2920.5236340193314, -39926.04940248125, 0.01, 0.776, 0.656, 192.0, 0.0, 0.0, 0.0, 0.0, 0.0, 0.0, 0.0, 0.0, 0.0, 1.6541563307799935E9, 0.0, 2022-06-02 09:52:10.779
11.0, 26344.883602247668, 3036.7303534424727, -78021.62504453959, -50431.615165664574, -34019.95855807764, -39250.80320248642, -2885.543153946776, -39890.778349730776, 0.01, 0.776, 0.656, 192.0, 0.0, 0.0, 0.0, 0.0, 0.0, 0.0, 0.0, 0.0, 0.0, 1.6541563307799993E9, 0.0, 2022-06-02 09:52:10.779
12.0, 26343.944828980548, 3036.1045045977244, -78036.46660285791, -50443.729811159355, -34030.19565703817, -39250.87025771979, -2877.5188776873206, -39890.84540496414, 0.01, 0.776, 0.656, 192.0, 0.0, 0.0, 0.0, 0.0, 0.0, 0.0, 0.0, 0.0, 0.0, 1.6541563307800052E9, 0.0, 2022-06-02 09:52:10.780
13.0, 26330.690244518548, 3014.445664220532, -78085.30516449275, -50487.65098901403, -34076.195547127194, -39283.54850811345, -2915.4274362835213, -39918.69567855545, 0.01, 0.776, 0.656, 192.0, 0.0, 0.0, 0.0, 0.0, 0.0, 0.0, 0.0, 0.0, 0.0, 1.6541563307800145E9, 0.0, 2022-06-02 09:52:10.780
14.0, 26326.711634005504, 3010.7352746409506, -78095.81048438675, -50496.21170714041, -34095.21688165866, -39296.44546466416, -2942.0036604408815, -39930.4750478834, 0.01, 0.776, 0.656, 192.0, 0.0, 0.0, 0.0, 0.0, 0.0, 0.0, 0.0, 0.0, 0.0, 1.65415633078002E9, 0.0, 2022-06-02 09:52:10.780
15.0, 26328.522125306386, 3019.40775148961, -78080.36542896813, -50483.94059943445, -34079.57066053995, -39283.615563346815, -2939.477913317432, -39927.50226587085, 0.01, 0.776, 0.656, 192.0, 0.0, 0.0, 0.0, 0.0, 0.0, 0.0, 0.0, 0.0, 0.0, 1.654156330780026E9, 0.0, 2022-06-02 09:52:10.780
16.0, 26334.9147242206, 3039.4572662660203, -78051.8669547876, -50450.144761818025, -34046.24420955708, -39253.70892926561, -2905.5479652342756, -39900.23313763537, 0.01, 0.776, 0.656, 192.0, 0.0, 0.0, 0.0, 0.0, 0.0, 0.0, 0.0, 0.0, 0.0, 1.6541563307800324E9, 0.0, 2022-06-02 09:52:10.780
17.0, 26358.138186709668, 3060.17733337609, -78034.5667045792, -50428.82119760766, -34025.50179070256, -39221.96945213908, -2867.7064618714408, -39862.30222729471, 0.01, 0.776, 0.656, 192.0, 0.0, 0.0, 0.0, 0.0, 0.0, 0.0, 0.0, 0.0, 0.0, 1.654156330780038E9, 0.0, 2022-06-02 09:52:10.780
18.0, 26361.40154140014, 3046.408658791621, -78079.27019348982, -50469.36726204959, -34067.523070278534, -39261.375577613784, -2910.442997269988, -39917.399277377044, 0.012, 0.782, 0.654, 192.0, 0.0, 96.0, 24.0, 112.0, 20.0, 112.0, 0.0, 0.0, 0.0, 1.6541563307800438E9, 0.0, 2022-06-02 09:52:10.780
19.0, 26352.192622684553, 3028.4155045050984, -78098.71621116594, -50489.372073337094, -34098.32377413795, -39291.28221169498, -2961.2485124169007, -39951.016301037824, 0.012, 0.782, 0.654, 192.0, 0.0, 0.0, 0.0, 0.0, 0.0, 0.0, 0.0, 0.0, 0.0, 1.6541563307800496E9, 0.0, 2022-06-02 09:52:10.780
20.0, 26349.041026716357, 3033.2881847963554, -78073.01170504233, -50467.489715515345, -34075.994381427096, -39275.770101043, -2922.2670700868453, -39911.63252730758, 0.012, 0.782, 0.654, 192.0, 0.0, 0.0, 0.0, 0.0, 0.0, 0.0, 0.0, 0.0, 0.0, 1.654156330780055E9, 0.0, 2022-06-02 09:52:10.780
21.0, 26362.02739024489, 3058.143324630657, -78038.85823951462, -50437.426619222955, -34041.28212228801, -39242.82362971588, -2877.4965259428654, -39880.161271114506, 0.012, 0.782, 0.654, 192.0, 0.0, 0.0, 0.0, 0.0, 0.0, 0.0, 0.0, 0.0, 0.0, 1.6541563307800612E9, 0.0, 2022-06-02 09:52:10.780
22.0, 26373.247965961455, 3070.36972884771, -78038.88059125908, -50435.45966571089, -34041.17036356573, -39237.749783724525, -2889.3205987597225, -39892.99117243185, 0.012, 0.782, 0.654, 192.0, 0.0, 0.0, 0.0, 0.0, 0.0, 0.0, 0.0, 0.0, 0.0, 1.6541563307800906E9, 0.0, 2022-06-02 09:52:10.780
23.0, 26370.051666504347, 3052.3542228167325, -78081.37125746862, -50476.7656894643, -34082.431683830226, -39277.312371410415, -2938.1591603945685, -39949.51873415932, 0.012, 0.782, 0.654, 192.0, 0.0, 0.0, 0.0, 0.0, 0.0, 0.0, 0.0, 0.0, 0.0, 1.654156330780096E9, 0.0, 2022-06-02 09:52:10.780
24.0, 26364.821358301804, 3030.0024783614253, -78095.81048438675, -50495.89878271804, -34101.31890789496, -39305.18499674618, -2948.9327012220265, -39964.06971979973, 0.012, 0.782, 0.654, 192.0, 0.0, 0.0, 0.0, 0.0, 0.0, 0.0, 0.0, 0.0, 0.0, 1.6541563307801013E9, 0.0, 2022-06-02 09:52:10.780
25.0, 26389.385925458188, 3058.791525219861, -78050.25762918683, -50461.16417183449, -34049.66402645875, -39267.879935250276, -2891.2204970384237, -39918.673326811, 0.012, 0.782, 0.654, 192.0, 0.0, 0.0, 0.0, 0.0, 0.0, 0.0, 0.0, 0.0, 0.0, 1.6541563307801068E9, 0.0, 2022-06-02 09:52:10.780
26.0, 26390.61527140323, 3082.149098175657, -78024.70958527441, -50435.45966571089, -34025.07710755791, -39230.35135630982, -2853.513104142321, -39864.87267790707, 0.012, 0.782, 0.654, 192.0, 0.0, 0.0, 0.0, 0.0, 0.0, 0.0, 0.0, 0.0, 0.0, 1.6541563307801125E9, 0.0, 2022-06-02 09:52:10.780
27.0, 26382.278070721397, 3077.1423074176682, -78036.84658251365, -50441.44993322491, -34038.13052631981, -39232.497123777524, -2871.819182851217, -39876.11560536809, 0.01, 0.782, 0.65, 192.0, 0.0, 80.0, 24.0, 112.0, 20.0, 80.0, 0.0, 0.0, 0.0, 1.6541563307801185E9, 0.0, 2022-06-02 09:52:10.780
28.0, 26356.350047153242, 3032.2376528069562, -78099.87850187761, -50496.23405888487, -34099.86604450537, -39293.115054740316, -2935.856930715672, -39951.35157720466, 0.01, 0.782, 0.65, 192.0, 0.0, 0.0, 0.0, 0.0, 0.0, 0.0, 0.0, 0.0, 0.0, 1.654156330780124E9, 0.0, 2022-06-02 09:52:10.780
29.0, 26366.296573435855, 3033.690516196551, -78096.19046404249, -50501.64318104305, -34095.32864038094, -39310.28119448199, -2936.1698551380464, -39963.22035351043, 0.01, 0.782, 0.65, 192.0, 0.0, 0.0, 0.0, 0.0, 0.0, 0.0, 0.0, 0.0, 0.0, 1.65415633078013E9, 0.0, 2022-06-02 09:52:10.780
30.0, 26388.782428357892, 3067.1287259016904, -78047.75423380783, -50463.17582883547, -34048.948770636176, -39273.19965043064, -2892.472194727921, -39926.11645771461, 0.01, 0.782, 0.65, 192.0, 0.0, 0.0, 0.0, 0.0, 0.0, 0.0, 0.0, 0.0, 0.0, 1.6541563307801354E9, 0.0, 2022-06-02 09:52:10.780
31.0, 26382.79216084387, 3075.667092283618, -78028.8670097431, -50447.46255248339, -34034.10721231785, -39247.09281290684, -2882.3245027452117, -39901.14955915804, 0.01, 0.782, 0.65, 192.0, 0.0, 0.0, 0.0, 0.0, 0.0, 0.0, 0.0, 0.0, 0.0, 1.6541563307801409E9, 0.0, 2022-06-02 09:52:10.780
32.0, 26386.815474845826, 3074.2142288940227, -78039.41703312601, -50455.55388397621, -34042.13148857731, -39238.55444652491, -2895.1097005736474, -39888.677285751975, 0.01, 0.782, 0.65, 192.0, 0.0, 0.0, 0.0, 0.0, 0.0, 0.0, 0.0, 0.0, 0.0, 1.6541563307801464E9, 0.0, 2022-06-02 09:52:10.780
33.0, 26397.141980784178, 3066.860504968227, -78066.5296991503, -50480.67724474397, -34060.07993937492, -39246.355205339816, -2900.7423401763845, -39891.538309042255, 0.01, 0.782, 0.65, 192.0, 0.0, 0.0, 0.0, 0.0, 0.0, 0.0, 0.0, 0.0, 0.0, 1.654156330780152E9, 0.0, 2022-06-02 09:52:10.780
34.0, 26386.100219023254, 3052.6671472391067, -78079.00197255636, -50494.73649200636, -34081.67172451875, -39273.55727834193, -2920.6800962305188, -39914.15827443103, 0.01, 0.782, 0.65, 192.0, 0.0, 0.0, 0.0, 0.0, 0.0, 0.0, 0.0, 0.0, 0.0, 1.6541563307801583E9, 0.0, 2022-06-02 09:52:10.780
35.0, 26392.157541770644, 3067.9557404465368, -78050.39173965357, -50468.71906146039, -34057.71065446266, -39255.921751966685, -2904.318619289234, -39903.29532662575, 0.01, 0.782, 0.65, 192.0, 0.0, 0.0, 0.0, 0.0, 0.0, 0.0, 0.0, 0.0, 0.0, 1.6541563307801638E9, 0.0, 2022-06-02 09:52:10.780
36.0, 26398.46073370704, 3085.881839499693, -78018.8087247382, -50439.48297971285, -34026.37350873632, -39219.73427769355, -2870.6792438839966, -39868.60541923111, 0.01, 0.782, 0.65, 192.0, 0.0, 0.0, 0.0, 0.0, 0.0, 0.0, 0.0, 0.0, 0.0, 1.6541563307801697E9, 0.0, 2022-06-02 09:52:10.780
37.0, 26393.2304255045, 3087.714682545028, -78034.47729760138, -50445.22737803786, -34035.783593152, -39222.170617839176, -2874.5237439303096, -39880.630657748065, 0.01, 0.786, 0.65, 192.0, 0.0, 80.0, 24.0, 144.0, 20.0, 80.0, 0.0, 0.0, 0.0, 1.6541563307801752E9, 0.0, 2022-06-02 09:52:10.780
38.0, 26396.717297639527, 3078.9975022074586, -78069.25661197385, -50478.08444238716, -34060.057587630465, -39252.25606587602, -2879.6199416661193, -39912.83952150816, 0.01, 0.786, 0.65, 192.0, 0.0, 0.0, 0.0, 0.0, 0.0, 0.0, 0.0, 0.0, 0.0, 1.6541563307801816E9, 0.0, 2022-06-02 09:52:10.780
39.0, 26412.341167013787, 3087.2005924225564, -78062.3722746816, -50477.70446273142, -34058.62707598532, -39256.50289732253, -2884.514973701832, -39907.408047605524, 0.01, 0.786, 0.65, 192.0, 0.0, 0.0, 0.0, 0.0, 0.0, 0.0, 0.0, 0.0, 0.0, 1.654156330780187E9, 0.0, 2022-06-02 09:52:10.780
40.0, 26402.75226864246, 3085.6806737995953, -78053.54333562175, -50462.68409045746, -34061.108119619865, -39255.38531009976, -2909.4595205139544, -39911.07373369619, 0.01, 0.786, 0.65, 192.0, 0.0, 0.0, 0.0, 0.0, 0.0, 0.0, 0.0, 0.0, 0.0, 1.6541563307801929E9, 0.0, 2022-06-02 09:52:10.780
41.0, 26397.544312184375, 3088.117013945224, -78043.61916108361, -50447.149628061015, -34047.540610735494, -39246.28815010645, -2908.05136061327, -39909.6208703066, 0.01, 0.786, 0.65, 192.0, 0.0, 0.0, 0.0, 0.0, 0.0, 0.0, 0.0, 0.0, 0.0, 1.6541563307801983E9, 0.0, 2022-06-02 09:52:10.780
42.0, 26408.56372220084, 3091.626237824707, -78053.16335596603, -50455.75504967631, -34053.97791313862, -39253.15013565423, -2907.5596222352533, -39936.30885318624, 0.01, 0.786, 0.65, 192.0, 0.0, 0.0, 0.0, 0.0, 0.0, 0.0, 0.0, 0.0, 0.0, 1.6541563307802038E9, 0.0, 2022-06-02 09:52:10.780
43.0, 26420.164277573145, 3085.501859843953, -78079.58311791219, -50481.66072150001, -34075.03325641552, -39271.74678704105, -2890.080558071203, -39942.8802660561, 0.01, 0.786, 0.65, 192.0, 0.0, 0.0, 0.0, 0.0, 0.0, 0.0, 0.0, 0.0, 0.0, 1.6541563307802136E9, 0.0, 2022-06-02 09:52:10.780
44.0, 26409.32368151232, 3076.4494033395536, -78090.66958316203, -50495.317637362205, -34093.51814908006, -39296.51251989753, -2923.3399538207, -39970.887001858595, 0.01, 0.786, 0.65, 192.0, 0.0, 0.0, 0.0, 0.0, 0.0, 0.0, 0.0, 0.0, 0.0, 1.6541563307802188E9, 0.0, 2022-06-02 09:52:10.780
45.0, 26396.069097050324, 3075.689444028073, -78075.73861786588, -50484.25352385682, -34082.632849530324, -39286.901269781745, -2925.664535244052, -39952.44681268297, 0.01, 0.786, 0.65, 192.0, 0.0, 0.0, 0.0, 0.0, 0.0, 0.0, 0.0, 0.0, 0.0, 1.6541563307802243E9, 0.0, 2022-06-02 09:52:10.780
46.0, 26409.56955070133, 3097.2812291718997, -78039.34997789263, -50447.88723562804, -34042.511468233046, -39237.72743198007, -2875.0378340527814, -39879.66953273649, 0.01, 0.786, 0.65, 192.0, 0.0, 0.0, 0.0, 0.0, 0.0, 0.0, 0.0, 0.0, 0.0, 1.6541563307802296E9, 0.0, 2022-06-02 09:52:10.780
47.0, 26401.053536063857, 3085.5689150773187, -78057.90192579055, -50449.85418914011, -34055.76605269504, -39244.83528671686, -2890.125261560114, -39896.008657933315, 0.018000000000000002, 0.78, 0.65, 192.0, 0.0, 144.0, 24.0, 96.0, 20.0, 80.0, 0.0, 0.0, 0.0, 1.654156330780235E9, 0.0, 2022-06-02 09:52:10.780
48.0, 26407.490838466983, 3077.723452773506, -78091.8318738737, -50485.79579422424, -34087.86315773286, -39281.31333366792, -2953.6936227910073, -39971.35638849215, 0.018000000000000002, 0.78, 0.65, 192.0, 0.0, 0.0, 0.0, 0.0, 0.0, 0.0, 0.0, 0.0, 0.0, 1.6541563307802403E9, 0.0, 2022-06-02 09:52:10.780
49.0, 26401.344108741774, 3066.234656123478, -78103.23126354591, -50501.687884531966, -34101.65418406179, -39303.039229278475, -2960.399146127599, -39977.748987406376, 0.018000000000000002, 0.78, 0.65, 192.0, 0.0, 0.0, 0.0, 0.0, 0.0, 0.0, 0.0, 0.0, 0.0, 1.6541563307802455E9, 0.0, 2022-06-02 09:52:10.780
50.0, 26414.59869320377, 3085.7030255440504, -78062.84166131516, -50465.03102362526, -34066.51724177805, -39270.472737607095, -2902.3069622882563, -39913.51007384182, 0.018000000000000002, 0.78, 0.65, 192.0, 0.0, 0.0, 0.0, 0.0, 0.0, 0.0, 0.0, 0.0, 0.0, 1.6541563307802508E9, 0.0, 2022-06-02 09:52:10.780
51.0, 26414.576341459317, 3095.247220426467, -78039.34997789263, -50445.964985604885, -34045.305436289964, -39247.91982745169, -2877.5412294317757, -39889.52665204128, 0.018000000000000002, 0.78, 0.65, 192.0, 0.0, 0.0, 0.0, 0.0, 0.0, 0.0, 0.0, 0.0, 0.0, 1.6541563307802563E9, 0.0, 2022-06-02 09:52:10.780
52.0, 26415.09043158179, 3101.818633296327, -78040.42286162649, -50437.51602620078, -34042.66793044424, -39244.52236229448, -2878.7705753768178, -39903.764713259305, 0.018000000000000002, 0.78, 0.65, 192.0, 0.0, 0.0, 0.0, 0.0, 0.0, 0.0, 0.0, 0.0, 0.0, 1.6541563307802615E9, 0.0, 2022-06-02 09:52:10.780
53.0, 26405.590940188282, 3075.2200573945115, -78091.5860046847, -50488.254486114325, -34097.27324214855, -39292.690371595665, -2954.3865268691216, -39978.10661531766, 0.018000000000000002, 0.78, 0.65, 192.0, 0.0, 0.0, 0.0, 0.0, 0.0, 0.0, 0.0, 0.0, 0.0, 1.6541563307802668E9, 0.0, 2022-06-02 09:52:10.780
54.0, 26381.719277110016, 3047.883873925671, -78115.85999916315, -50512.729646292886, -34120.47435289316, -39322.909930099246, -2954.0959541912025, -39987.06966484424, 0.018000000000000002, 0.78, 0.65, 192.0, 0.0, 0.0, 0.0, 0.0, 0.0, 0.0, 0.0, 0.0, 0.0, 1.6541563307802722E9, 0.0, 2022-06-02 09:52:10.780
55.0, 26382.009849787933, 3065.4523450675424, -78075.85037658816, -50481.392500566544, -34088.51135832207, -39290.477548894596, -2905.436206511999, -39938.96871077642, 0.018000000000000002, 0.78, 0.65, 192.0, 0.0, 0.0, 0.0, 0.0, 0.0, 0.0, 0.0, 0.0, 0.0, 1.6541563307802775E9, 0.0, 2022-06-02 09:52:10.780
56.0, 26402.729916898003, 3096.4542146270533, -78032.10801268912, -50440.60056693561, -34056.280142817515, -39244.745879739035, -2894.4614999844434, -39908.34682087265, 0.018000000000000002, 0.78, 0.65, 192.0, 0.0, 0.0, 0.0, 0.0, 0.0, 0.0, 0.0, 0.0, 0.0, 1.6541563307802827E9, 0.0, 2022-06-02 09:52:10.780
57.0, 26390.101181280756, 3080.539772574875, -78055.24206820036, -50464.338119547145, -34075.368532582346, -39266.02474046049, -2919.6519159855743, -39950.56926614872, 0.018000000000000002, 0.782, 0.652, 192.0, 0.0, 144.0, 24.0, 112.0, 20.0, 96.0, 0.0, 0.0, 0.0, 1.6541563307802882E9, 0.0, 2022-06-02 09:52:10.780
58.0, 26383.574471899807, 3057.3610135747213, -78104.17003681303, -50516.3729806391, -34120.60846335989, -39310.05767703744, -2972.089108477725, -40019.50204604889, 0.018000000000000002, 0.782, 0.652, 192.0, 0.0, 0.0, 0.0, 0.0, 0.0, 0.0, 0.0, 0.0, 0.0, 1.6541563307802937E9, 0.0, 2022-06-02 09:52:10.780
59.0, 26398.505437195952, 3061.1384583876684, -78094.40232448606, -50506.493509589855, -34111.712469066675, -39303.955650801145, -2951.056116945281, -39977.92780136201, 0.018000000000000002, 0.782, 0.652, 192.0, 0.0, 0.0, 0.0, 0.0, 0.0, 0.0, 0.0, 0.0, 0.0, 1.6541563307803004E9, 0.0, 2022-06-02 09:52:10.780
60.0, 26403.691041909584, 3073.65543528264, -78067.73669335087, -50476.47511678638, -34096.8485590039, -39278.02762723299, -2956.599349570197, -39950.39045219308, 0.018000000000000002, 0.782, 0.652, 192.0, 0.0, 0.0, 0.0, 0.0, 0.0, 0.0, 0.0, 0.0, 0.0, 1.6541563307803063E9, 0.0, 2022-06-02 09:52:10.780
61.0, 26404.205132032053, 3086.0606534553353, -78046.61429484062, -50457.85611365511, -34070.85348020238, -39260.01212120201, -2929.218462612446, -39948.28938821428, 0.018000000000000002, 0.782, 0.652, 192.0, 0.0, 0.0, 0.0, 0.0, 0.0, 0.0, 0.0, 0.0, 0.0, 1.6541563307803116E9, 0.0, 2022-06-02 09:52:10.780
62.0, 26416.543294971383, 3098.085891972291, -78044.08854771717, -50450.502389729314, -34048.4346805137, -39250.17735364167, -2872.4003282070553, -39918.96389948892, 0.018000000000000002, 0.782, 0.652, 192.0, 0.0, 0.0, 0.0, 0.0, 0.0, 0.0, 0.0, 0.0, 0.0, 1.6541563307803173E9, 0.0, 2022-06-02 09:52:10.780
63.0, 26394.303309238352, 3065.1394206451682, -78105.95817636946, -50500.39148335356, -34108.69498356521, -39287.86239479332, -2930.9171951910494, -39952.20094349396, 0.018000000000000002, 0.782, 0.652, 192.0, 0.0, 0.0, 0.0, 0.0, 0.0, 0.0, 0.0, 0.0, 0.0, 1.6541563307803233E9, 0.0, 2022-06-02 09:52:10.780
64.0, 26382.680402121594, 3047.7721152033946, -78117.20110383048, -50519.636335329575, -34136.92523681226, -39310.41530494873, -2972.2679224333674, -39979.35831300716, 0.018000000000000002, 0.782, 0.652, 192.0, 0.0, 0.0, 0.0, 0.0, 0.0, 0.0, 0.0, 0.0, 0.0, 1.6541563307803311E9, 0.0, 2022-06-02 09:52:10.780
65.0, 26402.46169596454, 3083.9595894765366, -78069.0777980182, -50476.31865457519, -34091.238271145616, -39268.930467239676, -2936.4157243270547, -39942.433231166986, 0.018000000000000002, 0.782, 0.652, 192.0, 0.0, 0.0, 0.0, 0.0, 0.0, 0.0, 0.0, 0.0, 0.0, 1.6541563307803364E9, 0.0, 2022-06-02 09:52:10.780
66.0, 26396.762001128438, 3088.631104067696, -78045.04967272874, -50444.757991404294, -34063.36564580985, -39253.70892926561, -2889.9464476044714, -39916.5722628322, 0.018000000000000002, 0.782, 0.652, 192.0, 0.0, 0.0, 0.0, 0.0, 0.0, 0.0, 0.0, 0.0, 0.0, 1.6541563307803419E9, 0.0, 2022-06-02 09:52:10.780
67.0, 26407.110858811244, 3096.789490793883, -78045.80963204023, -50445.76381990479, -34064.4385295437, -39247.58455128486, -2891.5557732052534, -39919.45563786694, 0.014, 0.782, 0.646, 192.0, 0.0, 112.0, 24.0, 112.0, 20.0, 48.0, 0.0, 0.0, 0.0, 1.654156330780348E9, 0.0, 2022-06-02 09:52:10.780
68.0, 26388.491855679975, 3066.2570078679337, -78098.24682453237, -50495.76467225131, -34114.05940223449, -39288.711761082624, -2951.369041367655, -39970.61878092513, 0.014, 0.782, 0.646, 192.0, 0.0, 0.0, 0.0, 0.0, 0.0, 0.0, 0.0, 0.0, 0.0, 1.6541563307803533E9, 0.0, 2022-06-02 09:52:10.780
69.0, 26389.18475975809, 3063.597150277752, -78096.0340018313, -50497.23988738536, -34122.26249244958, -39297.74186584257, -2972.759660811384, -39976.87726937262, 0.014, 0.782, 0.646, 192.0, 0.0, 0.0, 0.0, 0.0, 0.0, 0.0, 0.0, 0.0, 0.0, 1.654156330780359E9, 0.0, 2022-06-02 09:52:10.780
70.0, 26407.71435591154, 3088.6758075566063, -78048.00010299684, -50453.69868918642, -34068.730064479125, -39259.31921712389, -2891.3322557607003, -39920.75203904534, 0.014, 0.782, 0.646, 192.0, 0.0, 0.0, 0.0, 0.0, 0.0, 0.0, 0.0, 0.0, 0.0, 1.654156330780365E9, 0.0, 2022-06-02 09:52:10.780
71.0, 26414.59869320377, 3103.8973455306705, -78023.10025967364, -50431.59281392012, -34047.27238980203, -39227.333870808354, -2869.9863398058824, -39891.247736364334, 0.014, 0.782, 0.646, 192.0, 0.0, 0.0, 0.0, 0.0, 0.0, 0.0, 0.0, 0.0, 0.0, 1.6541563307803707E9, 0.0, 2022-06-02 09:52:10.780
72.0, 26421.952417129567, 3108.4123979106425, -78029.82813475467, -50425.31197372818, -34054.35789279436, -39227.57973999736, -2893.723892417418, -39910.8725679961, 0.014, 0.782, 0.646, 192.0, 0.0, 0.0, 0.0, 0.0, 0.0, 0.0, 0.0, 0.0, 0.0, 1.654156330780377E9, 0.0, 2022-06-02 09:52:10.780
73.0, 26413.481105981005, 3085.948894733059, -78074.10694052064, -50468.473192271376, -34091.21591940116, -39262.94019972566, -2939.120285406147, -39952.80444059425, 0.014, 0.782, 0.646, 192.0, 0.0, 0.0, 0.0, 0.0, 0.0, 0.0, 0.0, 0.0, 0.0, 1.6541563307803829E9, 0.0, 2022-06-02 09:52:10.780
74.0, 26415.55981821535, 3078.8410399962713, -78075.87272833262, -50474.53051501876, -34089.96422171166, -39276.48535686557, -2921.1941863529905, -39947.03769052478, 0.014, 0.782, 0.646, 192.0, 0.0, 0.0, 0.0, 0.0, 0.0, 0.0, 0.0, 0.0, 0.0, 1.654156330780388E9, 0.0, 2022-06-02 09:52:10.780
75.0, 26412.251760035964, 3080.137441174679, -78057.7231118349, -50460.158343334006, -34080.062398917966, -39268.12580443929, -2920.9706689084373, -39944.64605386806, 0.014, 0.782, 0.646, 192.0, 0.0, 0.0, 0.0, 0.0, 0.0, 0.0, 0.0, 0.0, 0.0, 1.6541563307803936E9, 0.0, 2022-06-02 09:52:10.780
76.0, 26407.870818122723, 3087.424109867109, -78037.69594880295, -50447.37314550557, -34064.01384639905, -39251.876086220276, -2919.607212496664, -39937.13586773108, 0.014, 0.782, 0.646, 192.0, 0.0, 0.0, 0.0, 0.0, 0.0, 0.0, 0.0, 0.0, 0.0, 1.654156330780399E9, 0.0, 2022-06-02 09:52:10.780
77.0, 26411.51415246894, 3093.9955227369696, -78038.29944590323, -50452.33523277465, -34066.98662841161, -39253.2171908876, -2923.0717328872365, -39948.311739958735, 0.012, 0.786, 0.65, 192.0, 0.0, 96.0, 24.0, 144.0, 20.0, 80.0, 0.0, 0.0, 0.0, 1.6541563307804043E9, 0.0, 2022-06-02 09:52:10.780
78.0, 26412.341167013787, 3080.584476063785, -78073.50344342036, -50483.5159162898, -34101.6988875507, -39279.61460108931, -2955.884093747627, -39963.555629677256, 0.012, 0.786, 0.65, 192.0, 0.0, 0.0, 0.0, 0.0, 0.0, 0.0, 0.0, 0.0, 0.0, 1.65415633078041E9, 0.0, 2022-06-02 09:52:10.780
79.0, 26409.167219301133, 3074.3259876162992, -78077.61616440013, -50487.53923029175, -34098.83786426042, -39289.136444227275, -2915.3603810501554, -39935.794763063765, 0.012, 0.786, 0.65, 192.0, 0.0, 0.0, 0.0, 0.0, 0.0, 0.0, 0.0, 0.0, 0.0, 1.654156330780416E9, 0.0, 2022-06-02 09:52:10.780
80.0, 26416.09626008228, 3083.110223187235, -78054.1244809776, -50469.12139286058, -34082.23051813013, -39278.362903399815, -2910.0630176142477, -39932.33024267319, 0.012, 0.786, 0.65, 192.0, 0.0, 0.0, 0.0, 0.0, 0.0, 0.0, 0.0, 0.0, 0.0, 1.6541563307804232E9, 0.0, 2022-06-02 09:52:10.780
81.0, 26425.975731131522, 3107.3842176656985, -78015.38890783655, -50436.64430816702, -34048.32292179143, -39244.50001055003, -2882.3915579785776, -39898.13207365657, 0.012, 0.786, 0.65, 192.0, 0.0, 0.0, 0.0, 0.0, 0.0, 0.0, 0.0, 0.0, 0.0, 1.6541563307804315E9, 0.0, 2022-06-02 09:52:10.780
82.0, 26422.04182410739, 3106.8701275432263, -78021.1109544171, -50435.83964536663, -34051.42981427071, -39237.57096976888, -2884.805546379751, -39888.811396218705, 0.012, 0.786, 0.65, 192.0, 0.0, 0.0, 0.0, 0.0, 0.0, 0.0, 0.0, 0.0, 0.0, 1.6541563307804396E9, 0.0, 2022-06-02 09:52:10.780
83.0, 26407.557893700352, 3075.018891694414, -78074.77749285431, -50485.035834912764, -34099.776637527546, -39278.20644118863, -2937.287442360812, -39946.501248657856, 0.012, 0.786, 0.65, 192.0, 0.0, 0.0, 0.0, 0.0, 0.0, 0.0, 0.0, 0.0, 0.0, 1.6541563307804515E9, 0.0, 2022-06-02 09:52:10.780
84.0, 26430.379024789218, 3088.117013945224, -78060.13710023607, -50462.21470382389, -34090.90299497879, -39277.22296443259, -2934.5828812817194, -39941.315643944225, 0.012, 0.786, 0.65, 192.0, 0.0, 0.0, 0.0, 0.0, 0.0, 0.0, 0.0, 0.0, 0.0, 1.6541563307804604E9, 0.0, 2022-06-02 09:52:10.780
85.0, 26437.263362081452, 3100.7681013069277, -78027.59296030915, -50430.81050286419, -34051.45216601517, -39253.15013565423, -2882.346854489667, -39907.7209720279, 0.012, 0.786, 0.65, 192.0, 0.0, 0.0, 0.0, 0.0, 0.0, 0.0, 0.0, 0.0, 0.0, 1.6541563307804687E9, 0.0, 2022-06-02 09:52:10.780
86.0, 26427.272132309932, 3100.3210664178214, -78010.65033801203, -50416.393627690515, -34037.59408445288, -39231.13366736575, -2859.860999567628, -39877.210840846405, 0.012, 0.786, 0.65, 192.0, 0.0, 0.0, 0.0, 0.0, 0.0, 0.0, 0.0, 0.0, 0.0, 1.6541563307804837E9, 0.0, 2022-06-02 09:52:10.780
87.0, 26426.04278636489, 3099.695217573073, -78026.27420738629, -50428.26240399628, -34051.36275903735, -39232.45242028862, -2882.0115783228375, -39887.962029929404, 0.012, 0.78, 0.654, 192.0, 0.0, 96.0, 24.0, 96.0, 20.0, 112.0, 0.0, 0.0, 0.0, 1.6541563307804904E9, 0.0, 2022-06-02 09:52:10.780
88.0, 26421.013643862447, 3085.8371360107826, -78067.91550730652, -50469.76959344979, -34086.72321876565, -39268.25991490602, -2932.347706836189, -39948.021167280815, 0.012, 0.78, 0.654, 192.0, 0.0, 0.0, 0.0, 0.0, 0.0, 0.0, 0.0, 0.0, 0.0, 1.6541563307804978E9, 0.0, 2022-06-02 09:52:10.780
89.0, 26421.28186479591, 3079.0645574408245, -78073.83871958718, -50475.02225339678, -34094.61338455837, -39283.05676973543, -2929.218462612446, -39957.96769356343, 0.012, 0.78, 0.654, 192.0, 0.0, 0.0, 0.0, 0.0, 0.0, 0.0, 0.0, 0.0, 0.0, 1.6541563307805042E9, 0.0, 2022-06-02 09:52:10.780
90.0, 26428.27796081042, 3094.464909370531, -78046.27901867378, -50448.37897400606, -34071.56873602494, -39264.54952532644, -2924.7481137213845, -39943.99785327886, 0.012, 0.78, 0.654, 192.0, 0.0, 0.0, 0.0, 0.0, 0.0, 0.0, 0.0, 0.0, 0.0, 1.6541563307805097E9, 0.0, 2022-06-02 09:52:10.780
91.0, 26406.66382392214, 3083.154926676146, -78039.12646044808, -50447.79782865022, -34058.15768935176, -39250.9149612087, -2900.0494360982702, -39916.013469220816, 0.012, 0.78, 0.654, 192.0, 0.0, 0.0, 0.0, 0.0, 0.0, 0.0, 0.0, 0.0, 0.0, 1.6541563307805154E9, 0.0, 2022-06-02 09:52:10.780
92.0, 26404.1827802876, 3077.2540661399444, -78047.64247508557, -50452.69286068593, -34069.847651701886, -39245.215266372594, -2913.594593238186, -39910.984326718375, 0.012, 0.78, 0.654, 192.0, 0.0, 0.0, 0.0, 0.0, 0.0, 0.0, 0.0, 0.0, 0.0, 1.6541563307805212E9, 0.0, 2022-06-02 09:52:10.780
93.0, 26394.32566098281, 3050.2308070934782, -78098.47034197692, -50497.15048040754, -34116.6522045913, -39289.18114771618, -2953.8053815132835, -39969.74706289137, 0.012, 0.78, 0.654, 192.0, 0.0, 0.0, 0.0, 0.0, 0.0, 0.0, 0.0, 0.0, 0.0, 1.6541563307805288E9, 0.0, 2022-06-02 09:52:10.780
94.0, 26404.74157389898, 3051.3483943162437, -78100.90668212256, -50506.33704737867, -34125.45879190669, -39306.190825246675, -2966.903503764094, -39986.622629955134, 0.012, 0.78, 0.654, 192.0, 0.0, 0.0, 0.0, 0.0, 0.0, 0.0, 0.0, 0.0, 0.0, 1.6541563307805345E9, 0.0, 2022-06-02 09:52:10.780
95.0, 26415.537466470894, 3061.9654729325143, -78071.96117305293, -50466.88621841505, -34096.51328283707, -39278.69817956664, -2926.156273622069, -39939.23693170988, 0.012, 0.78, 0.654, 192.0, 0.0, 0.0, 0.0, 0.0, 0.0, 0.0, 0.0, 0.0, 0.0, 1.6541563307805438E9, 0.0, 2022-06-02 09:52:10.780
96.0, 26425.99808287598, 3082.3949673646653, -78034.61140806811, -50435.77259013327, -34066.15961386676, -39241.43782155965, -2899.960029120449, -39890.57718403068, 0.012, 0.78, 0.654, 192.0, 0.0, 0.0, 0.0, 0.0, 0.0, 0.0, 0.0, 0.0, 0.0, 1.6541563307805498E9, 0.0, 2022-06-02 09:52:10.780
97.0, 26431.31779805634, 3093.0567494698466, -78032.64445455605, -50435.57142443317, -34058.29179981849, -39238.442687802635, -2887.532459203298, -39902.0659806807, 0.01, 0.778, 0.658, 192.0, 0.0, 80.0, 24.0, 80.0, 20.0, 144.0, 0.0, 0.0, 0.0, 1.6541563307805552E9, 0.0, 2022-06-02 09:52:10.780
98.0, 26423.114707841243, 3070.6379497811736, -78083.60643191414, -50480.74429997734, -34106.86214051988, -39286.99067675957, -2946.094029676203, -39983.44868224248, 0.01, 0.778, 0.658, 192.0, 0.0, 0.0, 0.0, 0.0, 0.0, 0.0, 0.0, 0.0, 0.0, 1.6541563307805624E9, 0.0, 2022-06-02 09:52:10.780
99.0, 26420.924236884624, 3059.059746153325, -78092.10009480716, -50492.50131756083, -34126.554027385006, -39303.50861591204, -2977.006492257892, -39989.32719103422, 0.01, 0.778, 0.658, 192.0, 0.0, 0.0, 0.0, 0.0, 0.0, 0.0, 0.0, 0.0, 0.0, 1.654156330780569E9, 0.0, 2022-06-02 09:52:10.780
100.0, 26424.433460764107, 3076.359996361732, -78054.34799842215, -50460.09128810064, -34089.02544844454, -39263.81191775941, -2907.7160844464406, -39913.73359128638, 0.01, 0.778, 0.658, 192.0, 0.0, 0.0, 0.0, 0.0, 0.0, 0.0, 0.0, 0.0, 0.0, 1.6541563307805765E9, 0.0, 2022-06-02 09:52:10.780
101.0, 26436.816327192348, 3103.2267931970114, -78019.1663526495, -50430.76579937527, -34053.486174760605, -39227.02094638598, -2875.5742759197087, -39891.02421891978, 0.01, 0.778, 0.658, 192.0, 0.0, 0.0, 0.0, 0.0, 0.0, 0.0, 0.0, 0.0, 0.0, 1.6541563307805824E9, 0.0, 2022-06-02 09:52:10.780
102.0, 26440.504365027475, 3105.2831536869, -78024.44136434095, -50430.18465401944, -34054.42494802773, -39233.257083089, -2885.6102091801417, -39908.27976563928, 0.01, 0.778, 0.658, 192.0, 0.0, 0.0, 0.0, 0.0, 0.0, 0.0, 0.0, 0.0, 0.0, 1.6541563307805889E9, 0.0, 2022-06-02 09:52:10.780
103.0, 26441.912524928157, 3086.6194470667183, -78059.86887930261, -50463.019366624285, -34089.070151933454, -39269.60101957333, -2939.053230172781, -39970.01528382484, 0.01, 0.778, 0.658, 192.0, 0.0, 0.0, 0.0, 0.0, 0.0, 0.0, 0.0, 0.0, 0.0, 1.6541563307805948E9, 0.0, 2022-06-02 09:52:10.780
104.0, 26434.245876579986, 3066.905208457137, -78077.10207427766, -50482.97947442287, -34113.187684200726, -39294.18793847418, -2965.4282886300434, -39988.25430730037, 0.01, 0.778, 0.658, 192.0, 0.0, 0.0, 0.0, 0.0, 0.0, 0.0, 0.0, 0.0, 0.0, 1.6541563307806003E9, 0.0, 2022-06-02 09:52:10.780
105.0, 26446.226411608033, 3085.881839499693, -78043.17212619449, -50451.39645950752, -34082.141111152305, -39265.91298173821, -2929.732552734918, -39939.706318343444, 0.01, 0.778, 0.658, 192.0, 0.0, 0.0, 0.0, 0.0, 0.0, 0.0, 0.0, 0.0, 0.0, 1.6541563307806065E9, 0.0, 2022-06-02 09:52:10.780
106.0, 26431.09428061179, 3081.2773801419, -78031.1245359331, -50442.79103789223, -34068.17127086774, -39250.80320248642, -2891.376959249611, -39906.96101271642, 0.01, 0.778, 0.658, 192.0, 0.0, 0.0, 0.0, 0.0, 0.0, 0.0, 0.0, 0.0, 0.0, 1.654156330780612E9, 0.0, 2022-06-02 09:52:10.780
107.0, 26433.57532424633, 3085.725377288506, -78031.45981209991, -50442.56752044768, -34069.60178251288, -39244.23178961656, -2891.689883671985, -39911.92309998549, 0.014, 0.782, 0.65, 192.0, 0.0, 112.0, 24.0, 112.0, 20.0, 80.0, 0.0, 0.0, 0.0, 1.6541563307806213E9, 0.0, 2022-06-02 09:52:10.780
108.0, 26425.215771820043, 3065.9887869344698, -78077.90673707804, -50481.392500566544, -34109.25377717659, -39286.767159315015, -2948.3292041217333, -39977.92780136201, 0.014, 0.782, 0.65, 192.0, 0.0, 0.0, 0.0, 0.0, 0.0, 0.0, 0.0, 0.0, 0.0, 1.6541563307806275E9, 0.0, 2022-06-02 09:52:10.780
109.0, 26420.678367695615, 3060.1996851205454, -78087.16035928254, -50491.36137859361, -34123.44713490571, -39306.21317699113, -2970.7033003214956, -39991.31649629075, 0.014, 0.782, 0.65, 192.0, 0.0, 0.0, 0.0, 0.0, 0.0, 0.0, 0.0, 0.0, 0.0, 1.6541563307806337E9, 0.0, 2022-06-02 09:52:10.780
110.0, 26415.336300770796, 3073.5436765603636, -78063.06517875972, -50468.71906146039, -34104.738724796625, -39287.325952926396, -2958.856875760183, -39968.89769660207, 0.014, 0.782, 0.65, 192.0, 0.0, 0.0, 0.0, 0.0, 0.0, 0.0, 0.0, 0.0, 0.0, 1.65415633078064E9, 0.0, 2022-06-02 09:52:10.780
111.0, 26425.439289264596, 3097.817671038827, -78027.30238763124, -50439.527683201755, -34070.69701799119, -39245.438783817146, -2919.3389915632, -39923.03191697978, 0.014, 0.782, 0.65, 192.0, 0.0, 0.0, 0.0, 0.0, 0.0, 0.0, 0.0, 0.0, 0.0, 1.6541563307806451E9, 0.0, 2022-06-02 09:52:10.780
112.0, 26432.837716679303, 3107.0489414988688, -78022.87674222908, -50427.34598247361, -34063.92443942123, -39232.51947552198, -2889.722930159918, -39913.04068720826, 0.014, 0.782, 0.65, 192.0, 0.0, 0.0, 0.0, 0.0, 0.0, 0.0, 0.0, 0.0, 0.0, 1.6541563307806504E9, 0.0, 2022-06-02 09:52:10.780
113.0, 26432.547144001383, 3090.531002346397, -78061.94759153695, -50456.7608781768, -34097.317945637464, -39265.95768522712, -2933.018259169848, -39962.639208154586, 0.014, 0.782, 0.65, 192.0, 0.0, 0.0, 0.0, 0.0, 0.0, 0.0, 0.0, 0.0, 0.0, 1.654156330780656E9, 0.0, 2022-06-02 09:52:10.780
114.0, 26421.818306662837, 3070.168563147612, -78083.11469353613, -50477.838573198154, -34114.3499749124, -39293.40562741824, -2944.4847040754207, -39968.98710357989, 0.014, 0.782, 0.65, 192.0, 0.0, 0.0, 0.0, 0.0, 0.0, 0.0, 0.0, 0.0, 0.0, 1.6541563307806616E9, 0.0, 2022-06-02 09:52:10.780
115.0, 26434.827021935824, 3089.2122494235336, -78041.89807676054, -50441.896968114015, -34078.11779715035, -39260.257990391015, -2913.9075176605606, -39930.18447520548, 0.014, 0.782, 0.65, 192.0, 0.0, 0.0, 0.0, 0.0, 0.0, 0.0, 0.0, 0.0, 0.0, 1.6541563307806675E9, 0.0, 2022-06-02 09:52:10.780
116.0, 26429.08262361081, 3092.497955858464, -78023.65905328501, -50427.48009294034, -34061.75632020907, -39245.304673350416, -2911.9405641484936, -39929.51392287182, 0.012, 0.784, 0.654, 192.0, 0.0, 96.0, 24.0, 128.0, 20.0, 112.0, 0.0, 0.0, 0.0, 1.6541563307806733E9, 0.0, 2022-06-02 09:52:10.780
117.0, 26419.963111873047, 3081.0315109528915, -78040.78048953778, -50445.808523393694, -34074.63092501532, -39252.30076936493, -2919.182529352013, -39934.543065374266, 0.012, 0.784, 0.654, 192.0, 0.0, 0.0, 0.0, 0.0, 0.0, 0.0, 0.0, 0.0, 0.0, 1.6541563307806792E9, 0.0, 2022-06-02 09:52:10.780
118.0, 26411.00006234647, 3062.144286888157, -78082.66765864703, -50485.34875933514, -34113.61236734538, -39278.497013866545, -2945.401125598088, -39967.02015006783, 0.012, 0.784, 0.654, 192.0, 0.0, 0.0, 0.0, 0.0, 0.0, 0.0, 0.0, 0.0, 0.0, 1.6541563307806873E9, 0.0, 2022-06-02 09:52:10.780
119.0, 26418.55495197236, 3058.053917652836, -78081.03598130179, -50487.360416336116, -34116.56279761348, -39290.030514005484, -2944.127076164136, -39974.21741178243, 0.012, 0.784, 0.654, 192.0, 0.0, 0.0, 0.0, 0.0, 0.0, 0.0, 0.0, 0.0, 0.0, 1.6541563307806935E9, 0.0, 2022-06-02 09:52:10.780
120.0, 26417.012681604945, 3061.9654729325143, -78059.0195130133, -50465.63452072555, -34098.27907064904, -39271.25504866303, -2930.6266225131303, -39952.849144083164, 0.012, 0.784, 0.654, 192.0, 0.0, 0.0, 0.0, 0.0, 0.0, 0.0, 0.0, 0.0, 0.0, 1.654156330780702E9, 0.0, 2022-06-02 09:52:10.780
121.0, 26407.870818122723, 3070.883818970182, -78035.86310575761, -50442.120485558575, -34075.07795990443, -39241.28135934846, -2893.925058117516, -39901.23896613586, 0.012, 0.784, 0.654, 192.0, 0.0, 0.0, 0.0, 0.0, 0.0, 0.0, 0.0, 0.0, 0.0, 1.6541563312598355E9, 0.0, 2022-06-02 09:52:11.259
122.0, 26411.268283279933, 3074.147173660657, -78045.11672796211, -50448.200160050415, -34081.96229719667, -39246.62342627328, -2917.059113628759, -39922.49547511285, 0.012, 0.784, 0.654, 192.0, 0.0, 0.0, 0.0, 0.0, 0.0, 0.0, 0.0, 0.0, 0.0, 1.6541563312600243E9, 0.0, 2022-06-02 09:52:11.260
123.0, 26422.622969463227, 3071.9343509595815, -78073.95047830946, -50481.124279633084, -34102.32473639545, -39270.85271726283, -2937.53331154982, -39967.02015006783, 0.012, 0.784, 0.654, 192.0, 0.0, 0.0, 0.0, 0.0, 0.0, 0.0, 0.0, 0.0, 0.0, 1.654156331260036E9, 0.0, 2022-06-02 09:52:11.260
124.0, 26417.70558568306, 3059.7973537203497, -78086.15453078205, -50490.75788149332, -34111.82422778895, -39285.33664766987, -2941.0425354293034, -39968.33890299069, 0.012, 0.784, 0.654, 192.0, 0.0, 0.0, 0.0, 0.0, 0.0, 0.0, 0.0, 0.0, 0.0, 1.6541563312600424E9, 0.0, 2022-06-02 09:52:11.260
125.0, 26430.624893978227, 3080.4727173415085, -78047.28484717428, -50444.40036349301, -34086.834977487924, -39254.42418508818, -2932.280651602823, -39930.76562056132, 0.012, 0.784, 0.654, 192.0, 0.0, 0.0, 0.0, 0.0, 0.0, 0.0, 0.0, 0.0, 0.0, 1.654156331260048E9, 0.0, 2022-06-02 09:52:11.260
126.0, 26451.52377504394, 3111.7651595789384, -78002.91663443048, -50409.464586909366, -34055.36372129485, -39219.86838816028, -2906.285572801301, -39906.37986736058, 0.014, 0.782, 0.652, 192.0, 0.0, 112.0, 24.0, 112.0, 20.0, 96.0, 0.0, 0.0, 0.0, 1.6541563312600534E9, 0.0, 2022-06-02 09:52:11.260
127.0, 26451.90375469968, 3109.306467688855, -78013.17608513548, -50423.00974404928, -34065.869041188846, -39225.61278648529, -2907.1125873461474, -39911.185492418466, 0.014, 0.782, 0.652, 192.0, 0.0, 0.0, 0.0, 0.0, 0.0, 0.0, 0.0, 0.0, 0.0, 1.6541563312600586E9, 0.0, 2022-06-02 09:52:11.260
128.0, 26438.805632448868, 3085.2336389104894, -78058.99716126885, -50457.99022412184, -34099.620175316355, -39268.25991490602, -2929.598442268186, -39963.95796107745, 0.014, 0.782, 0.652, 192.0, 0.0, 0.0, 0.0, 0.0, 0.0, 0.0, 0.0, 0.0, 0.0, 1.6541563312600749E9, 0.0, 2022-06-02 09:52:11.260
129.0, 26421.728899685015, 3061.630196765685, -78081.59477491317, -50485.79579422424, -34127.62691111886, -39301.96634554462, -2953.5818640687307, -39997.57498473823, 0.014, 0.782, 0.652, 192.0, 0.0, 0.0, 0.0, 0.0, 0.0, 0.0, 0.0, 0.0, 0.0, 1.65415633126008E9, 0.0, 2022-06-02 09:52:11.260
130.0, 26421.86301015175, 3067.0840224127796, -78066.75321659485, -50473.39057605155, -34121.81545756048, -39287.23654594857, -2967.797573542306, -39979.11244381815, 0.014, 0.782, 0.652, 192.0, 0.0, 0.0, 0.0, 0.0, 0.0, 0.0, 0.0, 0.0, 0.0, 1.654156331260085E9, 0.0, 2022-06-02 09:52:11.260
131.0, 26421.37127177373, 3082.171449920112, -78045.04967272874, -50447.37314550557, -34096.78150377053, -39260.86148749131, -2945.401125598088, -39955.1290220176, 0.014, 0.782, 0.652, 192.0, 0.0, 0.0, 0.0, 0.0, 0.0, 0.0, 0.0, 0.0, 0.0, 1.6541563312600904E9, 0.0, 2022-06-02 09:52:11.260
132.0, 26413.41405074764, 3080.0927376857685, -78052.73867282138, -50445.65206118251, -34084.15276815328, -39251.47375482008, -2911.6946949594853, -39942.76850733382, 0.014, 0.782, 0.652, 192.0, 0.0, 0.0, 0.0, 0.0, 0.0, 0.0, 0.0, 0.0, 0.0, 1.6541563312600956E9, 0.0, 2022-06-02 09:52:11.260
133.0, 26422.13123108521, 3073.6107317937294, -78082.62295515812, -50473.85996268511, -34113.34414641192, -39275.635990576266, -2959.9968147274035, -39994.669257959045, 0.014, 0.782, 0.652, 192.0, 0.0, 0.0, 0.0, 0.0, 0.0, 0.0, 0.0, 0.0, 0.0, 1.6541563312601006E9, 0.0, 2022-06-02 09:52:11.260
134.0, 26433.351806801777, 3074.013063193925, -78081.93005108, -50478.48677378736, -34114.37232665686, -39278.519365611006, -2950.922006478549, -39980.94528686348, 0.014, 0.782, 0.652, 192.0, 0.0, 0.0, 0.0, 0.0, 0.0, 0.0, 0.0, 0.0, 0.0, 1.654156331260106E9, 0.0, 2022-06-02 09:52:11.260
135.0, 26438.693873726592, 3085.3006941438553, -78054.7726815668, -50450.4576862404, -34088.868986233356, -39249.4620978191, -2908.0066571243597, -39928.84337053816, 0.014, 0.782, 0.652, 192.0, 0.0, 0.0, 0.0, 0.0, 0.0, 0.0, 0.0, 0.0, 0.0, 1.654156331260111E9, 0.0, 2022-06-02 09:52:11.260
136.0, 26429.08262361081, 3082.104394686746, -78046.39077739607, -50437.6054331786, -34080.93411695172, -39234.329966822865, -2906.8667181571386, -39915.56643433171, 0.018000000000000002, 0.786, 0.65, 192.0, 0.0, 144.0, 24.0, 144.0, 20.0, 80.0, 0.0, 0.0, 0.0, 1.6541563312601163E9, 0.0, 2022-06-02 09:52:11.260
137.0, 26437.196306848087, 3094.2860954148887, -78037.40537612503, -50431.771627875765, -34068.48419529011, -39219.04137361543, -2898.23894479739, -39908.883262739575, 0.018000000000000002, 0.786, 0.65, 192.0, 0.0, 0.0, 0.0, 0.0, 0.0, 0.0, 0.0, 0.0, 0.0, 1.654156331260122E9, 0.0, 2022-06-02 09:52:11.260
138.0, 26420.85718165126, 3070.6826532700843, -78083.91935633653, -50469.94840740543, -34111.53365511104, -39257.97811245658, -2944.797628497795, -39965.96961807843, 0.018000000000000002, 0.786, 0.65, 192.0, 0.0, 0.0, 0.0, 0.0, 0.0, 0.0, 0.0, 0.0, 0.0, 1.6541563312601292E9, 0.0, 2022-06-02 09:52:11.260
139.0, 26424.299350297377, 3066.167600890112, -78091.34013549569, -50479.447898798935, -34126.196399473716, -39276.21713593211, -2981.0745097487584, -39981.81700489724, 0.018000000000000002, 0.786, 0.65, 192.0, 0.0, 0.0, 0.0, 0.0, 0.0, 0.0, 0.0, 0.0, 0.0, 1.6541563312601347E9, 0.0, 2022-06-02 09:52:11.260
140.0, 26430.580190489316, 3074.7953742498607, -78060.69589384746, -50455.0621455982, -34100.737762539124, -39260.883839235765, -2950.0726401892475, -39944.95897829044, 0.018000000000000002, 0.786, 0.65, 192.0, 0.0, 0.0, 0.0, 0.0, 0.0, 0.0, 0.0, 0.0, 0.0, 1.65415633126014E9, 0.0, 2022-06-02 09:52:11.260
141.0, 26418.84552465028, 3077.7681562624166, -78037.31596914721, -50433.67152615447, -34075.68145700472, -39237.63802500225, -2902.2399070548904, -39907.899785983536, 0.018000000000000002, 0.786, 0.65, 192.0, 0.0, 0.0, 0.0, 0.0, 0.0, 0.0, 0.0, 0.0, 0.0, 1.6541563312601452E9, 0.0, 2022-06-02 09:52:11.260
142.0, 26417.437364749596, 3083.825479009805, -78036.46660285791, -50435.52672094425, -34072.999247670086, -39239.62733025877, -2907.246697812879, -39930.13977171657, 0.018000000000000002, 0.786, 0.65, 192.0, 0.0, 0.0, 0.0, 0.0, 0.0, 0.0, 0.0, 0.0, 0.0, 1.6541563312601514E9, 0.0, 2022-06-02 09:52:11.260
143.0, 26404.585111687793, 3061.943121188059, -78090.66958316203, -50483.225343611884, -34120.541408126526, -39283.21323194662, -2941.1989976404902, -39979.93945836299, 0.018000000000000002, 0.786, 0.65, 192.0, 0.0, 0.0, 0.0, 0.0, 0.0, 0.0, 0.0, 0.0, 0.0, 1.654156331260157E9, 0.0, 2022-06-02 09:52:11.260
144.0, 26401.612329675238, 3049.3590890597216, -78108.52862698182, -50500.45853858692, -34141.37323395887, -39309.20831074814, -2967.3505386531997, -40004.83930168621, 0.018000000000000002, 0.786, 0.65, 192.0, 0.0, 0.0, 0.0, 0.0, 0.0, 0.0, 0.0, 0.0, 0.0, 1.6541563312601624E9, 0.0, 2022-06-02 09:52:11.260
145.0, 26414.263417036942, 3063.7759642333945, -78077.21383299993, -50472.5635615067, -34109.67846032124, -39286.0742552369, -2945.468180831454, -39978.19602229548, 0.018000000000000002, 0.786, 0.65, 192.0, 0.0, 0.0, 0.0, 0.0, 0.0, 0.0, 0.0, 0.0, 0.0, 1.6541563312601674E9, 0.0, 2022-06-02 09:52:11.260
146.0, 26409.45779197905, 3072.2249236375005, -78054.23623969988, -50454.36924152008, -34086.633811787826, -39264.75069102654, -2907.2690495573343, -39937.694661342466, 0.016, 0.78, 0.642, 192.0, 0.0, 128.0, 24.0, 96.0, 20.0, 16.0, 0.0, 0.0, 0.0, 1.6541563312601726E9, 0.0, 2022-06-02 09:52:11.260
147.0, 26413.928140870114, 3080.0480341968578, -78053.14100422156, -50461.09711660113, -34084.666858275756, -39252.54663855394, -2901.85992739915, -39926.38467864808, 0.016, 0.78, 0.642, 192.0, 0.0, 0.0, 0.0, 0.0, 0.0, 0.0, 0.0, 0.0, 0.0, 1.6541563312601779E9, 0.0, 2022-06-02 09:52:11.260
148.0, 26406.194437288577, 3060.5349612873747, -78104.52766472432, -50503.74424502185, -34132.901922810306, -39293.29386869596, -2972.3126259222777, -39996.45739751546, 0.016, 0.78, 0.642, 192.0, 0.0, 0.0, 0.0, 0.0, 0.0, 0.0, 0.0, 0.0, 0.0, 1.6541563312601829E9, 0.0, 2022-06-02 09:52:11.260
149.0, 26422.46650725204, 3065.497048556453, -78098.64915593257, -50491.62959952708, -34140.25564673611, -39306.950784558154, -3018.2901642668444, -40033.71775552246, 0.016, 0.78, 0.642, 192.0, 0.0, 0.0, 0.0, 0.0, 0.0, 0.0, 0.0, 0.0, 0.0, 1.6541563312601888E9, 0.0, 2022-06-02 09:52:11.260
150.0, 26424.209943319554, 3068.626292780196, -78073.36933295362, -50475.402233052526, -34130.532637898046, -39297.47364490911, -3002.4874809369426, -40012.416543056555, 0.016, 0.78, 0.642, 192.0, 0.0, 0.0, 0.0, 0.0, 0.0, 0.0, 0.0, 0.0, 0.0, 1.6541563312601967E9, 0.0, 2022-06-02 09:52:11.260
151.0, 26426.825097420824, 3087.714682545028, -78029.38109986557, -50437.27015701177, -34085.002134442584, -39250.22205713059, -2891.3322557607003, -39922.920158257504, 0.016, 0.78, 0.642, 192.0, 0.0, 0.0, 0.0, 0.0, 0.0, 0.0, 0.0, 0.0, 0.0, 1.654156331260202E9, 0.0, 2022-06-02 09:52:11.260
152.0, 26452.797824477893, 3119.14123524919, -78006.87289319908, -50413.19732823341, -34060.39286379729, -39220.1589608382, -2883.9114766015387, -39928.731611815885, 0.016, 0.78, 0.642, 192.0, 0.0, 0.0, 0.0, 0.0, 0.0, 0.0, 0.0, 0.0, 0.0, 1.6541563312602072E9, 0.0, 2022-06-02 09:52:11.260
153.0, 26433.41886203514, 3085.2336389104894, -78068.98839104037, -50466.61799748159, -34112.763001056075, -39259.92271422419, -2946.094029676203, -39982.912240375554, 0.016, 0.78, 0.642, 192.0, 0.0, 0.0, 0.0, 0.0, 0.0, 0.0, 0.0, 0.0, 0.0, 1.6541563312602124E9, 0.0, 2022-06-02 09:52:11.260
154.0, 26424.925199142122, 3070.079156169791, -78084.4781499479, -50478.15149762053, -34129.45975416419, -39277.75940629952, -2959.080393204736, -39966.57311517872, 0.016, 0.78, 0.642, 192.0, 0.0, 0.0, 0.0, 0.0, 0.0, 0.0, 0.0, 0.0, 0.0, 1.6541563312602177E9, 0.0, 2022-06-02 09:52:11.260
155.0, 26425.774565431424, 3082.819650509316, -78057.94662927945, -50453.005785108304, -34103.822303273955, -39261.28617063596, -2934.471122559443, -39955.46429818443, 0.016, 0.78, 0.642, 192.0, 0.0, 0.0, 0.0, 0.0, 0.0, 0.0, 0.0, 0.0, 0.0, 1.654156331260223E9, 0.0, 2022-06-02 09:52:11.260
156.0, 26431.541315500894, 3099.85167978426, -78029.29169288775, -50426.384857462035, -34067.523070278534, -39230.08313537635, -2901.0999680876694, -39925.13298095858, 0.012, 0.772, 0.646, 192.0, 0.0, 96.0, 24.0, 32.0, 20.0, 48.0, 0.0, 0.0, 0.0, 1.6541563312602282E9, 0.0, 2022-06-02 09:52:11.260
157.0, 26430.244914322488, 3095.180165193101, -78036.421899369, -50437.627784923054, -34081.85053847439, -39227.37857429726, -2922.7141049759516, -39932.41964965101, 0.012, 0.772, 0.646, 192.0, 0.0, 0.0, 0.0, 0.0, 0.0, 0.0, 0.0, 0.0, 0.0, 1.6541563312602334E9, 0.0, 2022-06-02 09:52:11.260
158.0, 26433.93295215761, 3089.5698773348186, -78066.86497531712, -50463.66756721349, -34106.50451260859, -39245.77405998398, -2942.115419163158, -39958.928818575005, 0.012, 0.772, 0.646, 192.0, 0.0, 0.0, 0.0, 0.0, 0.0, 0.0, 0.0, 0.0, 0.0, 1.654156331260239E9, 0.0, 2022-06-02 09:52:11.260
159.0, 26418.0855653388, 3068.8051067358383, -78088.81438837224, -50487.18160238047, -34126.688137851736, -39272.46204286361, -2943.4565238304763, -39963.95796107745, 0.012, 0.772, 0.646, 192.0, 0.0, 0.0, 0.0, 0.0, 0.0, 0.0, 0.0, 0.0, 0.0, 1.6541563312602444E9, 0.0, 2022-06-02 09:52:11.260
160.0, 26420.946588629078, 3081.813822008827, -78058.9748095244, -50462.79584917973, -34100.536596839025, -39252.05490017592, -2929.1067038901692, -39937.895827042565, 0.012, 0.772, 0.646, 192.0, 0.0, 0.0, 0.0, 0.0, 0.0, 0.0, 0.0, 0.0, 0.0, 1.6541563312602496E9, 0.0, 2022-06-02 09:52:11.260
161.0, 26431.76483294545, 3103.2267931970114, -78018.13817240455, -50413.5996596336, -34061.82337544244, -39220.62834747176, -2887.3536452476555, -39907.43039934998, 0.012, 0.772, 0.646, 192.0, 0.0, 0.0, 0.0, 0.0, 0.0, 0.0, 0.0, 0.0, 0.0, 1.6541563312602549E9, 0.0, 2022-06-02 09:52:11.260
162.0, 26452.41784482215, 3126.4502556860753, -77994.04299188174, -50393.01370299026, -34040.94684612117, -39193.47097795856, -2858.452839666944, -39879.55777401421, 0.012, 0.772, 0.646, 192.0, 0.0, 0.0, 0.0, 0.0, 0.0, 0.0, 0.0, 0.0, 0.0, 1.65415633126026E9, 0.0, 2022-06-02 09:52:11.260
163.0, 26447.656923253173, 3104.5008426309637, -78043.41799538351, -50434.99027907733, -34090.65712578978, -39231.33483306585, -2903.6257152111193, -39932.084373484184, 0.012, 0.772, 0.646, 192.0, 0.0, 0.0, 0.0, 0.0, 0.0, 0.0, 0.0, 0.0, 0.0, 1.654156331260268E9, 0.0, 2022-06-02 09:52:11.260
164.0, 26437.66569348165, 3083.557258076341, -78066.9767340394, -50457.073802599174, -34117.166294713774, -39269.75748178452, -2930.8054364687728, -39967.80246112376, 0.012, 0.772, 0.646, 192.0, 0.0, 0.0, 0.0, 0.0, 0.0, 0.0, 0.0, 0.0, 0.0, 1.6541563312602735E9, 0.0, 2022-06-02 09:52:11.260
165.0, 26442.873649939735, 3099.561107106341, -78045.63081808458, -50434.72205814387, -34101.453018361695, -39259.54273456845, -2944.3505936086885, -39967.55659193476, 0.012, 0.772, 0.646, 192.0, 0.0, 0.0, 0.0, 0.0, 0.0, 0.0, 0.0, 0.0, 0.0, 1.6541563312602787E9, 0.0, 2022-06-02 09:52:11.260
166.0, 26432.010702134456, 3101.6398193406844, -78027.12357367559, -50420.439293436924, -34081.98464894112, -39235.87223719028, -2911.605287981664, -39936.219446208415, 0.012, 0.776, 0.642, 192.0, 0.0, 96.0, 24.0, 64.0, 20.0, 16.0, 0.0, 0.0, 0.0, 1.6541563312602842E9, 0.0, 2022-06-02 09:52:11.260
167.0, 26429.507306755462, 3102.04215074088, -78031.99625396685, -50426.98835456233, -34078.07309366144, -39236.09575463483, -2905.14563383408, -39946.25537946885, 0.012, 0.776, 0.642, 192.0, 0.0, 0.0, 0.0, 0.0, 0.0, 0.0, 0.0, 0.0, 0.0, 1.6541563312602897E9, 0.0, 2022-06-02 09:52:11.260
168.0, 26440.258495838465, 3100.723397818017, -78054.61621935561, -50446.233206538345, -34094.41221885827, -39254.53594381046, -2924.1446166210912, -39974.2844670158, 0.012, 0.776, 0.642, 192.0, 0.0, 0.0, 0.0, 0.0, 0.0, 0.0, 0.0, 0.0, 0.0, 1.654156331260295E9, 0.0, 2022-06-02 09:52:11.260
169.0, 26418.13026882771, 3069.7438800029613, -78079.51606267883, -50474.70932897441, -34127.47044890767, -39280.039284233964, -2951.3466896232, -39975.29029551629, 0.012, 0.776, 0.642, 192.0, 0.0, 0.0, 0.0, 0.0, 0.0, 0.0, 0.0, 0.0, 0.0, 1.6541563312603E9, 0.0, 2022-06-02 09:52:11.260
170.0, 26430.356673044764, 3086.686502300084, -78038.65707381452, -50442.388706492035, -34091.66295429027, -39250.28911236395, -2914.868642672139, -39941.15918173303, 0.012, 0.776, 0.642, 192.0, 0.0, 0.0, 0.0, 0.0, 0.0, 0.0, 0.0, 0.0, 0.0, 1.6541563312603056E9, 0.0, 2022-06-02 09:52:11.260
171.0, 26429.70847245556, 3097.7059123165504, -78008.03518391076, -50424.61906965006, -34056.905991662265, -39221.321251549874, -2880.290493999779, -39910.17966391798, 0.012, 0.776, 0.642, 192.0, 0.0, 0.0, 0.0, 0.0, 0.0, 0.0, 0.0, 0.0, 0.0, 1.654156331260314E9, 0.0, 2022-06-02 09:52:11.260
172.0, 26426.355710787262, 3090.9333337465923, -78014.78541073625, -50425.78136036174, -34061.801023697975, -39219.06372535988, -2889.119433059625, -39909.37500111759, 0.012, 0.776, 0.642, 192.0, 0.0, 0.0, 0.0, 0.0, 0.0, 0.0, 0.0, 0.0, 0.0, 1.654156331260321E9, 0.0, 2022-06-02 09:52:11.260
173.0, 26428.814402677348, 3076.2258858950004, -78048.04480648575, -50455.86680839858, -34098.05555320449, -39248.322158851886, -2938.695602261496, -39968.40595822406, 0.012, 0.776, 0.642, 192.0, 0.0, 0.0, 0.0, 0.0, 0.0, 0.0, 0.0, 0.0, 0.0, 1.6541563312603278E9, 0.0, 2022-06-02 09:52:11.260
174.0, 26420.499553739974, 3060.4902577984644, -78071.53648990828, -50487.3157128472, -34122.351899427405, -39280.329856911885, -2965.7188613079625, -40002.78294119632, 0.012, 0.776, 0.642, 192.0, 0.0, 0.0, 0.0, 0.0, 0.0, 0.0, 0.0, 0.0, 0.0, 1.6541563312603333E9, 0.0, 2022-06-02 09:52:11.260
175.0, 26429.820231177837, 3083.0655196983244, -78032.4209371115, -50445.22737803786, -34094.50162583609, -39243.18125762716, -2934.1358463926135, -39933.38077466259, 0.012, 0.776, 0.642, 192.0, 0.0, 0.0, 0.0, 0.0, 0.0, 0.0, 0.0, 0.0, 0.0, 1.6541563312603383E9, 0.0, 2022-06-02 09:52:11.260
176.0, 26428.680292210614, 3098.4211681391203, -78009.64450951153, -50418.762912602775, -34082.69990476369, -39216.225053814065, -2916.9473549064824, -39902.49066382535, 0.016, 0.774, 0.646, 192.0, 0.0, 128.0, 24.0, 48.0, 20.0, 48.0, 0.0, 0.0, 0.0, 1.6541563312603436E9, 0.0, 2022-06-02 09:52:11.260
177.0, 26413.235236792, 3081.7691185199164, -78041.74161454936, -50446.34496526062, -34105.9010155083, -39239.984958170055, -2940.5507970512867, -39941.8297340667, 0.016, 0.774, 0.646, 192.0, 0.0, 0.0, 0.0, 0.0, 0.0, 0.0, 0.0, 0.0, 0.0, 1.6541563312603493E9, 0.0, 2022-06-02 09:52:11.260
178.0, 26414.2857687814, 3066.301711356844, -78079.85133884566, -50477.19037260895, -34136.34409145643, -39265.44359510465, -2963.8413147737165, -39979.29125777379, 0.016, 0.774, 0.646, 192.0, 0.0, 0.0, 0.0, 0.0, 0.0, 0.0, 0.0, 0.0, 0.0, 1.6541563312603548E9, 0.0, 2022-06-02 09:52:11.260
179.0, 26429.79787943338, 3080.629179552696, -78069.77070209631, -50463.73462244686, -34126.196399473716, -39264.43776660416, -2961.427326372543, -39984.029827598315, 0.016, 0.774, 0.646, 192.0, 0.0, 0.0, 0.0, 0.0, 0.0, 0.0, 0.0, 0.0, 0.0, 1.654156331260361E9, 0.0, 2022-06-02 09:52:11.260
180.0, 26430.89311491169, 3089.5698773348186, -78047.24014368537, -50445.07091582667, -34100.6483555613, -39249.90913270821, -2927.765599222851, -39964.15912677755, 0.016, 0.774, 0.646, 192.0, 0.0, 0.0, 0.0, 0.0, 0.0, 0.0, 0.0, 0.0, 0.0, 1.654156331260367E9, 0.0, 2022-06-02 09:52:11.260
181.0, 26413.0340710919, 3086.8429645112715, -78033.65028305653, -50433.246843009816, -34084.89037572031, -39232.54182726644, -2896.026122096315, -39905.28463188227, 0.016, 0.774, 0.646, 192.0, 0.0, 0.0, 0.0, 0.0, 0.0, 0.0, 0.0, 0.0, 0.0, 1.6541563312603726E9, 0.0, 2022-06-02 09:52:11.260
182.0, 26400.89707385267, 3073.65543528264, -78049.85529778663, -50446.255558282806, -34107.35387889789, -39246.9139989512, -2949.5809018112304, -39945.56247539073, 0.016, 0.774, 0.646, 192.0, 0.0, 0.0, 0.0, 0.0, 0.0, 0.0, 0.0, 0.0, 0.0, 1.6541563312603793E9, 0.0, 2022-06-02 09:52:11.260
183.0, 26412.94466411408, 3074.303635871844, -78071.87176607511, -50465.83568642565, -34123.670652350265, -39268.14815618374, -2957.5157710928647, -39981.6381909416, 0.016, 0.774, 0.646, 192.0, 0.0, 0.0, 0.0, 0.0, 0.0, 0.0, 0.0, 0.0, 0.0, 1.654156331260386E9, 0.0, 2022-06-02 09:52:11.260
184.0, 26402.41699247563, 3052.622443750196, -78094.3352692527, -50489.26031461481, -34143.13902177084, -39294.76908383001, -2942.3612883521664, -39976.966676350436, 0.016, 0.774, 0.646, 192.0, 0.0, 0.0, 0.0, 0.0, 0.0, 0.0, 0.0, 0.0, 0.0, 1.654156331260392E9, 0.0, 2022-06-02 09:52:11.260
185.0, 26409.815419890336, 3068.5815892912856, -78056.24789670085, -50460.73948868984, -34114.9534720127, -39277.26766792151, -2921.7976834532838, -39963.86855409963, 0.016, 0.774, 0.646, 192.0, 0.0, 0.0, 0.0, 0.0, 0.0, 0.0, 0.0, 0.0, 0.0, 1.6541563312603977E9, 0.0, 2022-06-02 09:52:11.260
186.0, 26414.978672859514, 3085.524211588408, -78024.12843991858, -50439.952366346406, -34079.704771006676, -39250.42322283068, -2895.959066862949, -39949.11640275913, 0.014, 0.776, 0.646, 192.0, 0.0, 112.0, 24.0, 64.0, 20.0, 48.0, 0.0, 0.0, 0.0, 1.6541563312604034E9, 0.0, 2022-06-02 09:52:11.260
187.0, 26415.157486815155, 3082.3502638757545, -78030.20811441042, -50440.53351170225, -34085.80679724298, -39248.25510361852, -2918.444921784988, -39957.16303076303, 0.014, 0.776, 0.646, 192.0, 0.0, 0.0, 0.0, 0.0, 0.0, 0.0, 0.0, 0.0, 0.0, 1.6541563312604098E9, 0.0, 2022-06-02 09:52:11.260
188.0, 26407.200265789066, 3060.5126095429196, -78077.39264695557, -50479.26908484329, -34125.43644016224, -39280.8215952899, -2970.569189854764, -40003.3417348077, 0.014, 0.776, 0.646, 192.0, 0.0, 0.0, 0.0, 0.0, 0.0, 0.0, 0.0, 0.0, 0.0, 1.6541563312604156E9, 0.0, 2022-06-02 09:52:11.260
189.0, 26397.56666392883, 3042.0947721117464, -78102.3371937677, -50504.548907822245, -34154.09137655394, -39315.86913059582, -2995.625495389163, -40033.13661016663, 0.014, 0.776, 0.646, 192.0, 0.0, 0.0, 0.0, 0.0, 0.0, 0.0, 0.0, 0.0, 0.0, 1.654156331260421E9, 0.0, 2022-06-02 09:52:11.260
190.0, 26398.0807540513, 3051.661318738618, -78075.35863821013, -50481.392500566544, -34134.22067573317, -39301.89929031125, -2968.892809020616, -40014.62936575763, 0.014, 0.776, 0.646, 192.0, 0.0, 0.0, 0.0, 0.0, 0.0, 0.0, 0.0, 0.0, 0.0, 1.654156331260429E9, 0.0, 2022-06-02 09:52:11.260
191.0, 26404.160428543142, 3072.2249236375005, -78041.92042850501, -50447.619014694574, -34108.583224842936, -39258.73807176806, -2936.8404074717055, -39957.14067901858, 0.014, 0.776, 0.646, 192.0, 0.0, 0.0, 0.0, 0.0, 0.0, 0.0, 0.0, 0.0, 0.0, 1.6541563312604363E9, 0.0, 2022-06-02 09:52:11.260
192.0, 26411.402393746663, 3083.9819412209918, -78031.07983244417, -50433.06802905417, -34099.95545148318, -39233.838228444845, -2936.6168900271523, -39944.95897829044, 0.014, 0.776, 0.646, 192.0, 0.0, 0.0, 0.0, 0.0, 0.0, 0.0, 0.0, 0.0, 0.0, 1.6541563312604532E9, 0.0, 2022-06-02 09:52:11.260
193.0, 26436.8386789368, 3098.175298950112, -78040.37815813758, -50440.48880821333, -34106.616271330866, -39233.279434833465, -2950.6761372895407, -39980.900583374576, 0.014, 0.776, 0.646, 192.0, 0.0, 0.0, 0.0, 0.0, 0.0, 0.0, 0.0, 0.0, 0.0, 1.6541563312604587E9, 0.0, 2022-06-02 09:52:11.260
194.0, 26448.61804826475, 3098.555278605852, -78042.9709604944, -50446.54613096072, -34106.057477719485, -39243.22596111608, -2936.5498347937864, -39970.9317053475, 0.014, 0.776, 0.646, 192.0, 0.0, 0.0, 0.0, 0.0, 0.0, 0.0, 0.0, 0.0, 0.0, 1.6541563312604651E9, 0.0, 2022-06-02 09:52:11.260
195.0, 26450.0932633988, 3098.689389072584, -78015.38890783655, -50430.27406099726, -34086.9467362102, -39237.615673257795, -2927.0950468891915, -39960.269923242326, 0.016, 0.78, 0.644, 192.0, 0.0, 128.0, 24.0, 96.0, 20.0, 32.0, 0.0, 0.0, 0.0, 1.6541563312604709E9, 0.0, 2022-06-02 09:52:11.260
196.0, 26424.36640553074, 3083.5125545874307, -78016.99823343733, -50434.18561627694, -34094.76984676955, -39237.28039709096, -2923.8763956876273, -39946.74711784686, 0.016, 0.78, 0.644, 192.0, 0.0, 0.0, 0.0, 0.0, 0.0, 0.0, 0.0, 0.0, 0.0, 1.6541563312604768E9, 0.0, 2022-06-02 09:52:11.260
197.0, 26420.544257228885, 3091.4250721246094, -78014.22661712488, -50428.46356969638, -34090.99240195661, -39225.74689695203, -2905.5926687231863, -39923.79187629126, 0.016, 0.78, 0.644, 192.0, 0.0, 0.0, 0.0, 0.0, 0.0, 0.0, 0.0, 0.0, 0.0, 1.6541563312604823E9, 0.0, 2022-06-02 09:52:11.260
198.0, 26433.19534459059, 3086.75355753345, -78041.24987617134, -50453.07284034167, -34115.624024346354, -39242.33189133786, -2932.2582998583675, -39958.95117031946, 0.016, 0.78, 0.644, 192.0, 0.0, 0.0, 0.0, 0.0, 0.0, 0.0, 0.0, 0.0, 0.0, 1.6541563312604883E9, 0.0, 2022-06-02 09:52:11.260
199.0, 26437.263362081452, 3078.4834120849864, -78057.7231118349, -50474.84343944114, -34138.13223101285, -39266.11414743831, -2965.271826418856, -39988.47782474492, 0.016, 0.78, 0.644, 192.0, 0.0, 0.0, 0.0, 0.0, 0.0, 0.0, 0.0, 0.0, 0.0, 1.6541563312604947E9, 0.0, 2022-06-02 09:52:11.260
200.0, 26439.47618478253, 3094.9566477485478, -78029.55991382121, -50447.26138678329, -34111.13132371084, -39244.27649310547, -2936.080448160225, -39951.306873715745, 0.016, 0.78, 0.644, 192.0, 0.0, 0.0, 0.0, 0.0, 0.0, 0.0, 0.0, 0.0, 0.0, 1.6541563312605026E9, 0.0, 2022-06-02 09:52:11.260
201.0, 26434.156469602167, 3103.718531575028, -78007.18581762146, -50412.325610199645, -34084.242175131105, -39228.85378943131, -2913.0357996268035, -39937.35938517564, 0.016, 0.78, 0.644, 192.0, 0.0, 0.0, 0.0, 0.0, 0.0, 0.0, 0.0, 0.0, 0.0, 1.6541563312605095E9, 0.0, 2022-06-02 09:52:11.260
202.0, 26436.145774858687, 3109.753502577961, -78003.05074489722, -50412.21385147737, -34070.29468659099, -39228.42910628666, -2901.6587616990523, -39951.08335627119, 0.016, 0.78, 0.644, 192.0, 0.0, 0.0, 0.0, 0.0, 0.0, 0.0, 0.0, 0.0, 0.0, 1.6541563312605164E9, 0.0, 2022-06-02 09:52:11.260
203.0, 26423.762908430446, 3083.110223187235, -78055.13030947809, -50462.594683479634, -34111.82422778895, -39272.707912052625, -2944.171779653046, -40016.28339484733, 0.016, 0.78, 0.644, 192.0, 0.0, 0.0, 0.0, 0.0, 0.0, 0.0, 0.0, 0.0, 0.0, 1.6541563312605236E9, 0.0, 2022-06-02 09:52:11.260
204.0, 26418.286731038897, 3062.948949688548, -78082.60060341367, -50481.973645922386, -34140.07683278046, -39286.96832501511, -2967.797573542306, -40011.12014187815, 0.016, 0.78, 0.644, 192.0, 0.0, 0.0, 0.0, 0.0, 0.0, 0.0, 0.0, 0.0, 0.0, 1.6541563312605305E9, 0.0, 2022-06-02 09:52:11.260
205.0, 26426.914504398646, 3080.4727173415085, -78040.19934418194, -50443.34983150361, -34102.81647477346, -39248.00923442951, -2932.3030033472783, -39952.60327489415, 0.012, 0.786, 0.65, 192.0, 0.0, 96.0, 24.0, 144.0, 20.0, 80.0, 0.0, 0.0, 0.0, 1.6541563312605371E9, 0.0, 2022-06-02 09:52:11.260
206.0, 26432.211867834554, 3099.494051872975, -78001.86610244108, -50412.03503752173, -34070.36174182436, -39226.99859464152, -2916.097988617181, -39947.261207969335, 0.012, 0.786, 0.65, 192.0, 0.0, 0.0, 0.0, 0.0, 0.0, 0.0, 0.0, 0.0, 0.0, 1.654156331260543E9, 0.0, 2022-06-02 09:52:11.260
207.0, 26433.977655646522, 3107.205403710056, -77997.12753261656, -50408.25759270878, -34066.494890033595, -39220.1589608382, -2898.7083314309516, -39944.13196374559, 0.012, 0.786, 0.65, 192.0, 0.0, 0.0, 0.0, 0.0, 0.0, 0.0, 0.0, 0.0, 0.0, 1.6541563312605488E9, 0.0, 2022-06-02 09:52:11.260
208.0, 26442.516022028452, 3106.0878164872906, -78018.02641368228, -50426.11663652857, -34088.62311704434, -39224.83047542936, -2914.086331616203, -39952.46916442742, 0.012, 0.786, 0.65, 192.0, 0.0, 0.0, 0.0, 0.0, 0.0, 0.0, 0.0, 0.0, 0.0, 1.654156331260554E9, 0.0, 2022-06-02 09:52:11.260
209.0, 26432.52479225693, 3083.4231476096093, -78046.88251577408, -50457.073802599174, -34125.32468143996, -39260.41445260221, -2957.3369571372223, -39990.19890906798, 0.012, 0.786, 0.65, 192.0, 0.0, 0.0, 0.0, 0.0, 0.0, 0.0, 0.0, 0.0, 0.0, 1.65415633126056E9, 0.0, 2022-06-02 09:52:11.260
210.0, 26429.999045133478, 3086.6417988111734, -78031.14688767755, -50444.31095651519, -34112.137152211326, -39258.67101653469, -2953.604215813186, -39993.77518818083, 0.012, 0.786, 0.65, 192.0, 0.0, 0.0, 0.0, 0.0, 0.0, 0.0, 0.0, 0.0, 0.0, 1.6541563312605653E9, 0.0, 2022-06-02 09:52:11.260
211.0, 26430.84841142278, 3100.2540111844555, -78000.68145998496, -50415.2983922122, -34080.48708206262, -39231.67010923268, -2913.14755834908, -39965.656693656056, 0.012, 0.786, 0.65, 192.0, 0.0, 0.0, 0.0, 0.0, 0.0, 0.0, 0.0, 0.0, 0.0, 1.6541563312605708E9, 0.0, 2022-06-02 09:52:11.260
212.0, 26434.37998704672, 3107.13834847669, -78004.03422165326, -50415.32074395666, -34084.71156176467, -39215.733315436046, -2924.256375343368, -39943.9307980455, 0.012, 0.786, 0.65, 192.0, 0.0, 0.0, 0.0, 0.0, 0.0, 0.0, 0.0, 0.0, 0.0, 1.6541563312605765E9, 0.0, 2022-06-02 09:52:11.260
213.0, 26436.27988532542, 3093.3249704033105, -78044.17795469498, -50453.11754383058, -34115.86989353537, -39244.120030894286, -2954.8112100137723, -39977.21254553945, 0.012, 0.786, 0.65, 192.0, 0.0, 0.0, 0.0, 0.0, 0.0, 0.0, 0.0, 0.0, 0.0, 1.6541563312605824E9, 0.0, 2022-06-02 09:52:11.260
214.0, 26450.47324305454, 3089.301656401355, -78046.63664658507, -50463.10877360211, -34116.8533702914, -39261.42028110269, -2939.276747617334, -39982.711074675455, 0.012, 0.786, 0.65, 192.0, 0.0, 0.0, 0.0, 0.0, 0.0, 0.0, 0.0, 0.0, 0.0, 1.6541563312605927E9, 0.0, 2022-06-02 09:52:11.260
215.0, 26462.118501915756, 3106.7360170764946, -78015.76888749229, -50435.07968605515, -34089.338372866914, -39231.245426088026, -2917.7743694513288, -39941.65092011105, 0.01, 0.784, 0.648, 192.0, 0.0, 80.0, 24.0, 128.0, 20.0, 64.0, 0.0, 0.0, 0.0, 1.654156331260599E9, 0.0, 2022-06-02 09:52:11.260
216.0, 26456.061179168366, 3114.693238102584, -77991.24902382481, -50402.267325194756, -34062.538631265, -39212.022925856465, -2893.612133695142, -39918.15923668852, 0.01, 0.784, 0.648, 192.0, 0.0, 0.0, 0.0, 0.0, 0.0, 0.0, 0.0, 0.0, 0.0, 1.6541563312606044E9, 0.0, 2022-06-02 09:52:11.260
217.0, 26466.566499062363, 3132.887558089204, -77978.88850914103, -50392.72313031234, -34047.69707294668, -39197.89662336071, -2887.5995144366643, -39916.214634920914, 0.01, 0.784, 0.648, 192.0, 0.0, 0.0, 0.0, 0.0, 0.0, 0.0, 0.0, 0.0, 0.0, 1.65415633126061E9, 0.0, 2022-06-02 09:52:11.260
218.0, 26485.990164994022, 3134.6980493900837, -78000.30148032922, -50417.153587001994, -34071.233459858115, -39216.4038677697, -2921.574166008731, -39956.71599587393, 0.01, 0.784, 0.648, 192.0, 0.0, 0.0, 0.0, 0.0, 0.0, 0.0, 0.0, 0.0, 0.0, 1.6541563312606153E9, 0.0, 2022-06-02 09:52:11.260
219.0, 26456.28469661292, 3095.13546170419, -78047.08368147418, -50464.29341605824, -34130.84556232042, -39267.5670108279, -2981.20862021549, -40014.60701401318, 0.01, 0.784, 0.648, 192.0, 0.0, 0.0, 0.0, 0.0, 0.0, 0.0, 0.0, 0.0, 0.0, 1.6541563312606215E9, 0.0, 2022-06-02 09:52:11.260
220.0, 26463.99604845, 3111.2957729453774, -78009.17512287798, -50428.08359004064, -34087.237308888114, -39236.45338254612, -2888.672398170519, -39947.97646379191, 0.01, 0.784, 0.648, 192.0, 0.0, 0.0, 0.0, 0.0, 0.0, 0.0, 0.0, 0.0, 0.0, 1.6541563312606285E9, 0.0, 2022-06-02 09:52:11.260
221.0, 26461.269135626455, 3123.8351015848043, -77987.73979994534, -50408.95049678689, -34067.45601504517, -39215.26392880249, -2897.1660610635354, -39933.33607117368, 0.01, 0.784, 0.648, 192.0, 0.0, 0.0, 0.0, 0.0, 0.0, 0.0, 0.0, 0.0, 0.0, 1.6541563312606351E9, 0.0, 2022-06-02 09:52:11.260
222.0, 26466.72296127355, 3130.004183054469, -77984.49879699932, -50402.826118806144, -34064.8408609439, -39211.531187478446, -2913.795758938284, -39943.975501534405, 0.01, 0.784, 0.648, 192.0, 0.0, 0.0, 0.0, 0.0, 0.0, 0.0, 0.0, 0.0, 0.0, 1.6541563312606418E9, 0.0, 2022-06-02 09:52:11.260
223.0, 26454.787129734414, 3099.0246652394135, -78035.99721622435, -50446.56848270518, -34098.569643326955, -39241.68369074866, -2921.1718346085354, -39964.42734771101, 0.01, 0.784, 0.648, 192.0, 0.0, 0.0, 0.0, 0.0, 0.0, 0.0, 0.0, 0.0, 0.0, 1.6541563312606506E9, 0.0, 2022-06-02 09:52:11.260
224.0, 26455.435330323617, 3083.266685398422, -78058.93010603549, -50469.14374460504, -34116.60750110239, -39267.20938291662, -2933.599404525686, -39983.895717131585, 0.01, 0.784, 0.648, 192.0, 0.0, 0.0, 0.0, 0.0, 0.0, 0.0, 0.0, 0.0, 0.0, 1.6541563312606564E9, 0.0, 2022-06-02 09:52:11.260
225.0, 26457.514042557963, 3091.648589569162, -78029.80578301022, -50447.484904227844, -34096.80385551499, -39252.30076936493, -2912.477006015421, -39967.35542623466, 0.008, 0.778, 0.65, 192.0, 0.0, 64.0, 24.0, 80.0, 20.0, 80.0, 0.0, 0.0, 0.0, 1.654156331260662E9, 0.0, 2022-06-02 09:52:11.260
226.0, 26450.272077354442, 3098.3764646502095, -78011.83498046816, -50433.78328487674, -34083.750436753086, -39235.760478468, -2909.906555403061, -39951.95507430495, 0.008, 0.778, 0.65, 192.0, 0.0, 0.0, 0.0, 0.0, 0.0, 0.0, 0.0, 0.0, 0.0, 1.6541563312606676E9, 0.0, 2022-06-02 09:52:11.260
227.0, 26439.23031559352, 3089.5475255903634, -78027.90588473152, -50446.34496526062, -34106.616271330866, -39241.95191168212, -2939.880244717627, -39965.56728667823, 0.008, 0.778, 0.65, 192.0, 0.0, 0.0, 0.0, 0.0, 0.0, 0.0, 0.0, 0.0, 0.0, 1.6541563312606728E9, 0.0, 2022-06-02 09:52:11.260
228.0, 26434.402338791173, 3071.6214265372073, -78066.1273677501, -50481.817183711195, -34142.64728339282, -39269.75748178452, -2969.1386782096242, -39999.474883016934, 0.008, 0.778, 0.65, 192.0, 0.0, 0.0, 0.0, 0.0, 0.0, 0.0, 0.0, 0.0, 0.0, 1.6541563312606783E9, 0.0, 2022-06-02 09:52:11.260
229.0, 26448.685103498115, 3073.3201591158104, -78071.11180676363, -50489.28266635927, -34154.158431787306, -39287.191842459666, -3003.381550715155, -40027.30280486379, 0.008, 0.778, 0.65, 192.0, 0.0, 0.0, 0.0, 0.0, 0.0, 0.0, 0.0, 0.0, 0.0, 1.6541563312606835E9, 0.0, 2022-06-02 09:52:11.260
230.0, 26448.886269198214, 3089.2793046569, -78045.47435587339, -50468.07086087118, -34132.700757110215, -39271.70208355213, -2998.5759256572637, -40020.48552280492, 0.008, 0.778, 0.65, 192.0, 0.0, 0.0, 0.0, 0.0, 0.0, 0.0, 0.0, 0.0, 0.0, 1.6541563312606895E9, 0.0, 2022-06-02 09:52:11.260
231.0, 26434.04471087989, 3093.3249704033105, -78032.19741966695, -50458.526665988764, -34120.0049662596, -39256.39113860025, -2982.4826696494424, -39996.92678414903, 0.008, 0.778, 0.65, 192.0, 0.0, 0.0, 0.0, 0.0, 0.0, 0.0, 0.0, 0.0, 0.0, 1.6541563312606957E9, 0.0, 2022-06-02 09:52:11.260
232.0, 26424.07583285282, 3085.6359703106846, -78035.50547784632, -50463.913436402494, -34120.36259417088, -39246.221094873086, -2947.2339686434234, -39959.75583311985, 0.008, 0.778, 0.65, 192.0, 0.0, 0.0, 0.0, 0.0, 0.0, 0.0, 0.0, 0.0, 0.0, 1.6541563312607017E9, 0.0, 2022-06-02 09:52:11.260
233.0, 26442.62778075073, 3087.5358685893857, -78049.94470476445, -50477.6150557536, -34131.94079779873, -39254.96062695511, -2954.0288989578366, -39982.912240375554, 0.008, 0.778, 0.65, 192.0, 0.0, 0.0, 0.0, 0.0, 0.0, 0.0, 0.0, 0.0, 0.0, 1.654156331260707E9, 0.0, 2022-06-02 09:52:11.260
234.0, 26447.61221976426, 3071.2190951370117, -78070.95534455245, -50508.9745532244, -34151.8114986195, -39291.55043262845, -2983.801422572306, -40035.03650844533, 0.008, 0.778, 0.65, 192.0, 0.0, 0.0, 0.0, 0.0, 0.0, 0.0, 0.0, 0.0, 0.0, 1.6541563312607124E9, 0.0, 2022-06-02 09:52:11.260
235.0, 26435.94460915859, 3064.89355145616, -78058.7736438243, -50503.990114210865, -34134.7571176001, -39288.80116806045, -2953.4030501130883, -39995.7421416929, 0.006, 0.776, 0.652, 192.0, 0.0, 48.0, 24.0, 64.0, 20.0, 96.0, 0.0, 0.0, 0.0, 1.6541563312607224E9, 0.0, 2022-06-02 09:52:11.260
236.0, 26426.780393931913, 3070.7050050145394, -78029.42580335449, -50461.74531719033, -34110.12549521035, -39256.413490344705, -2934.538177792809, -39945.920103302014, 0.006, 0.776, 0.652, 192.0, 0.0, 0.0, 0.0, 0.0, 0.0, 0.0, 0.0, 0.0, 0.0, 1.6541563312607288E9, 0.0, 2022-06-02 09:52:11.260
237.0, 26412.296463524875, 3060.2443886094557, -78037.20421042493, -50475.08930863015, -34116.60750110239, -39269.556316084425, -2953.6936227910073, -39975.11148156065, 0.006, 0.776, 0.652, 192.0, 0.0, 0.0, 0.0, 0.0, 0.0, 0.0, 0.0, 0.0, 0.0, 1.6541563312607343E9, 0.0, 2022-06-02 09:52:11.260
238.0, 26423.69585319708, 3058.2550833529335, -78063.7804345823, -50498.58099205267, -34146.82705960597, -39294.27734545199, -2989.8140418307835, -40021.513703049866, 0.006, 0.776, 0.652, 192.0, 0.0, 0.0, 0.0, 0.0, 0.0, 0.0, 0.0, 0.0, 0.0, 1.6541563312607398E9, 0.0, 2022-06-02 09:52:11.260
239.0, 26432.591847490294, 3050.4319727935763, -78075.24687948787, -50515.18833818297, -34163.4120539918, -39317.12082828532, -2997.4583384344983, -40048.268741162865, 0.006, 0.776, 0.652, 192.0, 0.0, 0.0, 0.0, 0.0, 0.0, 0.0, 0.0, 0.0, 0.0, 1.6541563312607455E9, 0.0, 2022-06-02 09:52:11.260
240.0, 26434.335283557808, 3060.110278142724, -78050.07881523119, -50493.283628616766, -34140.881495580856, -39303.28509846748, -2988.070605763269, -40033.33777586673, 0.006, 0.776, 0.652, 192.0, 0.0, 0.0, 0.0, 0.0, 0.0, 0.0, 0.0, 0.0, 0.0, 1.6541563312607512E9, 0.0, 2022-06-02 09:52:11.260
241.0, 26441.152565616678, 3094.0402262258804, -78009.66686125599, -50451.93290137445, -34103.062343962476, -39256.72641476708, -2945.15525640908, -39973.07747281522, 0.006, 0.776, 0.652, 192.0, 0.0, 0.0, 0.0, 0.0, 0.0, 0.0, 0.0, 0.0, 0.0, 1.6541563317394025E9, 0.0, 2022-06-02 09:52:11.739
242.0, 26430.2896178114, 3082.5737813203077, -78019.79220149425, -50460.761840434294, -34102.302384651, -39258.0675194344, -2943.6800412750295, -39984.09688283168, 0.006, 0.776, 0.652, 192.0, 0.0, 0.0, 0.0, 0.0, 0.0, 0.0, 0.0, 0.0, 0.0, 1.6541563317395396E9, 0.0, 2022-06-02 09:52:11.739
243.0, 26408.22844603401, 3042.1618273451127, -78080.76776036833, -50522.4750068754, -34149.48691719615, -39302.05575252244, -2968.848105531705, -40024.33002285123, 0.006, 0.776, 0.652, 192.0, 0.0, 0.0, 0.0, 0.0, 0.0, 0.0, 0.0, 0.0, 0.0, 1.654156331739556E9, 0.0, 2022-06-02 09:52:11.739
244.0, 26418.33143452781, 3043.6370424791626, -78083.78524586979, -50519.792797540766, -34165.44606273724, -39314.103342783856, -2984.0025882724035, -40032.01902294386, 0.006, 0.776, 0.652, 192.0, 0.0, 0.0, 0.0, 0.0, 0.0, 0.0, 0.0, 0.0, 0.0, 1.6541563317395737E9, 0.0, 2022-06-02 09:52:11.739
245.0, 26424.70168169757, 3054.522342028897, -78057.29842869025, -50495.07176817319, -34144.435422949246, -39289.53877562747, -2977.7888033138283, -40011.25425234488, 0.006, 0.776, 0.646, 192.0, 0.0, 48.0, 24.0, 64.0, 20.0, 48.0, 0.0, 0.0, 0.0, 1.6541563317395897E9, 0.0, 2022-06-02 09:52:11.739
246.0, 26439.654998738173, 3083.6466650541624, -78014.91952120299, -50449.094229828625, -34107.64445157581, -39246.17639138417, -2943.6129860416636, -39977.458414728455, 0.006, 0.776, 0.646, 192.0, 0.0, 0.0, 0.0, 0.0, 0.0, 0.0, 0.0, 0.0, 0.0, 1.654156331739606E9, 0.0, 2022-06-02 09:52:11.739
247.0, 26423.09235609679, 3076.4494033395536, -78023.94962596294, -50457.900817144015, -34115.04287899052, -39246.846943717836, -2930.179587624024, -39970.19409778048, 0.006, 0.776, 0.646, 192.0, 0.0, 0.0, 0.0, 0.0, 0.0, 0.0, 0.0, 0.0, 0.0, 1.6541563317396207E9, 0.0, 2022-06-02 09:52:11.739
248.0, 26410.597730946272, 3055.3940600626543, -78068.40724568455, -50500.65970428702, -34150.82802186347, -39277.53588885497, -2971.239742188423, -40007.812083698765, 0.006, 0.776, 0.646, 192.0, 0.0, 0.0, 0.0, 0.0, 0.0, 0.0, 0.0, 0.0, 0.0, 1.6541563317396357E9, 0.0, 2022-06-02 09:52:11.739
249.0, 26413.816382147837, 3044.5981674907407, -78090.49076920639, -50526.58772785518, -34180.73465594467, -39309.63299389279, -3042.810027934316, -40074.64379962013, 0.006, 0.776, 0.646, 192.0, 0.0, 0.0, 0.0, 0.0, 0.0, 0.0, 0.0, 0.0, 0.0, 1.6541563317396507E9, 0.0, 2022-06-02 09:52:11.739
250.0, 26442.314856328354, 3081.500897586453, -78038.38885288106, -50478.15149762053, -34136.94758855672, -39272.32793239688, -3006.019056560881, -40030.05206943179, 0.006, 0.776, 0.646, 192.0, 0.0, 0.0, 0.0, 0.0, 0.0, 0.0, 0.0, 0.0, 0.0, 1.6541563317396781E9, 0.0, 2022-06-02 09:52:11.739
251.0, 26453.200155878087, 3102.9362205190923, -77994.64648898202, -50435.57142443317, -34092.6464310463, -39228.160885353194, -2931.5653957802533, -39952.156240005046, 0.006, 0.776, 0.646, 192.0, 0.0, 0.0, 0.0, 0.0, 0.0, 0.0, 0.0, 0.0, 0.0, 1.6541563317396927E9, 0.0, 2022-06-02 09:52:11.739
252.0, 26449.020379664944, 3105.7301885760057, -77991.405486036, -50433.0009738208, -34083.37045709735, -39212.29114678993, -2900.9658576209376, -39929.24570193836, 0.006, 0.776, 0.646, 192.0, 0.0, 0.0, 0.0, 0.0, 0.0, 0.0, 0.0, 0.0, 0.0, 1.654156331739709E9, 0.0, 2022-06-02 09:52:11.739
253.0, 26439.029149893424, 3084.0936999432683, -78042.05453897173, -50476.18454410846, -34121.39077441583, -39252.14430715374, -2953.246587901901, -40001.10656036217, 0.006, 0.776, 0.646, 192.0, 0.0, 0.0, 0.0, 0.0, 0.0, 0.0, 0.0, 0.0, 0.0, 1.6541563317397232E9, 0.0, 2022-06-02 09:52:11.739
254.0, 26431.89894341218, 3059.395022320154, -78063.26634445981, -50503.1183961771, -34149.3081032405, -39282.16269995722, -2974.368986412166, -40017.870368703654, 0.006, 0.776, 0.646, 192.0, 0.0, 0.0, 0.0, 0.0, 0.0, 0.0, 0.0, 0.0, 0.0, 1.654156331739745E9, 0.0, 2022-06-02 09:52:11.739
255.0, 26442.694835984094, 3077.343473117766, -78025.53659981926, -50470.50720101681, -34114.48408537914, -39253.84303973235, -2926.446846299988, -39969.143565791084, 0.006, 0.784, 0.65, 192.0, 0.0, 48.0, 24.0, 128.0, 20.0, 80.0, 0.0, 0.0, 0.0, 1.6541563317397597E9, 0.0, 2022-06-02 09:52:11.739
0.0, 26446.76285347496, 3097.884726272193, -77992.38896279204, -50437.627784923054, -34085.82914898743, -39224.49519926253, -2907.984305379904, -39943.215542222926, 0.006, 0.784, 0.65, 192.0, 0.0, 0.0, 0.0, 0.0, 0.0, 0.0, 0.0, 0.0, 0.0, 1.6541563317397983E9, 0.0, 2022-06-02 09:52:11.739
1.0, 26464.711304272572, 3120.1470637496786, -77973.16646256048, -50418.51704341377, -34064.93026792172, -39203.46220773008, -2896.4508052409656, -39929.08923972717, 0.006, 0.784, 0.65, 192.0, 0.0, 0.0, 0.0, 0.0, 0.0, 0.0, 0.0, 0.0, 0.0, 1.6541563317398164E9, 0.0, 2022-06-02 09:52:11.739
2.0, 26457.894022213703, 3102.42213039662, -78015.2100938809, -50456.31384328769, -34097.58616657092, -39239.560275025404, -2927.0279916558256, -39986.95790612196, 0.006, 0.784, 0.65, 192.0, 0.0, 0.0, 0.0, 0.0, 0.0, 0.0, 0.0, 0.0, 0.0, 1.654156331739832E9, 0.0, 2022-06-02 09:52:11.739
3.0, 26446.33817033031, 3078.975150463003, -78044.24500992835, -50484.3652825791, -34127.96218728569, -39274.11607195331, -2966.188247941524, -40012.05891514527, 0.006, 0.784, 0.65, 192.0, 0.0, 0.0, 0.0, 0.0, 0.0, 0.0, 0.0, 0.0, 0.0, 1.6541563317398477E9, 0.0, 2022-06-02 09:52:11.739
4.0, 26463.034923438423, 3104.143214719679, -78007.94577693293, -50452.06701184118, -34089.74070426711, -39243.33771983835, -2940.3943348400994, -39970.127042547116, 0.006, 0.784, 0.65, 192.0, 0.0, 0.0, 0.0, 0.0, 0.0, 0.0, 0.0, 0.0, 0.0, 1.654156331739863E9, 0.0, 2022-06-02 09:52:11.739
5.0, 26455.256516367976, 3105.752540320461, -77993.97593664836, -50448.42367749497, -34080.86706171835, -39242.55540878241, -2936.661593516063, -39983.18046130901, 0.006, 0.784, 0.65, 192.0, 0.0, 0.0, 0.0, 0.0, 0.0, 0.0, 0.0, 0.0, 0.0, 1.6541563317398772E9, 0.0, 2022-06-02 09:52:11.739
6.0, 26456.307048357376, 3114.9614590360475, -77985.5046254998, -50425.55784291719, -34068.90887843476, -39226.95389115261, -2896.339046518689, -39954.97255980642, 0.006, 0.784, 0.65, 192.0, 0.0, 0.0, 0.0, 0.0, 0.0, 0.0, 0.0, 0.0, 0.0, 1.6541563317398937E9, 0.0, 2022-06-02 09:52:11.739
7.0, 26479.23993816852, 3123.656287629162, -77996.99342214983, -50435.683183155445, -34074.58622152641, -39221.36595503878, -2895.2661627848343, -39950.30104521526, 0.006, 0.784, 0.65, 192.0, 0.0, 0.0, 0.0, 0.0, 0.0, 0.0, 0.0, 0.0, 0.0, 1.654156331739908E9, 0.0, 2022-06-02 09:52:11.739
8.0, 26475.03781021092, 3108.1888804660894, -78020.12747766108, -50460.001881122815, -34108.650280076305, -39251.317292608896, -2942.0260121853366, -39989.50600498987, 0.006, 0.784, 0.65, 192.0, 0.0, 0.0, 0.0, 0.0, 0.0, 0.0, 0.0, 0.0, 0.0, 1.6541563317399223E9, 0.0, 2022-06-02 09:52:11.739
9.0, 26458.832795480826, 3096.074234971313, -78015.72418400338, -50456.023270609774, -34117.9039022808, -39253.37365309878, -2955.481762347432, -39988.5895834672, 0.006, 0.782, 0.646, 192.0, 0.0, 48.0, 24.0, 112.0, 20.0, 48.0, 0.0, 0.0, 0.0, 1.6541563317399373E9, 0.0, 2022-06-02 09:52:11.739
10.0, 26436.65986498116, 3085.2783423993997, -78010.47152405638, -50455.687994442946, -34111.66776557777, -39249.37269084129, -2938.2932708613007, -39984.83449039871, 0.006, 0.782, 0.646, 192.0, 0.0, 0.0, 0.0, 0.0, 0.0, 0.0, 0.0, 0.0, 0.0, 1.6541563317399528E9, 0.0, 2022-06-02 09:52:11.739
11.0, 26446.829908708325, 3103.13738621919, -77990.84669242462, -50435.16909303297, -34088.734875766626, -39227.35622255281, -2908.0066571243597, -39969.568248935735, 0.006, 0.782, 0.646, 192.0, 0.0, 0.0, 0.0, 0.0, 0.0, 0.0, 0.0, 0.0, 0.0, 1.6541563317399676E9, 0.0, 2022-06-02 09:52:11.739
12.0, 26459.57040304785, 3108.7700258219274, -78006.73878273234, -50438.70066865691, -34099.24019566062, -39228.33969930884, -2918.6237357406303, -39975.37970249411, 0.006, 0.782, 0.646, 192.0, 0.0, 0.0, 0.0, 0.0, 0.0, 0.0, 0.0, 0.0, 0.0, 1.654156331739982E9, 0.0, 2022-06-02 09:52:11.739
13.0, 26439.856164438268, 3078.7516330184503, -78050.90582977603, -50480.43137555497, -34148.36932997338, -39274.786624286964, -2990.2387249754343, -40034.16479041157, 0.006, 0.782, 0.646, 192.0, 0.0, 0.0, 0.0, 0.0, 0.0, 0.0, 0.0, 0.0, 0.0, 1.6541563317399967E9, 0.0, 2022-06-02 09:52:11.739
14.0, 26437.486879526008, 3086.3512261332544, -78031.79508826675, -50464.87456141407, -34134.39948968882, -39265.845926504844, -2989.143489497124, -40025.6487757741, 0.006, 0.782, 0.646, 192.0, 0.0, 0.0, 0.0, 0.0, 0.0, 0.0, 0.0, 0.0, 0.0, 1.6541563317400112E9, 0.0, 2022-06-02 09:52:11.740
15.0, 26434.692911469094, 3094.844889026271, -78004.48125654236, -50440.868787869076, -34095.73097178114, -39237.72743198007, -2934.6499365150853, -39986.53322297731, 0.006, 0.782, 0.646, 192.0, 0.0, 0.0, 0.0, 0.0, 0.0, 0.0, 0.0, 0.0, 0.0, 1.6541563317400298E9, 0.0, 2022-06-02 09:52:11.740
16.0, 26432.77066144594, 3093.526136103408, -78008.52692228877, -50443.64040418153, -34090.50066357859, -39229.211417342594, -2932.5265207918314, -39979.693589173985, 0.006, 0.782, 0.646, 192.0, 0.0, 0.0, 0.0, 0.0, 0.0, 0.0, 0.0, 0.0, 0.0, 1.6541563317400494E9, 0.0, 2022-06-02 09:52:11.740
17.0, 26423.829963663815, 3078.6398742961737, -78046.63664658507, -50480.073747643684, -34128.789201830536, -39253.2171908876, -2966.903503764094, -40008.34852556569, 0.006, 0.782, 0.646, 192.0, 0.0, 0.0, 0.0, 0.0, 0.0, 0.0, 0.0, 0.0, 0.0, 1.654156331740069E9, 0.0, 2022-06-02 09:52:11.740
18.0, 26411.335338513298, 3051.7730774608945, -78076.81150159973, -50513.064922459715, -34157.42178647778, -39286.70010408165, -2981.1192132376686, -40016.886891947615, 0.006, 0.782, 0.646, 192.0, 0.0, 0.0, 0.0, 0.0, 0.0, 0.0, 0.0, 0.0, 0.0, 1.6541563317400897E9, 0.0, 2022-06-02 09:52:11.740
19.0, 26440.236144094008, 3083.7360720319834, -78026.3636143641, -50466.55094224822, -34114.37232665686, -39251.13847865325, -2950.4526198449876, -39976.07260657223, 0.01, 0.78, 0.642, 192.0, 0.0, 80.0, 24.0, 96.0, 20.0, 16.0, 0.0, 0.0, 0.0, 1.6541563317401068E9, 0.0, 2022-06-02 09:52:11.740
20.0, 26434.022359135433, 3090.6427610686733, -78009.10806764461, -50445.29443327122, -34098.41318111577, -39233.413545300195, -2944.752925008884, -39969.076510557716, 0.01, 0.78, 0.642, 192.0, 0.0, 0.0, 0.0, 0.0, 0.0, 0.0, 0.0, 0.0, 0.0, 1.6541563317401278E9, 0.0, 2022-06-02 09:52:11.740
21.0, 26417.99615836098, 3085.1889354215787, -78017.33350960416, -50458.99605262233, -34103.17410268475, -39238.375632569274, -2943.0318406858255, -39977.6372286841, 0.01, 0.78, 0.642, 192.0, 0.0, 0.0, 0.0, 0.0, 0.0, 0.0, 0.0, 0.0, 0.0, 1.6541563317401483E9, 0.0, 2022-06-02 09:52:11.740
22.0, 26419.650187450672, 3077.566990562319, -78043.35094015014, -50480.923113932986, -34121.927216282755, -39256.63700778926, -2940.4166865845546, -40001.62065048464, 0.01, 0.78, 0.642, 192.0, 0.0, 0.0, 0.0, 0.0, 0.0, 0.0, 0.0, 0.0, 0.0, 1.6541563317401717E9, 0.0, 2022-06-02 09:52:11.740
23.0, 26396.73964938398, 3046.006327391425, -78084.96988832593, -50510.270954402804, -34173.179766318775, -39300.26761296602, -3013.4845392089537, -40053.49904936541, 0.01, 0.78, 0.642, 192.0, 0.0, 0.0, 0.0, 0.0, 0.0, 0.0, 0.0, 0.0, 0.0, 1.654156331740188E9, 0.0, 2022-06-02 09:52:11.740
24.0, 26413.011719347447, 3070.7050050145394, -78046.16725995152, -50481.526611033274, -34151.632684663855, -39279.65930457822, -3001.056969291803, -40036.86935149066, 0.01, 0.78, 0.642, 192.0, 0.0, 0.0, 0.0, 0.0, 0.0, 0.0, 0.0, 0.0, 0.0, 1.6541563317402027E9, 0.0, 2022-06-02 09:52:11.740
25.0, 26423.293521796888, 3084.272513898911, -78009.68921300044, -50448.3566222616, -34108.94085275422, -39245.90817045071, -2941.0648871737585, -39986.86849914414, 0.01, 0.78, 0.642, 192.0, 0.0, 0.0, 0.0, 0.0, 0.0, 0.0, 0.0, 0.0, 0.0, 1.6541563317402198E9, 0.0, 2022-06-02 09:52:11.740
26.0, 26416.364481015742, 3081.2550283974447, -78017.44526832644, -50454.50335198681, -34116.071059235466, -39240.92373143718, -2957.180494926035, -39990.601240468175, 0.01, 0.78, 0.642, 192.0, 0.0, 0.0, 0.0, 0.0, 0.0, 0.0, 0.0, 0.0, 0.0, 1.654156331740236E9, 0.0, 2022-06-02 09:52:11.740
27.0, 26394.392716216174, 3047.1909698475565, -78076.14094926608, -50508.48281484638, -34165.04373133704, -39288.19767096015, -2990.283428464345, -40049.743956296916, 0.01, 0.78, 0.642, 192.0, 0.0, 0.0, 0.0, 0.0, 0.0, 0.0, 0.0, 0.0, 0.0, 1.6541563317402515E9, 0.0, 2022-06-02 09:52:11.740
28.0, 26390.65997489214, 3032.952908629526, -78100.97373735592, -50530.901614535054, -34199.51012128712, -39317.366697474325, -3041.6030337337297, -40087.51840442639, 0.01, 0.78, 0.646, 192.0, 0.0, 80.0, 24.0, 96.0, 20.0, 48.0, 0.0, 0.0, 0.0, 1.6541563317402685E9, 0.0, 2022-06-02 09:52:11.740
29.0, 26415.023376348425, 3068.9615689470256, -78050.7717193093, -50485.527573290776, -34156.84064112194, -39282.16269995722, -3000.9228588250708, -40054.90720926609, 0.01, 0.78, 0.646, 192.0, 0.0, 0.0, 0.0, 0.0, 0.0, 0.0, 0.0, 0.0, 0.0, 1.65415633174029E9, 0.0, 2022-06-02 09:52:11.740
30.0, 26421.505382240462, 3087.8264412673047, -78019.47927707188, -50454.32453803117, -34122.17308547176, -39247.07046116239, -2957.180494926035, -40012.7965227123, 0.01, 0.78, 0.646, 192.0, 0.0, 0.0, 0.0, 0.0, 0.0, 0.0, 0.0, 0.0, 0.0, 1.6541563317403111E9, 0.0, 2022-06-02 09:52:11.740
31.0, 26412.631739691704, 3080.204496408045, -78030.27516964379, -50461.901779401516, -34128.364518685885, -39243.00244367152, -2972.469088133465, -40017.244519858905, 0.01, 0.78, 0.646, 192.0, 0.0, 0.0, 0.0, 0.0, 0.0, 0.0, 0.0, 0.0, 0.0, 1.6541563317403295E9, 0.0, 2022-06-02 09:52:11.740
32.0, 26404.965091343536, 3063.1501153886456, -78070.82123408571, -50502.581954310175, -34158.137042300354, -39271.657380063225, -2998.598277401719, -40045.22890391695, 0.01, 0.78, 0.646, 192.0, 0.0, 0.0, 0.0, 0.0, 0.0, 0.0, 0.0, 0.0, 0.0, 1.6541563317403524E9, 0.0, 2022-06-02 09:52:11.740
33.0, 26401.478219208508, 3047.749763458939, -78089.14966453906, -50511.50030034784, -34170.60931570641, -39292.93624078468, -2997.7712628568725, -40038.836305002726, 0.01, 0.78, 0.646, 192.0, 0.0, 0.0, 0.0, 0.0, 0.0, 0.0, 0.0, 0.0, 0.0, 1.6541563317403748E9, 0.0, 2022-06-02 09:52:11.740
34.0, 26415.22454204852, 3061.2502171099445, -78056.78433856778, -50480.67724474397, -34146.13415552785, -39271.1209381963, -2979.8451638037163, -40013.176502368035, 0.01, 0.78, 0.646, 192.0, 0.0, 0.0, 0.0, 0.0, 0.0, 0.0, 0.0, 0.0, 0.0, 1.654156331740397E9, 0.0, 2022-06-02 09:52:11.740
35.0, 26438.962094660055, 3100.2316594400004, -78003.76600071978, -50431.99514532032, -34108.359707398384, -39227.31151906389, -2959.3486141382, -39990.42242651253, 0.01, 0.78, 0.646, 192.0, 0.0, 0.0, 0.0, 0.0, 0.0, 0.0, 0.0, 0.0, 0.0, 1.6541563317404203E9, 0.0, 2022-06-02 09:52:11.740
36.0, 26422.66767295214, 3091.5368308468856, -78011.32089034568, -50442.20989253639, -34111.712469066675, -39229.27847257596, -2952.7324977794287, -40003.27467957434, 0.01, 0.78, 0.646, 192.0, 0.0, 0.0, 0.0, 0.0, 0.0, 0.0, 0.0, 0.0, 0.0, 1.65415633174044E9, 0.0, 2022-06-02 09:52:11.740
37.0, 26421.684196196104, 3080.1597929191344, -78039.19351568146, -50467.93675040445, -34132.477239665655, -39246.51166755101, -2961.695547306007, -40023.90533970658, 0.01, 0.78, 0.646, 192.0, 0.0, 0.0, 0.0, 0.0, 0.0, 0.0, 0.0, 0.0, 0.0, 1.6541563317404609E9, 0.0, 2022-06-02 09:52:11.740
38.0, 26427.65211196567, 3067.598112535252, -78061.05352175875, -50488.58976228115, -34158.67348416728, -39270.897420751746, -3001.816928603283, -40035.32708112324, 0.014, 0.784, 0.646, 192.0, 0.0, 112.0, 24.0, 128.0, 20.0, 48.0, 0.0, 0.0, 0.0, 1.6541563317404883E9, 0.0, 2022-06-02 09:52:11.740
39.0, 26423.85231540827, 3067.4192985796094, -78051.6210855986, -50481.21368661091, -34149.24104800714, -39267.92463873919, -2985.9918935289256, -40024.933519951526, 0.014, 0.784, 0.646, 192.0, 0.0, 0.0, 0.0, 0.0, 0.0, 0.0, 0.0, 0.0, 0.0, 1.65415633174051E9, 0.0, 2022-06-02 09:52:11.740
40.0, 26431.47426026753, 3086.6417988111734, -78015.67948051447, -50446.94846236092, -34113.32179466746, -39239.3144058364, -2935.1863783820127, -39990.80240616827, 0.014, 0.784, 0.646, 192.0, 0.0, 0.0, 0.0, 0.0, 0.0, 0.0, 0.0, 0.0, 0.0, 1.6541563317405388E9, 0.0, 2022-06-02 09:52:11.740
41.0, 26437.688045226103, 3098.175298950112, -78002.17902686346, -50433.73858138783, -34104.090524207415, -39217.58851022584, -2923.317602076245, -39970.77524313632, 0.014, 0.784, 0.646, 192.0, 0.0, 0.0, 0.0, 0.0, 0.0, 0.0, 0.0, 0.0, 0.0, 1.6541563317405608E9, 0.0, 2022-06-02 09:52:11.740
42.0, 26418.040861849888, 3069.185086391579, -78055.84556530065, -50481.10192788862, -34147.67642589527, -39259.34156886835, -2968.848105531705, -40026.36403159667, 0.014, 0.784, 0.646, 192.0, 0.0, 0.0, 0.0, 0.0, 0.0, 0.0, 0.0, 0.0, 0.0, 1.6541563317405832E9, 0.0, 2022-06-02 09:52:11.740
43.0, 26428.501478254973, 3068.3580718467324, -78066.19442298346, -50494.91530596201, -34160.34986500143, -39275.434824876174, -2993.4797279214536, -40041.719680037466, 0.014, 0.784, 0.646, 192.0, 0.0, 0.0, 0.0, 0.0, 0.0, 0.0, 0.0, 0.0, 0.0, 1.6541563317406125E9, 0.0, 2022-06-02 09:52:11.740
44.0, 26433.41886203514, 3073.700138771551, -78046.9719227519, -50468.42848878247, -34143.07196653747, -39264.728339282075, -2985.187230728535, -40018.92090069305, 0.014, 0.784, 0.646, 192.0, 0.0, 0.0, 0.0, 0.0, 0.0, 0.0, 0.0, 0.0, 0.0, 1.6541563317406332E9, 0.0, 2022-06-02 09:52:11.740
45.0, 26435.765795202948, 3089.078138956802, -78014.7630589918, -50432.57629067615, -34109.58905334342, -39236.8110104574, -2945.53523606482, -39982.88988863109, 0.014, 0.784, 0.646, 192.0, 0.0, 0.0, 0.0, 0.0, 0.0, 0.0, 0.0, 0.0, 0.0, 1.6541563317406588E9, 0.0, 2022-06-02 09:52:11.740
46.0, 26438.89503942669, 3098.979961750503, -78002.69311698593, -50420.84162483712, -34098.3461258824, -39220.62834747176, -2929.3302213347224, -39973.122176304125, 0.014, 0.784, 0.646, 192.0, 0.0, 0.0, 0.0, 0.0, 0.0, 0.0, 0.0, 0.0, 0.0, 1.6541563317406812E9, 0.0, 2022-06-02 09:52:11.740
47.0, 26448.841565709303, 3094.7778337929053, -78031.70568128892, -50446.70259317191, -34123.78241107254, -39241.43782155965, -2974.4807451344427, -40019.882025704625, 0.014, 0.784, 0.646, 192.0, 0.0, 0.0, 0.0, 0.0, 0.0, 0.0, 0.0, 0.0, 0.0, 1.654156331740707E9, 0.0, 2022-06-02 09:52:11.740
48.0, 26425.99808287598, 3059.7750019758946, -78077.97379231142, -50495.92113446249, -34166.78716740455, -39296.06548500842, -3016.010286332403, -40076.11901475418, 0.014, 0.78, 0.644, 192.0, 0.0, 112.0, 24.0, 96.0, 20.0, 32.0, 0.0, 0.0, 0.0, 1.6541563317407482E9, 0.0, 2022-06-02 09:52:11.740
49.0, 26424.433460764107, 3064.044185166858, -78055.5773443672, -50476.60922725311, -34142.51317292609, -39277.98292374408, -2972.178515455546, -40023.27949086184, 0.014, 0.78, 0.644, 192.0, 0.0, 0.0, 0.0, 0.0, 0.0, 0.0, 0.0, 0.0, 0.0, 1.6541563317407832E9, 0.0, 2022-06-02 09:52:11.740
50.0, 26443.85712669577, 3099.114072217235, -78008.70573624442, -50430.00584006379, -34106.03512597503, -39230.060783631896, -2962.030823472837, -39970.819946625226, 0.014, 0.78, 0.644, 192.0, 0.0, 0.0, 0.0, 0.0, 0.0, 0.0, 0.0, 0.0, 0.0, 1.6541563317408054E9, 0.0, 2022-06-02 09:52:11.740
51.0, 26438.157431859665, 3105.1490432201676, -78006.9623001769, -50428.39651446301, -34101.54242533951, -39217.72262069257, -2959.706242049485, -39970.05998731375, 0.014, 0.78, 0.644, 192.0, 0.0, 0.0, 0.0, 0.0, 0.0, 0.0, 0.0, 0.0, 0.0, 1.6541563317408576E9, 0.0, 2022-06-02 09:52:11.740
52.0, 26423.494687496983, 3081.8361737532823, -78053.34216992166, -50473.83761094065, -34138.80278334651, -39258.62631304578, -2976.313588179778, -40023.25713911738, 0.014, 0.78, 0.644, 192.0, 0.0, 0.0, 0.0, 0.0, 0.0, 0.0, 0.0, 0.0, 0.0, 1.6541563317409155E9, 0.0, 2022-06-02 09:52:11.740
53.0, 26436.99514114799, 3076.427051595098, -78059.28773394677, -50489.84145997065, -34138.646321135326, -39275.01014173152, -2957.493419348409, -40018.92090069305, 0.014, 0.78, 0.644, 192.0, 0.0, 0.0, 0.0, 0.0, 0.0, 0.0, 0.0, 0.0, 0.0, 1.6541563317409575E9, 0.0, 2022-06-02 09:52:11.740
54.0, 26445.71232148556, 3091.402720380154, -78024.88839923005, -50450.770610662774, -34117.21099820268, -39248.8138972299, -2931.408933569066, -39981.59348745269, 0.014, 0.78, 0.644, 192.0, 0.0, 0.0, 0.0, 0.0, 0.0, 0.0, 0.0, 0.0, 0.0, 1.6541563317409945E9, 0.0, 2022-06-02 09:52:11.740
55.0, 26436.548106258884, 3093.302618658855, -78007.56579727719, -50434.94557558842, -34107.68915506472, -39231.15601911021, -2936.929814449527, -39976.31847576123, 0.014, 0.78, 0.644, 192.0, 0.0, 0.0, 0.0, 0.0, 0.0, 0.0, 0.0, 0.0, 0.0, 1.6541563317410257E9, 0.0, 2022-06-02 09:52:11.741
56.0, 26427.026263120923, 3087.3123511448325, -78011.25383511232, -50441.02525008026, -34119.24500694812, -39232.89945517772, -2965.92002700806, -39998.11142660516, 0.014, 0.78, 0.644, 192.0, 0.0, 0.0, 0.0, 0.0, 0.0, 0.0, 0.0, 0.0, 0.0, 1.65415633174106E9, 0.0, 2022-06-02 09:52:11.741
57.0, 26440.414958049652, 3093.7943570368716, -78022.3179486177, -50450.502389729314, -34115.199341201704, -39233.79352495593, -2938.852064472683, -39994.24457481439, 0.014, 0.78, 0.644, 192.0, 0.0, 0.0, 0.0, 0.0, 0.0, 0.0, 0.0, 0.0, 0.0, 1.654156331741115E9, 0.0, 2022-06-02 09:52:11.741
58.0, 26432.14481260119, 3074.1695254051124, -78058.59482986866, -50479.55965752121, -34153.7113968982, -39275.32306615389, -2985.433099917543, -40047.59818882921, 0.016, 0.78, 0.646, 192.0, 0.0, 128.0, 24.0, 96.0, 20.0, 48.0, 0.0, 0.0, 0.0, 1.6541563317411397E9, 0.0, 2022-06-02 09:52:11.741
59.0, 26434.961132402557, 3077.4552318400424, -78041.42869012698, -50462.81820092419, -34143.34018747094, -39266.11414743831, -2989.8587453196938, -40034.14243866711, 0.016, 0.78, 0.646, 192.0, 0.0, 0.0, 0.0, 0.0, 0.0, 0.0, 0.0, 0.0, 0.0, 1.6541563317411711E9, 0.0, 2022-06-02 09:52:11.741
60.0, 26428.456774766062, 3083.7360720319834, -78018.29463461574, -50440.24293902433, -34122.08367849394, -39236.6098447573, -2962.410803128577, -39991.3388480352, 0.016, 0.78, 0.646, 192.0, 0.0, 0.0, 0.0, 0.0, 0.0, 0.0, 0.0, 0.0, 0.0, 1.654156331741197E9, 0.0, 2022-06-02 09:52:11.741
61.0, 26419.1360973282, 3082.082042942291, -78020.93214046146, -50440.779380891254, -34121.39077441583, -39235.49225753454, -2947.0998581766917, -39986.77909216632, 0.016, 0.78, 0.646, 192.0, 0.0, 0.0, 0.0, 0.0, 0.0, 0.0, 0.0, 0.0, 0.0, 1.6541563317412271E9, 0.0, 2022-06-02 09:52:11.741
62.0, 26409.70366116806, 3059.953815931537, -78060.6288386141, -50477.346834820135, -34145.88828633884, -39262.76138577001, -2961.762602539373, -40014.45055180199, 0.016, 0.78, 0.646, 192.0, 0.0, 0.0, 0.0, 0.0, 0.0, 0.0, 0.0, 0.0, 0.0, 1.654156331741248E9, 0.0, 2022-06-02 09:52:11.741
63.0, 26411.581207702307, 3052.465981539009, -78079.89604233457, -50500.14561416455, -34174.006780863616, -39290.321086683405, -3003.4933094374314, -40052.49322086492, 0.016, 0.78, 0.646, 192.0, 0.0, 0.0, 0.0, 0.0, 0.0, 0.0, 0.0, 0.0, 0.0, 1.6541563317412684E9, 0.0, 2022-06-02 09:52:11.741
64.0, 26431.116632356243, 3078.572819062808, -78043.19447793896, -50468.249674826824, -34152.37029223088, -39267.9693422281, -2989.1881929860347, -40029.82855198724, 0.016, 0.78, 0.646, 192.0, 0.0, 0.0, 0.0, 0.0, 0.0, 0.0, 0.0, 0.0, 0.0, 1.6541563317412968E9, 0.0, 2022-06-02 09:52:11.741
65.0, 26418.666710694637, 3073.208400393534, -78029.35874812111, -50456.06797409868, -34133.14779199932, -39258.805127001426, -2958.5439513378087, -40020.3961158271, 0.016, 0.78, 0.646, 192.0, 0.0, 0.0, 0.0, 0.0, 0.0, 0.0, 0.0, 0.0, 0.0, 1.6541563317413118E9, 0.0, 2022-06-02 09:52:11.741
66.0, 26417.169143816132, 3077.857563240238, -78025.02250969679, -50448.78130540625, -34126.24110296263, -39251.652568775724, -2952.4866285904204, -40018.40681057058, 0.016, 0.78, 0.646, 192.0, 0.0, 0.0, 0.0, 0.0, 0.0, 0.0, 0.0, 0.0, 0.0, 1.6541563317413387E9, 0.0, 2022-06-02 09:52:11.741
67.0, 26410.396565246174, 3063.954778189037, -78059.69006534696, -50475.46928828589, -34157.62295217788, -39265.085967193365, -2980.8733440486603, -40028.979185697935, 0.016, 0.78, 0.646, 192.0, 0.0, 0.0, 0.0, 0.0, 0.0, 0.0, 0.0, 0.0, 0.0, 1.6541563317413712E9, 0.0, 2022-06-02 09:52:11.741
68.0, 26414.911617626145, 3056.198722863045, -78078.28671673378, -50496.68109377398, -34181.18169083377, -39284.73315056958, -3009.304762995811, -40046.659415562084, 0.014, 0.782, 0.652, 192.0, 0.0, 112.0, 24.0, 112.0, 20.0, 96.0, 0.0, 0.0, 0.0, 1.6541563317413883E9, 0.0, 2022-06-02 09:52:11.741
69.0, 26432.591847490294, 3076.918789973115, -78042.61333258312, -50472.29534057323, -34150.82802186347, -39266.22590616059, -2983.801422572306, -40023.05597341728, 0.014, 0.782, 0.652, 192.0, 0.0, 0.0, 0.0, 0.0, 0.0, 0.0, 0.0, 0.0, 0.0, 1.6541563317414167E9, 0.0, 2022-06-02 09:52:11.741
70.0, 26436.212830092056, 3089.3240081458102, -78012.52788454627, -50438.23128202335, -34118.775620314555, -39244.947045439134, -2952.576035568242, -40001.62065048464, 0.014, 0.782, 0.652, 192.0, 0.0, 0.0, 0.0, 0.0, 0.0, 0.0, 0.0, 0.0, 0.0, 1.6541563317414389E9, 0.0, 2022-06-02 09:52:11.741
71.0, 26440.169088860643, 3094.308447159344, -78008.95160543342, -50431.65986915349, -34112.31596616697, -39236.34162382384, -2951.0784686897364, -40001.933574907016, 0.014, 0.782, 0.652, 192.0, 0.0, 0.0, 0.0, 0.0, 0.0, 0.0, 0.0, 0.0, 0.0, 1.6541563317414849E9, 0.0, 2022-06-02 09:52:11.741
72.0, 26422.980597374513, 3062.1889903770675, -78057.29842869025, -50484.03000641227, -34158.53937370054, -39268.1705079282, -2995.916068067082, -40043.19489517152, 0.014, 0.782, 0.652, 192.0, 0.0, 0.0, 0.0, 0.0, 0.0, 0.0, 0.0, 0.0, 0.0, 1.6541563317415173E9, 0.0, 2022-06-02 09:52:11.741
73.0, 26410.46362047954, 3038.540844743353, -78092.77064714083, -50519.9716114964, -34194.838606695965, -39307.26370898053, -3040.9548331445258, -40087.74192187094, 0.014, 0.782, 0.652, 192.0, 0.0, 0.0, 0.0, 0.0, 0.0, 0.0, 0.0, 0.0, 0.0, 1.6541563317415476E9, 0.0, 2022-06-02 09:52:11.741
74.0, 26421.304216540364, 3060.333795587277, -78058.86305080212, -50486.95808493592, -34166.22837379317, -39279.704008067136, -3005.1249867826687, -40041.96554922647, 0.014, 0.782, 0.652, 192.0, 0.0, 0.0, 0.0, 0.0, 0.0, 0.0, 0.0, 0.0, 0.0, 1.654156331741577E9, 0.0, 2022-06-02 09:52:11.741
75.0, 26414.531637970405, 3068.402775335643, -78032.64445455605, -50463.33229104666, -34136.187629245236, -39253.57481879888, -2963.371928140155, -40010.27077558885, 0.014, 0.782, 0.652, 192.0, 0.0, 0.0, 0.0, 0.0, 0.0, 0.0, 0.0, 0.0, 0.0, 1.6541563317416065E9, 0.0, 2022-06-02 09:52:11.741
76.0, 26408.250797778466, 3069.408603836132, -78032.04095745576, -50460.31480554519, -34134.935931555745, -39247.36103384031, -2971.3515009106995, -40017.78096172583, 0.014, 0.782, 0.652, 192.0, 0.0, 0.0, 0.0, 0.0, 0.0, 0.0, 0.0, 0.0, 0.0, 1.6541563317416327E9, 0.0, 2022-06-02 09:52:11.741
77.0, 26406.440306477583, 3061.697251999051, -78063.04282701526, -50485.70638724642, -34160.461623723706, -39271.925600996685, -2991.7139401094846, -40057.231790689446, 0.014, 0.782, 0.652, 192.0, 0.0, 0.0, 0.0, 0.0, 0.0, 0.0, 0.0, 0.0, 0.0, 1.6541563317416587E9, 0.0, 2022-06-02 09:52:11.741
78.0, 26425.439289264596, 3067.1287259016904, -78071.60354514165, -50491.048454171236, -34171.52573722908, -39281.581554601384, -3003.9403443265373, -40063.02089250337, 0.01, 0.78, 0.652, 192.0, 0.0, 80.0, 24.0, 96.0, 20.0, 96.0, 0.0, 0.0, 0.0, 1.6541563317416856E9, 0.0, 2022-06-02 09:52:11.741
79.0, 26437.062196381357, 3083.13257493169, -78041.09341396016, -50470.93188416146, -34149.531620685055, -39261.84496424734, -2989.4787656639537, -40039.50685733639, 0.01, 0.78, 0.652, 192.0, 0.0, 0.0, 0.0, 0.0, 0.0, 0.0, 0.0, 0.0, 0.0, 1.654156331741712E9, 0.0, 2022-06-02 09:52:11.741
80.0, 26424.09818459728, 3077.5446388178634, -78029.58226556567, -50456.13502933205, -34143.94368457123, -39254.89357172175, -2986.6177423736744, -40036.534075323834, 0.01, 0.78, 0.652, 192.0, 0.0, 0.0, 0.0, 0.0, 0.0, 0.0, 0.0, 0.0, 0.0, 1.6541563317417357E9, 0.0, 2022-06-02 09:52:11.741
81.0, 26398.281919751396, 3048.755591959428, -78053.7668530663, -50475.5139917748, -34167.05538833802, -39271.657380063225, -3008.9024315956153, -40054.59428484372, 0.01, 0.78, 0.652, 192.0, 0.0, 0.0, 0.0, 0.0, 0.0, 0.0, 0.0, 0.0, 0.0, 1.6541563317417572E9, 0.0, 2022-06-02 09:52:11.741
82.0, 26399.444210463073, 3041.2230540779897, -78080.70070513496, -50502.023160698795, -34184.80267343553, -39285.78368255898, -3005.1696902715794, -40065.41252916009, 0.01, 0.78, 0.652, 192.0, 0.0, 0.0, 0.0, 0.0, 0.0, 0.0, 0.0, 0.0, 0.0, 1.6541563317417803E9, 0.0, 2022-06-02 09:52:11.741
83.0, 26402.640509920184, 3034.048144107836, -78096.34692625367, -50519.368114396115, -34200.359487576425, -39309.70004912616, -3014.6021264317187, -40072.609790874696, 0.01, 0.78, 0.652, 192.0, 0.0, 0.0, 0.0, 0.0, 0.0, 0.0, 0.0, 0.0, 0.0, 1.6541563317418015E9, 0.0, 2022-06-02 09:52:11.741
84.0, 26412.676443180615, 3049.5155512709084, -78064.09335900466, -50490.4673088154, -34171.32457152898, -39286.25306919254, -2989.411710430588, -40050.39215688612, 0.01, 0.78, 0.652, 192.0, 0.0, 0.0, 0.0, 0.0, 0.0, 0.0, 0.0, 0.0, 0.0, 1.6541563317418237E9, 0.0, 2022-06-02 09:52:11.741
85.0, 26388.156579513143, 3042.5418070008527, -78059.51125139133, -50484.09706164564, -34164.88726912585, -39274.20547893113, -2973.0055300003924, -40042.345528882215, 0.01, 0.78, 0.652, 192.0, 0.0, 0.0, 0.0, 0.0, 0.0, 0.0, 0.0, 0.0, 0.0, 1.6541563317418475E9, 0.0, 2022-06-02 09:52:11.741
86.0, 26387.575434157305, 3053.8964931841488, -78050.90582977603, -50478.41971855399, -34159.63460917886, -39263.34253112585, -2981.0298062598476, -40040.71385153697, 0.01, 0.78, 0.652, 192.0, 0.0, 0.0, 0.0, 0.0, 0.0, 0.0, 0.0, 0.0, 0.0, 1.654156331741878E9, 0.0, 2022-06-02 09:52:11.741
87.0, 26398.483085451495, 3050.3872693046656, -78068.20607998445, -50491.49548906035, -34167.86005113841, -39266.87410674979, -2981.186268471035, -40040.46798234797, 0.01, 0.78, 0.652, 192.0, 0.0, 0.0, 0.0, 0.0, 0.0, 0.0, 0.0, 0.0, 0.0, 1.6541563317419066E9, 0.0, 2022-06-02 09:52:11.741
88.0, 26411.51415246894, 3046.721583213995, -78082.22062375792, -50498.20101239694, -34181.53931874506, -39274.13842369776, -2985.8354313177388, -40026.945176952504, 0.014, 0.784, 0.648, 192.0, 0.0, 112.0, 24.0, 128.0, 20.0, 64.0, 0.0, 0.0, 0.0, 1.654156331741936E9, 0.0, 2022-06-02 09:52:11.741
89.0, 26412.519980969428, 3048.755591959428, -78068.69781836246, -50486.913381447004, -34177.60541172092, -39270.38333062927, -2989.4564139194986, -40021.714868749965, 0.014, 0.784, 0.648, 192.0, 0.0, 0.0, 0.0, 0.0, 0.0, 0.0, 0.0, 0.0, 0.0, 1.6541563317419746E9, 0.0, 2022-06-02 09:52:11.741
90.0, 26407.26732102243, 3054.3211763287995, -78050.43644314248, -50472.116526617596, -34164.82021389249, -39262.33670262536, -3000.140547769135, -40028.24157813091, 0.014, 0.784, 0.648, 192.0, 0.0, 0.0, 0.0, 0.0, 0.0, 0.0, 0.0, 0.0, 0.0, 1.6541563317420027E9, 0.0, 2022-06-02 09:52:11.742
91.0, 26410.50832396845, 3066.435821823576, -78039.84171627066, -50461.65591021251, -34152.88438235335, -39250.44557457514, -2991.669236620574, -40033.27072063336, 0.014, 0.784, 0.648, 192.0, 0.0, 0.0, 0.0, 0.0, 0.0, 0.0, 0.0, 0.0, 0.0, 1.6541563317420251E9, 0.0, 2022-06-02 09:52:11.742
92.0, 26406.194437288577, 3052.980071661481, -78069.63659162958, -50493.30598036123, -34172.464510496204, -39267.29878989444, -2994.954943055504, -40050.861543519684, 0.014, 0.784, 0.648, 192.0, 0.0, 0.0, 0.0, 0.0, 0.0, 0.0, 0.0, 0.0, 0.0, 1.6541563317420497E9, 0.0, 2022-06-02 09:52:11.742
93.0, 26404.1827802876, 3034.69634469704, -78097.71038266545, -50511.50030034784, -34201.76764747711, -39296.78074083099, -3028.3931527606433, -40088.85950909371, 0.014, 0.784, 0.648, 192.0, 0.0, 0.0, 0.0, 0.0, 0.0, 0.0, 0.0, 0.0, 0.0, 1.6541563317420664E9, 0.0, 2022-06-02 09:52:11.742
94.0, 26412.587036202796, 3051.974243160992, -78067.35671369515, -50482.107756389116, -34176.33136228697, -39276.35124639884, -3013.6410014201406, -40062.84207854773, 0.014, 0.784, 0.648, 192.0, 0.0, 0.0, 0.0, 0.0, 0.0, 0.0, 0.0, 0.0, 0.0, 1.6541563317420828E9, 0.0, 2022-06-02 09:52:11.742
95.0, 26423.874667152726, 3084.3395691322767, -78019.59103579415, -50439.46062796839, -34130.71145185369, -39233.4582487891, -2978.1911347140235, -40024.53118855133, 0.014, 0.784, 0.648, 192.0, 0.0, 0.0, 0.0, 0.0, 0.0, 0.0, 0.0, 0.0, 0.0, 1.6541563317420976E9, 0.0, 2022-06-02 09:52:11.742
96.0, 26399.51126569644, 3071.152039903646, -78039.57349533719, -50455.75504967631, -34149.822193362976, -39235.648719745725, -2996.273695978367, -40034.74593576741, 0.014, 0.784, 0.648, 192.0, 0.0, 0.0, 0.0, 0.0, 0.0, 0.0, 0.0, 0.0, 0.0, 1.654156331742123E9, 0.0, 2022-06-02 09:52:11.742
97.0, 26393.565701671327, 3051.370746060699, -78071.87176607511, -50492.07663441618, -34177.06896985399, -39259.766252013, -2995.893716322627, -40048.87223826316, 0.014, 0.784, 0.648, 192.0, 0.0, 0.0, 0.0, 0.0, 0.0, 0.0, 0.0, 0.0, 0.0, 1.654156331742137E9, 0.0, 2022-06-02 09:52:11.742
98.0, 26395.353841227752, 3033.8693301521935, -78094.7823041418, -50515.41185562752, -34187.48488277017, -39295.774912330504, -3000.431120447054, -40079.44942467802, 0.016, 0.788, 0.646, 192.0, 0.0, 128.0, 24.0, 160.0, 20.0, 48.0, 0.0, 0.0, 0.0, 1.6541563317421527E9, 0.0, 2022-06-02 09:52:11.742
99.0, 26394.45977144954, 3034.4504755080316, -78083.51702493633, -50510.87445150309, -34186.322592058496, -39302.771008345015, -3018.3125160113, -40095.27445975238, 0.016, 0.788, 0.646, 192.0, 0.0, 0.0, 0.0, 0.0, 0.0, 0.0, 0.0, 0.0, 0.0, 1.6541563317421672E9, 0.0, 2022-06-02 09:52:11.742
100.0, 26404.1827802876, 3064.4241648225984, -78044.96026575092, -50471.73654696185, -34163.70262666972, -39256.838173489356, -3002.375722214666, -40035.26002588988, 0.016, 0.788, 0.646, 192.0, 0.0, 0.0, 0.0, 0.0, 0.0, 0.0, 0.0, 0.0, 0.0, 1.6541563317421827E9, 0.0, 2022-06-02 09:52:11.742
101.0, 26410.396565246174, 3080.18214466359, -78028.68819578746, -50453.2069508084, -34140.881495580856, -39232.00538539951, -2970.3009689213004, -40004.81694994175, 0.016, 0.788, 0.646, 192.0, 0.0, 0.0, 0.0, 0.0, 0.0, 0.0, 0.0, 0.0, 0.0, 1.6541563317421985E9, 0.0, 2022-06-02 09:52:11.742
102.0, 26399.80183837436, 3054.075307139791, -78071.44708293046, -50497.30694261872, -34173.179766318775, -39275.61363883181, -2998.3300564682554, -40071.44750016302, 0.016, 0.788, 0.646, 192.0, 0.0, 0.0, 0.0, 0.0, 0.0, 0.0, 0.0, 0.0, 0.0, 1.6541563317422125E9, 0.0, 2022-06-02 09:52:11.742
103.0, 26382.501588165953, 3028.16963531609, -78113.33425203971, -50537.45067566045, -34216.162170906326, -39314.01393580603, -3046.2969000693442, -40102.27055576689, 0.016, 0.788, 0.646, 192.0, 0.0, 0.0, 0.0, 0.0, 0.0, 0.0, 0.0, 0.0, 0.0, 1.6541563317422268E9, 0.0, 2022-06-02 09:52:11.742
104.0, 26396.091448794778, 3052.4883332834643, -78072.00587654185, -50496.25641062933, -34185.62968798038, -39277.53588885497, -3005.4602629494984, -40053.811973787786, 0.016, 0.788, 0.646, 192.0, 0.0, 0.0, 0.0, 0.0, 0.0, 0.0, 0.0, 0.0, 0.0, 1.6541563317422447E9, 0.0, 2022-06-02 09:52:11.742
105.0, 26399.17598952961, 3070.0344526808803, -78033.22559991188, -50461.611206723595, -34152.59380967543, -39244.54471403894, -2955.9064454920826, -40012.01421165636, 0.016, 0.788, 0.646, 192.0, 0.0, 0.0, 0.0, 0.0, 0.0, 0.0, 0.0, 0.0, 0.0, 1.654156332218737E9, 0.0, 2022-06-02 09:52:12.218
106.0, 26395.9796900725, 3071.822592237305, -78029.15758242102, -50455.64329095403, -34152.392643975334, -39232.20655109961, -2966.3223584082557, -40006.64979298709, 0.016, 0.788, 0.646, 192.0, 0.0, 0.0, 0.0, 0.0, 0.0, 0.0, 0.0, 0.0, 0.0, 1.6541563322190025E9, 0.0, 2022-06-02 09:52:12.219
107.0, 26403.17695178711, 3070.526191058897, -78054.01272225533, -50476.922151675484, -34171.816309907, -39247.36103384031, -3003.5380129263417, -40048.71577605198, 0.016, 0.788, 0.646, 192.0, 0.0, 0.0, 0.0, 0.0, 0.0, 0.0, 0.0, 0.0, 0.0, 1.6541563322190197E9, 0.0, 2022-06-02 09:52:12.219
108.0, 26390.771733614416, 3043.8382081792606, -78092.10009480716, -50524.06198073173, -34206.41681032381, -39296.42311291971, -3054.567045517808, -40103.298736011835, 0.016, 0.784, 0.652, 192.0, 0.0, 128.0, 24.0, 128.0, 20.0, 96.0, 0.0, 0.0, 0.0, 1.6541563322190251E9, 0.0, 2022-06-02 09:52:12.219
109.0, 26393.27512899341, 3047.749763458939, -78068.31783870672, -50493.39538733905, -34190.435313038266, -39277.06650222141, -3035.3892487751546, -40066.954799527506, 0.016, 0.784, 0.652, 192.0, 0.0, 0.0, 0.0, 0.0, 0.0, 0.0, 0.0, 0.0, 0.0, 1.654156332219031E9, 0.0, 2022-06-02 09:52:12.219
110.0, 26391.285823736886, 3049.8731791821933, -78046.94957100744, -50470.59660799463, -34167.8153476495, -39259.02864444598, -2989.8587453196938, -40037.986938713424, 0.016, 0.784, 0.652, 192.0, 0.0, 0.0, 0.0, 0.0, 0.0, 0.0, 0.0, 0.0, 0.0, 1.6541563322190368E9, 0.0, 2022-06-02 09:52:12.219
111.0, 26401.411163975143, 3069.6321212806847, -78025.1119166746, -50451.977604863365, -34136.92523681226, -39237.325100579874, -2956.532294336831, -40027.079287419234, 0.016, 0.784, 0.652, 192.0, 0.0, 0.0, 0.0, 0.0, 0.0, 0.0, 0.0, 0.0, 0.0, 1.654156332219042E9, 0.0, 2022-06-02 09:52:12.219
112.0, 26391.88932083718, 3055.79639146285, -78063.86984156011, -50487.13689889156, -34168.19532730524, -39260.70502528013, -2985.768376084373, -40070.240505962436, 0.016, 0.784, 0.652, 192.0, 0.0, 0.0, 0.0, 0.0, 0.0, 0.0, 0.0, 0.0, 0.0, 1.6541563322190473E9, 0.0, 2022-06-02 09:52:12.219
113.0, 26391.84461734827, 3045.715754713506, -78091.29543200678, -50514.65189631604, -34198.92897593129, -39283.95083951364, -3032.9305568850705, -40091.60877366171, 0.016, 0.784, 0.652, 192.0, 0.0, 0.0, 0.0, 0.0, 0.0, 0.0, 0.0, 0.0, 0.0, 1.6541563322190528E9, 0.0, 2022-06-02 09:52:12.219
114.0, 26396.56083542834, 3063.284225855378, -78062.10405374815, -50488.65681751452, -34176.309010542514, -39265.62240906029, -3012.791635130839, -40051.73326155344, 0.016, 0.784, 0.652, 192.0, 0.0, 0.0, 0.0, 0.0, 0.0, 0.0, 0.0, 0.0, 0.0, 1.654156332219058E9, 0.0, 2022-06-02 09:52:12.219
115.0, 26396.471428450517, 3069.766231747417, -78030.923370233, -50457.923168888476, -34141.75321361461, -39238.68855699165, -2960.466201360965, -40005.39809529759, 0.016, 0.784, 0.652, 192.0, 0.0, 0.0, 0.0, 0.0, 0.0, 0.0, 0.0, 0.0, 0.0, 1.6541563322190635E9, 0.0, 2022-06-02 09:52:12.219
116.0, 26391.576396414806, 3071.040281181369, -78032.75621327832, -50453.8104479087, -34139.89801882482, -39234.82170520088, -2972.2008672000015, -40023.27949086184, 0.016, 0.784, 0.652, 192.0, 0.0, 0.0, 0.0, 0.0, 0.0, 0.0, 0.0, 0.0, 0.0, 1.6541563322190692E9, 0.0, 2022-06-02 09:52:12.219
117.0, 26378.2771084639, 3050.3202140712997, -78073.83871958718, -50493.39538733905, -34178.85710941042, -39266.695292794146, -3015.2503270209227, -40074.9567240425, 0.01, 0.786, 0.65, 192.0, 0.0, 80.0, 24.0, 144.0, 20.0, 80.0, 0.0, 0.0, 0.0, 1.6541563322190745E9, 0.0, 2022-06-02 09:52:12.219
118.0, 26376.287803207375, 3036.4621325090093, -78092.21185352944, -50517.87054751761, -34197.40905730832, -39285.60486860334, -3017.4184462330877, -40079.60588688921, 0.01, 0.786, 0.65, 192.0, 0.0, 0.0, 0.0, 0.0, 0.0, 0.0, 0.0, 0.0, 0.0, 1.65415633221908E9, 0.0, 2022-06-02 09:52:12.219
119.0, 26379.774675342403, 3042.139475600657, -78070.93299280798, -50496.68109377398, -34180.60054547794, -39262.73903402556, -2995.625495389163, -40034.857694489685, 0.01, 0.786, 0.65, 192.0, 0.0, 0.0, 0.0, 0.0, 0.0, 0.0, 0.0, 0.0, 0.0, 1.6541563322190857E9, 0.0, 2022-06-02 09:52:12.219
120.0, 26385.608480645238, 3056.5787025187856, -78046.5695913517, -50476.720985975386, -34165.066083081496, -39242.86833320479, -3000.207603002501, -40024.35237459569, 0.01, 0.786, 0.65, 192.0, 0.0, 0.0, 0.0, 0.0, 0.0, 0.0, 0.0, 0.0, 0.0, 1.6541563322190912E9, 0.0, 2022-06-02 09:52:12.219
121.0, 26413.972844359025, 3090.8662785132265, -78008.75043973333, -50428.79884586321, -34127.716318096675, -39210.19008281113, -2977.721748080462, -40008.68380173252, 0.01, 0.786, 0.65, 192.0, 0.0, 0.0, 0.0, 0.0, 0.0, 0.0, 0.0, 0.0, 0.0, 1.6541563322190964E9, 0.0, 2022-06-02 09:52:12.219
122.0, 26391.911672581635, 3061.8090107213275, -78057.90192579055, -50474.4634597854, -34164.52964121457, -39244.50001055003, -2983.2649807053785, -40038.36691836917, 0.01, 0.786, 0.65, 192.0, 0.0, 0.0, 0.0, 0.0, 0.0, 0.0, 0.0, 0.0, 0.0, 1.654156332219102E9, 0.0, 2022-06-02 09:52:12.219
123.0, 26384.40148644465, 3043.100600612235, -78088.50146394985, -50505.241811900356, -34195.95619391873, -39279.36873190031, -2987.9588470409926, -40060.56220061328, 0.01, 0.786, 0.65, 192.0, 0.0, 0.0, 0.0, 0.0, 0.0, 0.0, 0.0, 0.0, 0.0, 1.6541563322191076E9, 0.0, 2022-06-02 09:52:12.219
124.0, 26383.909748066635, 3043.6146907347074, -78075.38098995459, -50495.027064684284, -34187.820158937, -39279.65930457822, -2996.6983791230177, -40065.971322771475, 0.01, 0.786, 0.65, 192.0, 0.0, 0.0, 0.0, 0.0, 0.0, 0.0, 0.0, 0.0, 0.0, 1.6541563322191129E9, 0.0, 2022-06-02 09:52:12.219
125.0, 26389.60944290274, 3060.691423498562, -78044.91556226202, -50467.355605048615, -34159.27698126757, -39254.20066764363, -2988.048254018814, -40038.2998631358, 0.01, 0.786, 0.65, 192.0, 0.0, 0.0, 0.0, 0.0, 0.0, 0.0, 0.0, 0.0, 0.0, 1.6541563322191188E9, 0.0, 2022-06-02 09:52:12.219
126.0, 26395.17502727211, 3079.824516752305, -78019.59103579415, -50446.724944916365, -34132.834867576945, -39226.32804230786, -2942.093067418703, -39991.9870486244, 0.01, 0.786, 0.65, 192.0, 0.0, 0.0, 0.0, 0.0, 0.0, 0.0, 0.0, 0.0, 0.0, 1.654156332219124E9, 0.0, 2022-06-02 09:52:12.219
127.0, 26389.65414639165, 3063.2171706220115, -78048.84946928614, -50476.69863423093, -34159.58990568994, -39251.518458308994, -2951.793724512306, -40032.06372643277, 0.006, 0.784, 0.656, 192.0, 0.0, 48.0, 24.0, 128.0, 20.0, 128.0, 0.0, 0.0, 0.0, 1.6541563322191293E9, 0.0, 2022-06-02 09:52:12.219
128.0, 26410.396565246174, 3062.5019147994417, -78064.38393168259, -50491.830765227176, -34185.78615019157, -39277.044150476955, -3010.265888007389, -40084.344456713734, 0.006, 0.784, 0.656, 192.0, 0.0, 0.0, 0.0, 0.0, 0.0, 0.0, 0.0, 0.0, 0.0, 1.65415633221914E9, 0.0, 2022-06-02 09:52:12.219
129.0, 26424.254646808466, 3075.08594692778, -78043.28388491677, -50471.17775335047, -34176.040789609055, -39264.795394515444, -3017.686667166551, -40076.83427057675, 0.006, 0.784, 0.656, 192.0, 0.0, 0.0, 0.0, 0.0, 0.0, 0.0, 0.0, 0.0, 0.0, 1.6541563322191453E9, 0.0, 2022-06-02 09:52:12.219
130.0, 26402.238178519987, 3060.780830476383, -78026.47537308639, -50457.54318923273, -34146.536486928046, -39239.224998858575, -2963.5283903513423, -40025.91699670756, 0.006, 0.784, 0.656, 192.0, 0.0, 0.0, 0.0, 0.0, 0.0, 0.0, 0.0, 0.0, 0.0, 1.6541563322191513E9, 0.0, 2022-06-02 09:52:12.219
131.0, 26397.544312184375, 3070.4144323366204, -78009.08571590016, -50431.92809008695, -34125.905826795795, -39202.14345480722, -2946.339898865211, -39995.02688587033, 0.006, 0.784, 0.656, 192.0, 0.0, 0.0, 0.0, 0.0, 0.0, 0.0, 0.0, 0.0, 0.0, 1.654156332219158E9, 0.0, 2022-06-02 09:52:12.219
132.0, 26385.8767015787, 3051.1248768716905, -78052.917486777, -50468.58495099365, -34165.49076622615, -39241.48252504856, -2989.076434263758, -40046.704119051, 0.006, 0.784, 0.656, 192.0, 0.0, 0.0, 0.0, 0.0, 0.0, 0.0, 0.0, 0.0, 0.0, 1.6541563322191632E9, 0.0, 2022-06-02 09:52:12.219
133.0, 26365.827186802293, 3012.858690364205, -78109.62386246012, -50521.26801267482, -34220.18548490828, -39288.55529887143, -3044.9557954020256, -40081.08110202326, 0.006, 0.784, 0.656, 192.0, 0.0, 0.0, 0.0, 0.0, 0.0, 0.0, 0.0, 0.0, 0.0, 1.654156332219169E9, 0.0, 2022-06-02 09:52:12.219
134.0, 26367.481215891985, 3011.271716507878, -78092.32361225171, -50509.019256713305, -34206.70738300173, -39274.25018242004, -3015.2726787653783, -40044.558351583284, 0.006, 0.784, 0.656, 192.0, 0.0, 0.0, 0.0, 0.0, 0.0, 0.0, 0.0, 0.0, 0.0, 1.6541563322191746E9, 0.0, 2022-06-02 09:52:12.219
135.0, 26391.55404467035, 3049.2696820819, -78040.35580639313, -50460.31480554519, -34152.19147827524, -39232.497123777524, -2959.2592071603785, -40007.05212438728, 0.006, 0.784, 0.656, 192.0, 0.0, 0.0, 0.0, 0.0, 0.0, 0.0, 0.0, 0.0, 0.0, 1.65415633221918E9, 0.0, 2022-06-02 09:52:12.219
136.0, 26405.009794832444, 3073.99071144947, -78015.65712877002, -50429.33528773014, -34134.9582833002, -39215.42039101367, -2964.9365502520263, -40017.646851259095, 0.006, 0.784, 0.656, 192.0, 0.0, 0.0, 0.0, 0.0, 0.0, 0.0, 0.0, 0.0, 0.0, 1.6541563322191856E9, 0.0, 2022-06-02 09:52:12.219
137.0, 26397.812533117838, 3055.84109495176, -78055.2197164559, -50469.0096341383, -34173.20211806323, -39240.879027948264, -3017.5078532109087, -40058.17056395657, 0.01, 0.78, 0.652, 192.0, 0.0, 80.0, 24.0, 96.0, 20.0, 96.0, 0.0, 0.0, 0.0, 1.6541563322191913E9, 0.0, 2022-06-02 09:52:12.219
138.0, 26387.106047523743, 3032.2153010625007, -78089.06025756124, -50507.700503790446, -34206.573272535, -39273.15494694173, -3032.2600045514114, -40064.4067006596, 0.01, 0.78, 0.652, 192.0, 0.0, 0.0, 0.0, 0.0, 0.0, 0.0, 0.0, 0.0, 0.0, 1.6541563322191968E9, 0.0, 2022-06-02 09:52:12.219
139.0, 26399.84654186327, 3051.303690827333, -78055.0185507558, -50480.90076218853, -34171.838661651454, -39255.362958355305, -2978.6158178586743, -40028.37568859765, 0.01, 0.78, 0.652, 192.0, 0.0, 0.0, 0.0, 0.0, 0.0, 0.0, 0.0, 0.0, 0.0, 1.6541563322192025E9, 0.0, 2022-06-02 09:52:12.219
140.0, 26412.140001313688, 3074.7730225054056, -78017.35586134862, -50449.76478216229, -34135.51707691158, -39231.13366736575, -2976.7829748133395, -40021.93838619452, 0.01, 0.78, 0.652, 192.0, 0.0, 0.0, 0.0, 0.0, 0.0, 0.0, 0.0, 0.0, 0.0, 1.6541563322192082E9, 0.0, 2022-06-02 09:52:12.219
141.0, 26404.719222154527, 3065.921731701104, -78020.57451255019, -50453.05048859722, -34141.44028919224, -39228.89849292022, -2979.688701592529, -40023.30184260629, 0.01, 0.78, 0.652, 192.0, 0.0, 0.0, 0.0, 0.0, 0.0, 0.0, 0.0, 0.0, 0.0, 1.6541563322192147E9, 0.0, 2022-06-02 09:52:12.219
142.0, 26392.51516968193, 3046.9003971696375, -78053.02924549929, -50478.97851216537, -34169.22350755018, -39250.5126298085, -2970.4574311324873, -40039.260988147376, 0.01, 0.78, 0.652, 192.0, 0.0, 0.0, 0.0, 0.0, 0.0, 0.0, 0.0, 0.0, 0.0, 1.654156332219221E9, 0.0, 2022-06-02 09:52:12.219
143.0, 26389.65414639165, 3032.014135362403, -78081.99710631337, -50507.834614257175, -34202.70642074423, -39287.54947037095, -3018.8713096226825, -40088.88186083816, 0.01, 0.78, 0.652, 192.0, 0.0, 0.0, 0.0, 0.0, 0.0, 0.0, 0.0, 0.0, 0.0, 1.6541563322192264E9, 0.0, 2022-06-02 09:52:12.219
144.0, 26394.348012727263, 3037.1997400760342, -78067.96021079543, -50495.47409957339, -34195.84443519646, -39287.28124943748, -3015.5185479543866, -40083.875070080176, 0.01, 0.78, 0.652, 192.0, 0.0, 0.0, 0.0, 0.0, 0.0, 0.0, 0.0, 0.0, 0.0, 1.6541563322192323E9, 0.0, 2022-06-02 09:52:12.219
145.0, 26389.54238766937, 3043.4805802679757, -78050.59290535365, -50477.10096563113, -34182.94747864574, -39265.577705571384, -3013.0598560643025, -40060.4057384021, 0.01, 0.78, 0.652, 192.0, 0.0, 0.0, 0.0, 0.0, 0.0, 0.0, 0.0, 0.0, 0.0, 1.6541563322192383E9, 0.0, 2022-06-02 09:52:12.219
146.0, 26399.779486629905, 3066.4581735680313, -78025.1119166746, -50455.01744210928, -34155.901867854824, -39241.52722853747, -2983.7120155944845, -40044.96068298348, 0.01, 0.78, 0.652, 192.0, 0.0, 0.0, 0.0, 0.0, 0.0, 0.0, 0.0, 0.0, 0.0, 1.654156332219244E9, 0.0, 2022-06-02 09:52:12.219
147.0, 26401.589977930784, 3067.0169671794138, -78044.33441690617, -50467.489715515345, -34172.0174756071, -39247.472792562585, -2988.696454608018, -40055.823630788764, 0.008, 0.776, 0.652, 192.0, 0.0, 64.0, 24.0, 64.0, 20.0, 96.0, 0.0, 0.0, 0.0, 1.6541563322192504E9, 0.0, 2022-06-02 09:52:12.219
148.0, 26399.824190118816, 3056.2881298408665, -78071.44708293046, -50492.05428267173, -34201.901757943844, -39278.76523480001, -3017.9101846111043, -40083.18216600206, 0.008, 0.776, 0.652, 192.0, 0.0, 0.0, 0.0, 0.0, 0.0, 0.0, 0.0, 0.0, 0.0, 1.6541563322192564E9, 0.0, 2022-06-02 09:52:12.219
149.0, 26402.215826775533, 3063.7312607444837, -78057.45489090144, -50479.447898798935, -34194.637440995866, -39278.54171735546, -3028.236690549456, -40101.08591331076, 0.008, 0.776, 0.652, 192.0, 0.0, 0.0, 0.0, 0.0, 0.0, 0.0, 0.0, 0.0, 0.0, 1.654156332219262E9, 0.0, 2022-06-02 09:52:12.219
150.0, 26406.820286133327, 3077.432880095587, -78021.80385849523, -50446.36731700508, -34161.46745222419, -39247.249275118025, -3001.794576858828, -40068.56412512829, 0.008, 0.776, 0.652, 192.0, 0.0, 0.0, 0.0, 0.0, 0.0, 0.0, 0.0, 0.0, 0.0, 1.6541563322192717E9, 0.0, 2022-06-02 09:52:12.219
151.0, 26411.290635024387, 3085.948894733059, -78003.92246293098, -50425.6025464061, -34142.31200722599, -39216.6050334698, -2985.3883964286324, -40033.62834854464, 0.008, 0.776, 0.652, 192.0, 0.0, 0.0, 0.0, 0.0, 0.0, 0.0, 0.0, 0.0, 0.0, 1.6541563322192776E9, 0.0, 2022-06-02 09:52:12.219
152.0, 26400.27122500792, 3064.5135718004194, -78045.58611459567, -50459.33132878916, -34172.57626921848, -39238.28622559145, -3009.528280440364, -40060.159869213094, 0.008, 0.776, 0.652, 192.0, 0.0, 0.0, 0.0, 0.0, 0.0, 0.0, 0.0, 0.0, 0.0, 1.6541563322192829E9, 0.0, 2022-06-02 09:52:12.219
153.0, 26399.22069301852, 3049.3814408041767, -78072.98935329787, -50486.60045702463, -34194.12335087339, -39259.05099619043, -3024.1016178252244, -40070.19580247352, 0.008, 0.776, 0.652, 192.0, 0.0, 0.0, 0.0, 0.0, 0.0, 0.0, 0.0, 0.0, 0.0, 1.6541563322192883E9, 0.0, 2022-06-02 09:52:12.219
