%OpenBCI Raw EEG Data
%Number of channels = 8
%Sample Rate = 250 Hz
%Board = OpenBCI_GUI$BoardCytonSerial
Sample Index, EXG Channel 0, EXG Channel 1, EXG Channel 2, EXG Channel 3, EXG Channel 4, EXG Channel 5, EXG Channel 6, EXG Channel 7, Accel Channel 0, Accel Channel 1, Accel Channel 2, Other, Other, Other, Other, Other, Other, Other, Analog Channel 0, Analog Channel 1, Analog Channel 2, Timestamp, Other, Timestamp (Formatted)
0.0, 0.0, 0.0, 0.0, 0.0, 0.0, 0.0, 0.0, 0.0, -0.046, 0.92, 0.508, 192.0, 254.0, 144.0, 28.0, 192.0, 15.0, 224.0, 0.0, 0.0, 0.0, 1.6541559104680035E9, 0.0, 2022-06-02 09:45:10.468
1.0, 27846.719663944205, -3477.529105845583, -60480.51243788152, -35469.96092438232, -11092.366110368504, -34712.84028444771, -4494.108795417404, -26311.154819864612, -0.046, 0.92, 0.508, 192.0, 0.0, 0.0, 0.0, 0.0, 0.0, 0.0, 0.0, 0.0, 0.0, 1.6541559109451685E9, 0.0, 2022-06-02 09:45:10.945
2.0, 27850.65357096834, -3463.6710242832933, -60465.91674875221, -35454.02413058569, -11082.061956174608, -34693.90835689406, -4477.613208009388, -26300.91772090408, -0.046, 0.92, 0.508, 192.0, 0.0, 0.0, 0.0, 0.0, 0.0, 0.0, 0.0, 0.0, 0.0, 1.6541559109451776E9, 0.0, 2022-06-02 09:45:10.945
3.0, 27855.28038207059, -3447.957747931212, -60453.73504802407, -35438.310854233605, -11069.85790370201, -34672.78595838379, -4491.515993060589, -26282.67869742855, -0.046, 0.92, 0.508, 192.0, 0.0, 0.0, 0.0, 0.0, 0.0, 0.0, 0.0, 0.0, 0.0, 1.6541559109451835E9, 0.0, 2022-06-02 09:45:10.945
4.0, 27863.103492629947, -3445.029669407567, -60455.567891069404, -35436.47801118827, -11059.799618697121, -34669.27673450431, -4493.393539594834, -26282.522235217362, -0.046, 0.92, 0.508, 192.0, 0.0, 0.0, 0.0, 0.0, 0.0, 0.0, 0.0, 0.0, 0.0, 1.6541559109451892E9, 0.0, 2022-06-02 09:45:10.945
5.0, 27856.3756175489, -3461.860532982413, -60481.60767335984, -35454.471165474795, -11070.595511269035, -34685.593507956684, -4503.250658899625, -26300.20246508151, -0.046, 0.92, 0.508, 192.0, 0.0, 0.0, 0.0, 0.0, 0.0, 0.0, 0.0, 0.0, 0.0, 1.6541559109451945E9, 0.0, 2022-06-02 09:45:10.945
6.0, 27847.434919766776, -3473.952826732734, -60501.858353836345, -35465.222354557794, -11084.408889342414, -34697.8869674071, -4490.890144215839, -26310.037232641847, -0.046, 0.92, 0.508, 192.0, 0.0, 0.0, 0.0, 0.0, 0.0, 0.0, 0.0, 0.0, 0.0, 1.6541559109452016E9, 0.0, 2022-06-02 09:45:10.945
7.0, 27835.052053338535, -3476.0315389670777, -60506.97690331661, -35462.89777313444, -11089.90741847842, -34698.98220288542, -4492.968856450183, -26319.380261824164, -0.046, 0.92, 0.508, 192.0, 0.0, 0.0, 0.0, 0.0, 0.0, 0.0, 0.0, 0.0, 0.0, 1.654155910945207E9, 0.0, 2022-06-02 09:45:10.945
8.0, 27829.821745135992, -3476.4562221117285, -60514.91177259824, -35460.08145333308, -11096.590590070557, -34693.46132200496, -4538.23113897218, -26313.16647686559, -0.05, 0.868, 0.508, 192.0, 254.0, 112.0, 27.0, 32.0, 15.0, 224.0, 0.0, 0.0, 0.0, 1.6541559109452126E9, 0.0, 2022-06-02 09:45:10.945
9.0, 27836.147288816846, -3473.8410680104575, -60517.01283657704, -35454.895848619446, -11084.990034698252, -34687.269888790834, -4514.404179382823, -26299.621319725673, -0.05, 0.868, 0.508, 192.0, 0.0, 0.0, 0.0, 0.0, 0.0, 0.0, 0.0, 0.0, 0.0, 1.654155910945218E9, 0.0, 2022-06-02 09:45:10.945
10.0, 27842.13755633087, -3477.6855680567705, -60524.07598782492, -35459.67912193288, -11072.540113036646, -34693.39426677159, -4490.5101645601, -26305.410421539596, -0.05, 0.868, 0.508, 192.0, 0.0, 0.0, 0.0, 0.0, 0.0, 0.0, 0.0, 0.0, 0.0, 1.6541559109452236E9, 0.0, 2022-06-02 09:45:10.945
11.0, 27828.74886140214, -3491.2977804300526, -60547.008877636064, -35476.554688996635, -11093.10371793553, -34712.61676700315, -4525.825920799484, -26351.455015117528, -0.05, 0.868, 0.508, 192.0, 0.0, 0.0, 0.0, 0.0, 0.0, 0.0, 0.0, 0.0, 0.0, 1.6541559109452293E9, 0.0, 2022-06-02 09:45:10.945
12.0, 27821.305730498523, -3495.768129321114, -60555.23431959562, -35480.66740997641, -11105.084252963574, -34719.05406940628, -4530.519787135099, -26340.569715567795, -0.05, 0.868, 0.508, 192.0, 0.0, 0.0, 0.0, 0.0, 0.0, 0.0, 0.0, 0.0, 0.0, 1.6541559109452345E9, 0.0, 2022-06-02 09:45:10.945
13.0, 27825.641968922853, -3487.967370506212, -60548.349982303385, -35469.558592982125, -11094.53422958067, -34708.68285997902, -4526.474121388688, -26307.60089249622, -0.05, 0.868, 0.508, 192.0, 0.0, 0.0, 0.0, 0.0, 0.0, 0.0, 0.0, 0.0, 0.0, 1.65415591094524E9, 0.0, 2022-06-02 09:45:10.945
14.0, 27838.583628962475, -3477.417347123307, -60543.231432823115, -35458.62858994348, -11081.234941629762, -34700.32330755273, -4520.170929452292, -26313.837029199247, -0.05, 0.868, 0.508, 192.0, 0.0, 0.0, 0.0, 0.0, 0.0, 0.0, 0.0, 0.0, 0.0, 1.6541559109452455E9, 0.0, 2022-06-02 09:45:10.945
15.0, 27843.03162610908, -3485.419271638307, -60554.429656795226, -35470.609124971525, -11074.328252593072, -34717.08711589422, -4515.253545672124, -26349.622172072195, -0.05, 0.868, 0.508, 192.0, 0.0, 0.0, 0.0, 0.0, 0.0, 0.0, 0.0, 0.0, 0.0, 1.6541559109452507E9, 0.0, 2022-06-02 09:45:10.945
16.0, 27834.046224838046, -3499.4561671562396, -60573.6968605157, -35491.9773926708, -11092.47786909078, -34741.38346211713, -4554.436153702278, -26391.08465803679, -0.05, 0.868, 0.508, 192.0, 0.0, 0.0, 0.0, 0.0, 0.0, 0.0, 0.0, 0.0, 0.0, 1.6541559109452565E9, 0.0, 2022-06-02 09:45:10.945
17.0, 27817.438878707755, -3504.9770480367006, -60582.14581991981, -35496.73831423978, -11114.002599001242, -34751.44174712202, -4569.009491087138, -26365.93894552457, -0.058, 0.858, 0.508, 192.0, 254.0, 48.0, 26.0, 208.0, 15.0, 224.0, 0.0, 0.0, 0.0, 1.6541559109452617E9, 0.0, 2022-06-02 09:45:10.945
18.0, 27813.37086121689, -3499.478518900695, -60565.22554936714, -35481.62853498799, -11091.136764423461, -34736.33196787023, -4487.93971394774, -26275.52613920285, -0.058, 0.858, 0.508, 192.0, 0.0, 0.0, 0.0, 0.0, 0.0, 0.0, 0.0, 0.0, 0.0, 1.6541559109452672E9, 0.0, 2022-06-02 09:45:10.945
19.0, 27831.967512603704, -3485.061643727022, -60543.656115967766, -35460.43908124436, -11068.04741240113, -34716.215397860455, -4486.3080366025015, -26303.845799427727, -0.058, 0.858, 0.508, 192.0, 0.0, 0.0, 0.0, 0.0, 0.0, 0.0, 0.0, 0.0, 0.0, 1.6541559109452727E9, 0.0, 2022-06-02 09:45:10.945
20.0, 27839.768271418605, -3486.290989672064, -60546.78536019151, -35462.58484871207, -11068.785019968154, -34722.20566537448, -4513.152481693325, -26350.87386976169, -0.058, 0.858, 0.508, 192.0, 0.0, 0.0, 0.0, 0.0, 0.0, 0.0, 0.0, 0.0, 0.0, 1.6541559109452784E9, 0.0, 2022-06-02 09:45:10.945
21.0, 27831.475774225688, -3496.796309566058, -60557.11186612986, -35476.24176457426, -11084.14066840895, -34735.90728472558, -4502.736568777153, -26356.148881453144, -0.058, 0.858, 0.508, 192.0, 0.0, 0.0, 0.0, 0.0, 0.0, 0.0, 0.0, 0.0, 0.0, 1.654155910945284E9, 0.0, 2022-06-02 09:45:10.945
22.0, 27825.865486367406, -3495.544611876561, -60547.791188692, -35470.67618020489, -11088.968645211298, -34728.173581144045, -4503.742397277641, -26339.16155566711, -0.058, 0.858, 0.508, 192.0, 0.0, 0.0, 0.0, 0.0, 0.0, 0.0, 0.0, 0.0, 0.0, 1.654155910945295E9, 0.0, 2022-06-02 09:45:10.945
23.0, 27837.063710339513, -3476.7244430451924, -60526.57938320391, -35450.73842415076, -11078.798601484134, -34705.48656052191, -4527.837577800462, -26320.74371823594, -0.058, 0.858, 0.508, 192.0, 0.0, 0.0, 0.0, 0.0, 0.0, 0.0, 0.0, 0.0, 0.0, 1.6541559109453003E9, 0.0, 2022-06-02 09:45:10.945
24.0, 27850.519460501608, -3467.5825795629717, -60519.65034242277, -35447.117441549, -11072.406002569915, -34697.0376011178, -4544.579034397488, -26310.663081486593, -0.058, 0.858, 0.508, 192.0, 0.0, 0.0, 0.0, 0.0, 0.0, 0.0, 0.0, 0.0, 0.0, 1.6541559109453056E9, 0.0, 2022-06-02 09:45:10.945
25.0, 27851.927620402294, -3476.612684322916, -60536.72707518662, -35467.50223249224, -11085.10179342053, -34712.952043169986, -4544.668441375308, -26334.132413164665, -0.058, 0.858, 0.508, 192.0, 0.0, 0.0, 0.0, 0.0, 0.0, 0.0, 0.0, 0.0, 0.0, 1.6541559109453106E9, 0.0, 2022-06-02 09:45:10.945
26.0, 27857.783777449582, -3479.9207425023014, -60537.21881356464, -35474.7218459513, -11085.705290520822, -34717.91413043906, -4509.017408969094, -26322.844782214735, -0.058, 0.858, 0.508, 192.0, 0.0, 0.0, 0.0, 0.0, 0.0, 0.0, 0.0, 0.0, 0.0, 1.6541559109453168E9, 0.0, 2022-06-02 09:45:10.945
27.0, 27854.632181481385, -3481.3289024029855, -60519.00214183357, -35463.21069755682, -11076.295206105138, -34706.20181634448, -4454.345042031413, -26301.521218004375, -0.056, 0.864, 0.518, 192.0, 254.0, 64.0, 27.0, 0.0, 16.0, 48.0, 0.0, 0.0, 0.0, 1.6541559109453225E9, 0.0, 2022-06-02 09:45:10.945
28.0, 27840.282361541078, -3486.447451883251, -60503.28886548148, -35449.75494739472, -11062.14655186493, -34689.460359747456, -4457.027251366049, -26303.331709305254, -0.056, 0.864, 0.518, 192.0, 0.0, 0.0, 0.0, 0.0, 0.0, 0.0, 0.0, 0.0, 0.0, 1.6541559109453275E9, 0.0, 2022-06-02 09:45:10.945
29.0, 27845.713835443716, -3479.9654459912117, -60503.06534803693, -35449.26320901671, -11055.99982213972, -34684.34181026719, -4469.432469538745, -26303.77874419436, -0.056, 0.864, 0.518, 192.0, 0.0, 0.0, 0.0, 0.0, 0.0, 0.0, 0.0, 0.0, 0.0, 1.6541559109453325E9, 0.0, 2022-06-02 09:45:10.945
30.0, 27849.670094212306, -3486.290989672064, -60513.28009525301, -35462.227220800785, -11059.553749508113, -34693.90835689406, -4477.054414398005, -26310.19369485303, -0.056, 0.864, 0.518, 192.0, 0.0, 0.0, 0.0, 0.0, 0.0, 0.0, 0.0, 0.0, 0.0, 1.6541559109453375E9, 0.0, 2022-06-02 09:45:10.945
31.0, 27828.637102679862, -3516.7564173646474, -60534.24603155209, -35488.445817046864, -11081.771383496689, -34717.33298508322, -4502.513051332599, -26332.97012245299, -0.056, 0.864, 0.518, 192.0, 0.0, 0.0, 0.0, 0.0, 0.0, 0.0, 0.0, 0.0, 0.0, 1.6541559109453433E9, 0.0, 2022-06-02 09:45:10.945
32.0, 27825.776079389583, -3510.430873683795, -60528.36752276034, -35479.907450664934, -11085.660587031913, -34705.55361575528, -4504.815281011496, -26327.717462505992, -0.056, 0.864, 0.518, 192.0, 0.0, 0.0, 0.0, 0.0, 0.0, 0.0, 0.0, 0.0, 0.0, 1.6541559109453485E9, 0.0, 2022-06-02 09:45:10.945
33.0, 27822.490372954653, -3505.737007348181, -60517.81749937743, -35467.54693598115, -11075.423488071381, -34690.82381615923, -4491.404234338312, -26312.048889642825, -0.056, 0.864, 0.518, 192.0, 0.0, 0.0, 0.0, 0.0, 0.0, 0.0, 0.0, 0.0, 0.0, 1.6541559109453535E9, 0.0, 2022-06-02 09:45:10.945
34.0, 27826.871314867894, -3505.4240829258065, -60519.27036276703, -35469.558592982125, -11070.014365913197, -34691.22614755943, -4484.095213901426, -26308.58436925225, -0.056, 0.864, 0.518, 192.0, 0.0, 0.0, 0.0, 0.0, 0.0, 0.0, 0.0, 0.0, 0.0, 1.6541559109453588E9, 0.0, 2022-06-02 09:45:10.945
35.0, 27832.74982365964, -3503.770053836114, -60523.941877358186, -35471.90552614993, -11067.600377512024, -34694.71301969445, -4484.586952279443, -26309.366680308187, -0.056, 0.864, 0.518, 192.0, 0.0, 0.0, 0.0, 0.0, 0.0, 0.0, 0.0, 0.0, 0.0, 1.6541559109453638E9, 0.0, 2022-06-02 09:45:10.945
36.0, 27820.12108804239, -3518.41044645434, -60541.01861012204, -35486.9258984239, -11085.749994009733, -34710.04631639079, -4502.088368187949, -26322.73302349246, -0.056, 0.864, 0.518, 192.0, 0.0, 0.0, 0.0, 0.0, 0.0, 0.0, 0.0, 0.0, 0.0, 1.6541559109453692E9, 0.0, 2022-06-02 09:45:10.945
37.0, 27813.46026819471, -3519.9750685662116, -60544.013743879055, -35489.09401763607, -11099.25044766074, -34712.370897814144, -4511.856080514918, -26326.979854938967, -0.044, 0.844, 0.518, 192.0, 254.0, 160.0, 26.0, 96.0, 16.0, 48.0, 0.0, 0.0, 0.0, 1.654155910945374E9, 0.0, 2022-06-02 09:45:10.945
38.0, 27831.09579456995, -3499.1432427338655, -60524.76889190303, -35471.793767427655, -11087.046395188141, -34693.72954293842, -4495.807527996008, -26308.76318320789, -0.044, 0.844, 0.518, 192.0, 0.0, 0.0, 0.0, 0.0, 0.0, 0.0, 0.0, 0.0, 0.0, 1.6541559109453793E9, 0.0, 2022-06-02 09:45:10.945
39.0, 27832.012216092615, -3499.5232223896055, -60526.33351401491, -35474.43127327338, -11081.637273029957, -34697.59639472919, -4494.756996006608, -26309.232569841453, -0.044, 0.844, 0.518, 192.0, 0.0, 0.0, 0.0, 0.0, 0.0, 0.0, 0.0, 0.0, 0.0, 1.6541559109453845E9, 0.0, 2022-06-02 09:45:10.945
40.0, 27828.055957324024, -3506.184042237287, -60537.12940658682, -35485.361276312025, -11086.845229488043, -34712.70617398097, -4505.485833345155, -26323.694148504037, -0.044, 0.844, 0.518, 192.0, 0.0, 0.0, 0.0, 0.0, 0.0, 0.0, 0.0, 0.0, 0.0, 1.6541559109453895E9, 0.0, 2022-06-02 09:45:10.945
41.0, 27827.497163712644, -3510.7214463617142, -60541.71151420016, -35491.68681999288, -11099.965703483309, -34720.95396768498, -4514.851214271929, -26332.098404419234, -0.044, 0.844, 0.518, 192.0, 0.0, 0.0, 0.0, 0.0, 0.0, 0.0, 0.0, 0.0, 0.0, 1.6541559109453945E9, 0.0, 2022-06-02 09:45:10.945
42.0, 27812.007404805114, -3520.22093775522, -60546.874767169335, -35498.66056426294, -11112.147404211451, -34730.16288640057, -4527.837577800462, -26336.54640156584, -0.044, 0.844, 0.518, 192.0, 0.0, 0.0, 0.0, 0.0, 0.0, 0.0, 0.0, 0.0, 0.0, 1.6541559109453998E9, 0.0, 2022-06-02 09:45:10.945
43.0, 27816.83538160746, -3510.6096876394377, -60532.77081641804, -35485.987125156775, -11105.240715174761, -34719.59051127321, -4520.103874218926, -26324.63292177116, -0.044, 0.844, 0.518, 192.0, 0.0, 0.0, 0.0, 0.0, 0.0, 0.0, 0.0, 0.0, 0.0, 1.6541559109454072E9, 0.0, 2022-06-02 09:45:10.945
44.0, 27831.676939925783, -3500.4843474011836, -60518.778624389015, -35475.504157007235, -11094.422470858392, -34714.695479237496, -4509.1962229247365, -26314.641691999637, -0.044, 0.844, 0.518, 192.0, 0.0, 0.0, 0.0, 0.0, 0.0, 0.0, 0.0, 0.0, 0.0, 1.6541559109454122E9, 0.0, 2022-06-02 09:45:10.945
45.0, 27832.32514051499, -3507.2792777155973, -60520.656170923256, -35482.58965999957, -11092.991959213252, -34724.97728168694, -4513.621868326887, -26320.386090324653, -0.044, 0.844, 0.518, 192.0, 0.0, 0.0, 0.0, 0.0, 0.0, 0.0, 0.0, 0.0, 0.0, 1.6541559109454174E9, 0.0, 2022-06-02 09:45:10.945
46.0, 27823.27268401059, -3522.1655395228318, -60533.530775729516, -35501.096904408565, -11112.549735611647, -34744.44565110751, -4535.615984870909, -26340.815584756805, -0.044, 0.844, 0.518, 192.0, 0.0, 0.0, 0.0, 0.0, 0.0, 0.0, 0.0, 0.0, 0.0, 1.6541559109454224E9, 0.0, 2022-06-02 09:45:10.945
47.0, 27810.353375715422, -3528.9157663483343, -60536.61531646435, -35509.09882892357, -11136.220232989817, -34753.408700634085, -4547.3506507099455, -26355.07599771929, -0.05, 0.878, 0.512, 192.0, 254.0, 112.0, 27.0, 112.0, 16.0, 0.0, 0.0, 0.0, 0.0, 1.6541559109454277E9, 0.0, 2022-06-02 09:45:10.945
48.0, 27824.099698555434, -3507.480443415695, -60513.74948188657, -35485.853014690045, -11122.272744449705, -34736.35431961469, -4557.028956059094, -26341.128509179176, -0.05, 0.878, 0.512, 192.0, 0.0, 0.0, 0.0, 0.0, 0.0, 0.0, 0.0, 0.0, 0.0, 1.6541559109454327E9, 0.0, 2022-06-02 09:45:10.945
49.0, 27832.012216092615, -3504.3735509364074, -60512.631894663806, -35485.38362805649, -11113.689674578867, -34738.030700448835, -4562.19220902827, -26332.63484628616, -0.05, 0.878, 0.512, 192.0, 0.0, 0.0, 0.0, 0.0, 0.0, 0.0, 0.0, 0.0, 0.0, 1.654155910945438E9, 0.0, 2022-06-02 09:45:10.945
50.0, 27833.912114371316, -3512.733103362692, -60518.86803136683, -35499.06289566313, -11109.800471043643, -34753.96749424547, -4534.565452881509, -26357.378227398185, -0.05, 0.878, 0.512, 192.0, 0.0, 0.0, 0.0, 0.0, 0.0, 0.0, 0.0, 0.0, 0.0, 1.6541559109454432E9, 0.0, 2022-06-02 09:45:10.945
51.0, 27835.54379171655, -3508.709789360737, -60517.0351883215, -35499.353468341054, -11113.86848853451, -34761.41062514909, -4541.874473318395, -26381.138131754178, -0.05, 0.878, 0.512, 192.0, 0.0, 0.0, 0.0, 0.0, 0.0, 0.0, 0.0, 0.0, 0.0, 1.6541559109454484E9, 0.0, 2022-06-02 09:45:10.945
52.0, 27829.017082335602, -3505.9158213038236, -60503.959417815146, -35491.28448859268, -11108.280552420683, -34757.36495940268, -4508.36920837989, -26355.70184656404, -0.05, 0.878, 0.512, 192.0, 0.0, 0.0, 0.0, 0.0, 0.0, 0.0, 0.0, 0.0, 0.0, 1.6541559109454536E9, 0.0, 2022-06-02 09:45:10.945
53.0, 27834.2697422826, -3493.6000101089494, -60485.18395247268, -35472.06198836112, -11093.8189737581, -34728.73237475543, -4511.65491481482, -26302.571749993775, -0.05, 0.878, 0.512, 192.0, 0.0, 0.0, 0.0, 0.0, 0.0, 0.0, 0.0, 0.0, 0.0, 1.654155910945459E9, 0.0, 2022-06-02 09:45:10.945
54.0, 27839.790623163062, -3493.6223618534045, -60487.48618215158, -35468.75393018174, -11091.047357445641, -34720.283415351325, -4505.865813000895, -26277.96247934848, -0.05, 0.878, 0.512, 192.0, 0.0, 0.0, 0.0, 0.0, 0.0, 0.0, 0.0, 0.0, 0.0, 1.654155910945464E9, 0.0, 2022-06-02 09:45:10.945
55.0, 27841.623466208395, -3495.745777576659, -60490.34720544186, -35469.69270344886, -11091.740261523755, -34726.02781367634, -4501.306057132013, -26320.766069980393, -0.05, 0.878, 0.512, 192.0, 0.0, 0.0, 0.0, 0.0, 0.0, 0.0, 0.0, 0.0, 0.0, 1.6541559109454691E9, 0.0, 2022-06-02 09:45:10.945
56.0, 27835.74495741665, -3500.0820160009885, -60497.231542734095, -35474.87830816249, -11102.62556107349, -34733.426241091045, -4518.494548618144, -26351.633829073173, -0.05, 0.878, 0.512, 192.0, 0.0, 0.0, 0.0, 0.0, 0.0, 0.0, 0.0, 0.0, 0.0, 1.6541559109454741E9, 0.0, 2022-06-02 09:45:10.945
57.0, 27829.17354454679, -3501.154899734843, -60499.39966194626, -35475.437101773874, -11108.839346032066, -34735.370842858654, -4524.797740554541, -26349.0186749719, -0.052000000000000005, 0.912, 0.504, 192.0, 254.0, 96.0, 28.0, 128.0, 15.0, 192.0, 0.0, 0.0, 0.0, 1.6541559109454796E9, 0.0, 2022-06-02 09:45:10.945
58.0, 27842.763405175618, -3484.4357948822735, -60485.60863561733, -35457.823927143094, -11095.383595869971, -34719.38934557311, -4510.045589214038, -26325.63875027165, -0.052000000000000005, 0.912, 0.504, 192.0, 0.0, 0.0, 0.0, 0.0, 0.0, 0.0, 0.0, 0.0, 0.0, 1.6541559109454849E9, 0.0, 2022-06-02 09:45:10.945
59.0, 27864.958687419738, -3465.3921086063515, -60471.43762963267, -35440.52367693468, -11073.814162470599, -34700.72563895293, -4491.158365149304, -26301.498866259917, -0.052000000000000005, 0.912, 0.504, 192.0, 0.0, 0.0, 0.0, 0.0, 0.0, 0.0, 0.0, 0.0, 0.0, 1.65415591094549E9, 0.0, 2022-06-02 09:45:10.945
60.0, 27855.50389951514, -3482.2006204367426, -60492.64943512076, -35460.327322522084, -11085.39236609845, -34718.22705486143, -4507.586897323954, -26325.906971205113, -0.052000000000000005, 0.912, 0.504, 192.0, 0.0, 0.0, 0.0, 0.0, 0.0, 0.0, 0.0, 0.0, 0.0, 1.6541559109454951E9, 0.0, 2022-06-02 09:45:10.945
61.0, 27848.843079667462, -3493.465899642217, -60508.54152542848, -35474.54303199566, -11098.579895327079, -34731.459287578975, -4520.9979439971385, -26337.842802744246, -0.052000000000000005, 0.912, 0.504, 192.0, 0.0, 0.0, 0.0, 0.0, 0.0, 0.0, 0.0, 0.0, 0.0, 1.6541559109455001E9, 0.0, 2022-06-02 09:45:10.945
62.0, 27840.95291387474, -3493.175326964298, -60513.57066793092, -35472.39726452795, -11105.6206948305, -34732.3980608461, -4543.886130319373, -26328.410366584107, -0.052000000000000005, 0.912, 0.504, 192.0, 0.0, 0.0, 0.0, 0.0, 0.0, 0.0, 0.0, 0.0, 0.0, 1.6541559109455051E9, 0.0, 2022-06-02 09:45:10.945
63.0, 27840.975265619192, -3482.0441582255553, -60507.379234716806, -35460.327322522084, -11103.318465151604, -34723.65852876408, -4541.114514006915, -26314.17230536608, -0.052000000000000005, 0.912, 0.504, 192.0, 0.0, 0.0, 0.0, 0.0, 0.0, 0.0, 0.0, 0.0, 0.0, 1.6541559109455104E9, 0.0, 2022-06-02 09:45:10.945
64.0, 27850.921791901805, -3474.73513778867, -60501.366615458326, -35454.69468291935, -11083.023081186186, -34721.892740952106, -4505.217612411691, -26325.482288060462, -0.052000000000000005, 0.912, 0.504, 192.0, 0.0, 0.0, 0.0, 0.0, 0.0, 0.0, 0.0, 0.0, 0.0, 1.6541559109455175E9, 0.0, 2022-06-02 09:45:10.945
65.0, 27858.901364672347, -3475.0033587221337, -60505.99342656058, -35458.85210738803, -11074.551770037624, -34729.514685811366, -4499.808490253507, -26342.2684481464, -0.052000000000000005, 0.912, 0.504, 192.0, 0.0, 0.0, 0.0, 0.0, 0.0, 0.0, 0.0, 0.0, 0.0, 1.6541559109455225E9, 0.0, 2022-06-02 09:45:10.945
66.0, 27845.4232627658, -3494.0023415091446, -60526.91465937074, -35477.82873843059, -11094.601284814034, -34749.83242152124, -4527.815226056007, -26329.036215428856, -0.052000000000000005, 0.912, 0.504, 192.0, 0.0, 0.0, 0.0, 0.0, 0.0, 0.0, 0.0, 0.0, 0.0, 1.654155910945528E9, 0.0, 2022-06-02 09:45:10.945
67.0, 27851.905268657836, -3485.5086786161282, -60516.78931913249, -35467.01049411422, -11094.064842947108, -34737.628369048645, -4525.445941143745, -26318.150915879123, -0.058, 0.91, 0.502, 192.0, 254.0, 48.0, 28.0, 112.0, 15.0, 176.0, 0.0, 0.0, 0.0, 1.6541559109455333E9, 0.0, 2022-06-02 09:45:10.945
68.0, 27864.154024619347, -3470.577713319983, -60498.706757868145, -35449.374967738986, -11079.156229395418, -34719.366993828655, -4506.536365334555, -26299.710726703495, -0.058, 0.91, 0.502, 192.0, 0.0, 0.0, 0.0, 0.0, 0.0, 0.0, 0.0, 0.0, 0.0, 1.6541559109455383E9, 0.0, 2022-06-02 09:45:10.945
69.0, 27876.84981546996, -3453.7244980006813, -60486.50270539555, -35435.91921757689, -11059.844322186033, -34704.413676788055, -4506.55871707901, -26308.96434890799, -0.058, 0.91, 0.502, 192.0, 0.0, 0.0, 0.0, 0.0, 0.0, 0.0, 0.0, 0.0, 0.0, 1.6541559109455435E9, 0.0, 2022-06-02 09:45:10.945
70.0, 27859.23664083918, -3472.4776115986842, -60510.82140336292, -35458.29331377665, -11076.719889249789, -34727.123049154645, -4514.292420660547, -26322.35304383672, -0.058, 0.91, 0.502, 192.0, 0.0, 0.0, 0.0, 0.0, 0.0, 0.0, 0.0, 0.0, 0.0, 1.6541559109455495E9, 0.0, 2022-06-02 09:45:10.945
71.0, 27846.719663944205, -3494.6281903538934, -60534.76012167455, -35481.27090707671, -11097.864639504509, -34749.74301454342, -4539.125208750393, -26325.63875027165, -0.058, 0.91, 0.502, 192.0, 0.0, 0.0, 0.0, 0.0, 0.0, 0.0, 0.0, 0.0, 0.0, 1.6541559109455552E9, 0.0, 2022-06-02 09:45:10.945
72.0, 27848.038416867068, -3490.9848560076784, -60531.96615361764, -35475.437101773874, -11101.418566872904, -34740.15411617209, -4555.33022348049, -26328.902104962126, -0.058, 0.91, 0.502, 192.0, 0.0, 0.0, 0.0, 0.0, 0.0, 0.0, 0.0, 0.0, 0.0, 1.6541559109455602E9, 0.0, 2022-06-02 09:45:10.945
73.0, 27864.221079852712, -3468.476649341184, -60504.04882479297, -35447.07273806009, -11077.390441583448, -34711.63329024712, -4489.504336059611, -26309.0090523969, -0.058, 0.91, 0.502, 192.0, 0.0, 0.0, 0.0, 0.0, 0.0, 0.0, 0.0, 0.0, 0.0, 1.6541559109455657E9, 0.0, 2022-06-02 09:45:10.945
74.0, 27868.04322815457, -3464.8780184838797, -60498.46088867914, -35444.09995604753, -11057.787961696144, -34705.933595411014, -4463.397498535812, -26300.135409848146, -0.058, 0.91, 0.502, 192.0, 0.0, 0.0, 0.0, 0.0, 0.0, 0.0, 0.0, 0.0, 0.0, 1.6541559109455707E9, 0.0, 2022-06-02 09:45:10.945
75.0, 27864.46694904172, -3475.7856697780694, -60522.623124435326, -35466.47405224729, -11070.528456035669, -34726.564255543264, -4501.618981554387, -26358.98755299897, -0.058, 0.91, 0.502, 192.0, 0.0, 0.0, 0.0, 0.0, 0.0, 0.0, 0.0, 0.0, 0.0, 1.654155910945576E9, 0.0, 2022-06-02 09:45:10.945
76.0, 27853.827518680995, -3489.8225652960023, -60553.62499399483, -35495.151340383454, -11097.082328448574, -34751.799375033304, -4542.768543096608, -26380.244061975965, -0.058, 0.91, 0.502, 192.0, 0.0, 0.0, 0.0, 0.0, 0.0, 0.0, 0.0, 0.0, 0.0, 1.6541559109455812E9, 0.0, 2022-06-02 09:45:10.945
77.0, 27840.014140607615, -3505.893469559368, -60561.626918509835, -35496.894776450965, -11111.163927455418, -34745.093851696714, -4551.865703089918, -26315.02167165538, -0.048, 0.898, 0.508, 192.0, 254.0, 128.0, 28.0, 16.0, 15.0, 224.0, 0.0, 0.0, 0.0, 1.6541559109455864E9, 0.0, 2022-06-02 09:45:10.945
78.0, 27849.60303897894, -3493.7117688312255, -60530.580345461414, -35464.35063652404, -11083.134839908462, -34712.63911874761, -4502.669513543787, -26293.116962089178, -0.048, 0.898, 0.508, 192.0, 0.0, 0.0, 0.0, 0.0, 0.0, 0.0, 0.0, 0.0, 0.0, 1.6541559109455917E9, 0.0, 2022-06-02 09:45:10.945
79.0, 27860.018951895116, -3475.0704139554996, -60514.9341243427, -35448.57030493859, -11059.844322186033, -34699.04925811878, -4482.999978423117, -26301.58827323774, -0.048, 0.898, 0.508, 192.0, 0.0, 0.0, 0.0, 0.0, 0.0, 0.0, 0.0, 0.0, 0.0, 1.6541559109455967E9, 0.0, 2022-06-02 09:45:10.945
80.0, 27863.95285891925, -3481.8429925254577, -60526.84760413738, -35463.21069755682, -11059.576101252569, -34714.740182726404, -4504.569411822487, -26347.02936971538, -0.048, 0.898, 0.508, 192.0, 0.0, 0.0, 0.0, 0.0, 0.0, 0.0, 0.0, 0.0, 0.0, 1.6541559109456017E9, 0.0, 2022-06-02 09:45:10.945
81.0, 27850.56416399052, -3504.284143958586, -60549.06523812595, -35485.49538677876, -11079.759726495711, -34731.01225268987, -4532.397333669345, -26335.853497487726, -0.048, 0.898, 0.508, 192.0, 0.0, 0.0, 0.0, 0.0, 0.0, 0.0, 0.0, 0.0, 0.0, 1.654155910945607E9, 0.0, 2022-06-02 09:45:10.945
82.0, 27838.740091173662, -3509.961487050234, -60559.7940754645, -35492.983221171286, -11103.206706429328, -34739.21534290497, -4557.341880481467, -26345.2188784145, -0.048, 0.898, 0.508, 192.0, 0.0, 0.0, 0.0, 0.0, 0.0, 0.0, 0.0, 0.0, 0.0, 1.654155910945612E9, 0.0, 2022-06-02 09:45:10.945
83.0, 27850.81003317953, -3492.9518095197454, -60546.941822402696, -35479.95215415384, -11093.953084224831, -34726.89953171009, -4540.399258184345, -26342.223744657487, -0.048, 0.898, 0.508, 192.0, 0.0, 0.0, 0.0, 0.0, 0.0, 0.0, 0.0, 0.0, 0.0, 1.6541559109456177E9, 0.0, 2022-06-02 09:45:10.945
84.0, 27852.70993145823, -3490.0013792516447, -60537.95642113167, -35475.101825607046, -11079.513857306703, -34721.445706063, -4522.629621342376, -26314.954616422012, -0.048, 0.898, 0.508, 192.0, 0.0, 0.0, 0.0, 0.0, 0.0, 0.0, 0.0, 0.0, 0.0, 1.6541559109456227E9, 0.0, 2022-06-02 09:45:10.945
85.0, 27852.017027380112, -3491.767167063614, -60535.74359843059, -35477.2252413303, -11079.022118928686, -34722.228017118934, -4518.136920706859, -26341.664951046107, -0.048, 0.898, 0.508, 192.0, 0.0, 0.0, 0.0, 0.0, 0.0, 0.0, 0.0, 0.0, 0.0, 1.6541559109456277E9, 0.0, 2022-06-02 09:45:10.945
86.0, 27853.313428558522, -3497.3327514329853, -60544.81840667944, -35493.16203512693, -11093.327235380082, -34738.656549293584, -4539.28167096158, -26373.091503750267, -0.048, 0.898, 0.508, 192.0, 0.0, 0.0, 0.0, 0.0, 0.0, 0.0, 0.0, 0.0, 0.0, 1.6541559109456348E9, 0.0, 2022-06-02 09:45:10.945
87.0, 27849.491280256665, -3495.2093357097315, -60537.62114496483, -35492.916165937924, -11096.43412785937, -34742.21047666198, -4549.272900733102, -26370.677515349093, -0.058, 0.874, 0.512, 192.0, 254.0, 48.0, 27.0, 80.0, 16.0, 0.0, 0.0, 0.0, 0.0, 1.65415591094564E9, 0.0, 2022-06-02 09:45:10.945
88.0, 27849.670094212306, -3491.7448153191585, -60523.85247038036, -35486.43416004589, -11091.00265395673, -34732.643930035105, -4539.907519806328, -26332.567791052796, -0.058, 0.874, 0.512, 192.0, 0.0, 0.0, 0.0, 0.0, 0.0, 0.0, 0.0, 0.0, 0.0, 1.6541559109456456E9, 0.0, 2022-06-02 09:45:10.945
89.0, 27866.210385109232, -3477.059719212022, -60502.95358931465, -35467.83750865907, -11070.57315952458, -34711.70034548049, -4516.862871272907, -26283.43865674003, -0.058, 0.874, 0.512, 192.0, 0.0, 0.0, 0.0, 0.0, 0.0, 0.0, 0.0, 0.0, 0.0, 1.6541559109456508E9, 0.0, 2022-06-02 09:45:10.945
90.0, 27868.959649677236, -3481.440661125262, -60507.55804867245, -35472.576078483595, -11071.355470580516, -34718.8976071951, -4532.352630180434, -26320.363738580196, -0.058, 0.874, 0.512, 192.0, 0.0, 0.0, 0.0, 0.0, 0.0, 0.0, 0.0, 0.0, 0.0, 1.654155910945656E9, 0.0, 2022-06-02 09:45:10.945
91.0, 27846.339684288465, -3506.854594570946, -60532.681409440214, -35499.24170961878, -11097.395252870949, -34743.23865690692, -4559.398240971356, -26356.238288430966, -0.058, 0.874, 0.512, 192.0, 0.0, 0.0, 0.0, 0.0, 0.0, 0.0, 0.0, 0.0, 0.0, 1.654155910945661E9, 0.0, 2022-06-02 09:45:10.945
92.0, 27842.159908075322, -3502.4513009132506, -60527.49580472658, -35497.0288869177, -11104.10077620754, -34741.674034795054, -4572.09403182197, -26351.3209046508, -0.058, 0.874, 0.512, 192.0, 0.0, 0.0, 0.0, 0.0, 0.0, 0.0, 0.0, 0.0, 0.0, 1.6541559109456663E9, 0.0, 2022-06-02 09:45:10.945
93.0, 27857.00146639365, -3485.5980855939492, -60505.702853882656, -35476.73350295228, -11091.069709190097, -34722.518589796855, -4577.0561190910485, -26332.523087563884, -0.058, 0.874, 0.512, 192.0, 0.0, 0.0, 0.0, 0.0, 0.0, 0.0, 0.0, 0.0, 0.0, 1.6541559109456713E9, 0.0, 2022-06-02 09:45:10.945
94.0, 27877.31920210352, -3469.1472016748435, -60488.80493507445, -35464.328284779585, -11065.94634842233, -34710.850979191186, -4553.430325201789, -26329.952636951526, -0.058, 0.874, 0.512, 192.0, 0.0, 0.0, 0.0, 0.0, 0.0, 0.0, 0.0, 0.0, 0.0, 1.6541559109456763E9, 0.0, 2022-06-02 09:45:10.945
95.0, 27867.439731054277, -3484.5475536045496, -60504.719377126625, -35487.61880250202, -11070.059069402108, -34732.04043293482, -4527.815226056007, -26357.780558798382, -0.058, 0.874, 0.512, 192.0, 0.0, 0.0, 0.0, 0.0, 0.0, 0.0, 0.0, 0.0, 0.0, 1.654155910945685E9, 0.0, 2022-06-02 09:45:10.945
96.0, 27861.114187373423, -3497.399806666351, -60514.12946154231, -35498.727619496305, -11083.201895141829, -34740.73526152793, -4534.543101137055, -26343.16251792461, -0.058, 0.874, 0.512, 192.0, 0.0, 0.0, 0.0, 0.0, 0.0, 0.0, 0.0, 0.0, 0.0, 1.654155910945691E9, 0.0, 2022-06-02 09:45:10.945
97.0, 27855.14627160386, -3499.2102979672313, -60511.089624296386, -35495.24074736128, -11090.645026045446, -34737.18133415953, -4547.730630365686, -26335.428814343075, -0.068, 0.87, 0.512, 192.0, 253.0, 224.0, 27.0, 48.0, 16.0, 0.0, 0.0, 0.0, 0.0, 1.6541559109456964E9, 0.0, 2022-06-02 09:45:10.945
98.0, 27863.036437396582, -3485.6204373384044, -60496.35982470034, -35479.840395431565, -11082.330177108071, -34723.65852876408, -4538.320545950001, -26344.391863869652, -0.068, 0.87, 0.512, 192.0, 0.0, 0.0, 0.0, 0.0, 0.0, 0.0, 0.0, 0.0, 0.0, 1.6541559109457016E9, 0.0, 2022-06-02 09:45:10.945
99.0, 27866.344495575966, -3487.0509489835445, -60497.43270843419, -35477.471110519306, -11084.252427131227, -34719.7469734844, -4545.9424908092615, -26272.709819401483, -0.068, 0.87, 0.512, 192.0, 0.0, 0.0, 0.0, 0.0, 0.0, 0.0, 0.0, 0.0, 0.0, 1.6541559109457085E9, 0.0, 2022-06-02 09:45:10.945
100.0, 27866.65741999834, -3496.438681654773, -60507.55804867245, -35483.751950711245, -11089.125107422484, -34723.68088050853, -4553.050345546048, -26323.20241012602, -0.068, 0.87, 0.512, 192.0, 0.0, 0.0, 0.0, 0.0, 0.0, 0.0, 0.0, 0.0, 0.0, 1.6541559109457147E9, 0.0, 2022-06-02 09:45:10.945
101.0, 27870.479568300198, -3492.5941816084605, -60506.529868427504, -35482.88023267749, -11084.699462020333, -34723.79263923081, -4538.633470372376, -26334.422985842586, -0.068, 0.87, 0.512, 192.0, 0.0, 0.0, 0.0, 0.0, 0.0, 0.0, 0.0, 0.0, 0.0, 1.6541559109457223E9, 0.0, 2022-06-02 09:45:10.945
102.0, 27869.429036310798, -3487.3638734059186, -60500.58430440239, -35477.09113086356, -11083.559523053113, -34718.33881358371, -4550.390487955867, -26331.22668638548, -0.068, 0.87, 0.512, 192.0, 0.0, 0.0, 0.0, 0.0, 0.0, 0.0, 0.0, 0.0, 0.0, 1.65415591094573E9, 0.0, 2022-06-02 09:45:10.945
103.0, 27875.70987650274, -3477.0820709564773, -60490.77188858651, -35466.429348758385, -11072.964796181297, -34711.16390361356, -4538.029973272082, -26332.612494541707, -0.068, 0.87, 0.512, 192.0, 0.0, 0.0, 0.0, 0.0, 0.0, 0.0, 0.0, 0.0, 0.0, 1.654155910945737E9, 0.0, 2022-06-02 09:45:10.945
104.0, 27873.47470205721, -3475.606855822427, -60491.82242057591, -35464.12711907949, -11066.438086800348, -34713.39907805909, -4525.937679521761, -26305.857456428705, -0.068, 0.87, 0.512, 192.0, 0.0, 0.0, 0.0, 0.0, 0.0, 0.0, 0.0, 0.0, 0.0, 1.6541559109457426E9, 0.0, 2022-06-02 09:45:10.945
105.0, 27861.04713214006, -3487.296818172553, -60510.106147540355, -35477.78403494168, -11075.088211904551, -34729.62644453364, -4543.506150663633, -26300.33657554824, -0.068, 0.87, 0.512, 192.0, 0.0, 0.0, 0.0, 0.0, 0.0, 0.0, 0.0, 0.0, 0.0, 1.654155910945749E9, 0.0, 2022-06-02 09:45:10.945
106.0, 27861.538870518074, -3489.867268784913, -60515.04588306497, -35482.67906697739, -11079.156229395418, -34739.95295047199, -4547.015374543116, -26329.416195084596, -0.064, 0.866, 0.506, 192.0, 254.0, 0.0, 27.0, 16.0, 15.0, 208.0, 0.0, 0.0, 0.0, 1.654155910945754E9, 0.0, 2022-06-02 09:45:10.945
107.0, 27853.71575995872, -3496.6845508437814, -60520.4326534787, -35488.1775961134, -11089.080403933574, -34746.12203194166, -4561.52165669461, -26341.419081857097, -0.064, 0.866, 0.506, 192.0, 0.0, 0.0, 0.0, 0.0, 0.0, 0.0, 0.0, 0.0, 0.0, 1.6541559109457626E9, 0.0, 2022-06-02 09:45:10.945
108.0, 27860.26482108412, -3481.217143680709, -60510.28496149599, -35473.31368605062, -11081.950197452332, -34728.82178173325, -4578.106651080448, -26316.854514700713, -0.064, 0.866, 0.506, 192.0, 0.0, 0.0, 0.0, 0.0, 0.0, 0.0, 0.0, 0.0, 0.0, 1.6541559109457679E9, 0.0, 2022-06-02 09:45:10.945
109.0, 27866.970344420715, -3479.250190168642, -60510.84375510738, -35471.123215094, -11067.108639134007, -34725.75959274287, -4540.198092484247, -26303.845799427727, -0.064, 0.866, 0.506, 192.0, 0.0, 0.0, 0.0, 0.0, 0.0, 0.0, 0.0, 0.0, 0.0, 1.654155910945773E9, 0.0, 2022-06-02 09:45:10.945
110.0, 27877.833292225994, -3482.066509970011, -60512.67659815271, -35470.005627871236, -11055.016345383687, -34731.28047362334, -4509.822071769485, -26308.02557564087, -0.064, 0.866, 0.506, 192.0, 0.0, 0.0, 0.0, 0.0, 0.0, 0.0, 0.0, 0.0, 0.0, 1.654155910945778E9, 0.0, 2022-06-02 09:45:10.945
111.0, 27876.492187558677, -3491.4318908967844, -60528.07695008242, -35481.85205243254, -11064.269967588183, -34748.06663370927, -4532.307926691524, -26318.709709490504, -0.064, 0.866, 0.506, 192.0, 0.0, 0.0, 0.0, 0.0, 0.0, 0.0, 0.0, 0.0, 0.0, 1.6541559109457831E9, 0.0, 2022-06-02 09:45:10.945
112.0, 27862.254126340646, -3496.483385143684, -60538.492862998595, -35489.11636938052, -11079.62561602898, -34758.32608441426, -4547.216540243214, -26338.558058566818, -0.064, 0.866, 0.506, 192.0, 0.0, 0.0, 0.0, 0.0, 0.0, 0.0, 0.0, 0.0, 0.0, 1.6541559109457884E9, 0.0, 2022-06-02 09:45:10.945
113.0, 27873.80997822404, -3471.292969142553, -60516.252877265564, -35462.20486905633, -11062.012441398198, -34729.04529917781, -4526.854101044429, -26313.63586349915, -0.064, 0.866, 0.506, 192.0, 0.0, 0.0, 0.0, 0.0, 0.0, 0.0, 0.0, 0.0, 0.0, 1.654155910945794E9, 0.0, 2022-06-02 09:45:10.945
114.0, 27878.257975370645, -3465.436812095262, -60513.79418537548, -35455.365235253004, -11053.18350233835, -34720.283415351325, -4520.685019574764, -26278.38716249313, -0.064, 0.866, 0.506, 192.0, 0.0, 0.0, 0.0, 0.0, 0.0, 0.0, 0.0, 0.0, 0.0, 1.654155910945799E9, 0.0, 2022-06-02 09:45:10.945
115.0, 27858.2755158276, -3483.005283237134, -60536.235336808604, -35474.16305233992, -11069.388517068448, -34741.02583420585, -4555.196113013758, -26336.50169807693, -0.064, 0.866, 0.506, 192.0, 0.0, 0.0, 0.0, 0.0, 0.0, 0.0, 0.0, 0.0, 0.0, 1.6541559109458048E9, 0.0, 2022-06-02 09:45:10.945
116.0, 27850.094777356957, -3498.249172955653, -60559.50350278658, -35489.4739972918, -11096.612941815012, -34757.56612510278, -4616.953982943772, -26339.362721367208, -0.048, 0.878, 0.5, 192.0, 254.0, 128.0, 27.0, 112.0, 15.0, 160.0, 0.0, 0.0, 0.0, 1.65415591094581E9, 0.0, 2022-06-02 09:45:10.945
117.0, 27842.875163897894, -3502.607763124438, -60563.996203422095, -35491.19508161487, -11107.38648264247, -34760.74007281543, -4599.318456568534, -26340.279142889874, -0.048, 0.878, 0.5, 192.0, 0.0, 0.0, 0.0, 0.0, 0.0, 0.0, 0.0, 0.0, 0.0, 1.654155910945816E9, 0.0, 2022-06-02 09:45:10.945
118.0, 27856.196803593255, -3475.606855822427, -60535.07304609693, -35464.954133624335, -11078.843304973043, -34739.39415686061, -4533.358458680923, -26336.3675876102, -0.048, 0.878, 0.5, 192.0, 0.0, 0.0, 0.0, 0.0, 0.0, 0.0, 0.0, 0.0, 0.0, 1.6541559109458213E9, 0.0, 2022-06-02 09:45:10.945
119.0, 27874.65934451334, -3464.766259761603, -60518.26453426654, -35447.31860724909, -11054.502255261214, -34722.87621770814, -4497.997998952627, -26292.96049987799, -0.048, 0.878, 0.5, 192.0, 0.0, 0.0, 0.0, 0.0, 0.0, 0.0, 0.0, 0.0, 0.0, 1.6541559109458287E9, 0.0, 2022-06-02 09:45:10.945
120.0, 27878.548548048562, -3466.487344084662, -60529.328647771916, -35455.789918397655, -11058.413810540893, -34734.476773080445, -4528.999868512138, -26279.035363082334, -0.048, 0.878, 0.5, 192.0, 0.0, 0.0, 0.0, 0.0, 0.0, 0.0, 0.0, 0.0, 0.0, 1.6541559109458346E9, 0.0, 2022-06-02 09:45:10.945
121.0, 27865.450425797753, -3482.6923588147592, -60546.450084024684, -35471.391436027465, -11074.842342715543, -34752.648741322606, -4545.920139064806, -26324.476459559974, -0.048, 0.878, 0.5, 192.0, 0.0, 0.0, 0.0, 0.0, 0.0, 0.0, 0.0, 0.0, 0.0, 1.654155911425244E9, 0.0, 2022-06-02 09:45:11.425
122.0, 27860.533042017585, -3485.665140827315, -60547.27709856953, -35471.816119172116, -11080.631444529468, -34754.77215704586, -4554.525560680099, -26333.998302697935, -0.048, 0.878, 0.5, 192.0, 0.0, 0.0, 0.0, 0.0, 0.0, 0.0, 0.0, 0.0, 0.0, 1.6541559114252615E9, 0.0, 2022-06-02 09:45:11.425
123.0, 27865.450425797753, -3471.5164865871056, -60535.07304609693, -35459.72382542179, -11068.203874612318, -34741.49522083941, -4554.324394980001, -26319.380261824164, -0.048, 0.878, 0.5, 192.0, 0.0, 0.0, 0.0, 0.0, 0.0, 0.0, 0.0, 0.0, 0.0, 1.6541559114253287E9, 0.0, 2022-06-02 09:45:11.425
124.0, 27878.392085837375, -3469.370719119396, -60534.156624574265, -35459.1203283215, -11063.331194321061, -34741.472869094956, -4558.705336893241, -26309.992529152936, -0.048, 0.878, 0.5, 192.0, 0.0, 0.0, 0.0, 0.0, 0.0, 0.0, 0.0, 0.0, 0.0, 1.6541559114254594E9, 0.0, 2022-06-02 09:45:11.425
125.0, 27864.33283857499, -3491.49894613015, -60552.663868983254, -35481.40501754344, -11078.865656717498, -34760.896535026615, -4575.826773146006, -26308.383203552152, -0.048, 0.878, 0.5, 192.0, 0.0, 0.0, 0.0, 0.0, 0.0, 0.0, 0.0, 0.0, 0.0, 1.6541559114254649E9, 0.0, 2022-06-02 09:45:11.425
126.0, 27843.143384831357, -3497.802138066547, -60558.72119173065, -35491.30684033714, -11085.995863198741, -34767.3561891742, -4572.295197522068, -26323.1130031482, -0.048, 0.884, 0.492, 192.0, 254.0, 128.0, 27.0, 160.0, 15.0, 96.0, 0.0, 0.0, 0.0, 1.6541559114254704E9, 0.0, 2022-06-02 09:45:11.425
127.0, 27835.588495205462, -3501.870155557413, -60552.194482349696, -35490.5245292812, -11089.795659756144, -34768.78670081934, -4554.369098468912, -26331.740776507948, -0.048, 0.884, 0.492, 192.0, 0.0, 0.0, 0.0, 0.0, 0.0, 0.0, 0.0, 0.0, 0.0, 1.6541559114254775E9, 0.0, 2022-06-02 09:45:11.425
128.0, 27859.37075130591, -3489.509640873628, -60531.921450128735, -35474.945363395855, -11081.681976518867, -34751.821726777765, -4548.110610021426, -26307.9585204075, -0.048, 0.884, 0.492, 192.0, 0.0, 0.0, 0.0, 0.0, 0.0, 0.0, 0.0, 0.0, 0.0, 1.6541559114255035E9, 0.0, 2022-06-02 09:45:11.425
129.0, 27852.352303546944, -3485.665140827315, -60518.89038311129, -35466.67521794739, -11067.7121362343, -34740.17646791655, -4528.329316178479, -26302.19177033803, -0.048, 0.884, 0.492, 192.0, 0.0, 0.0, 0.0, 0.0, 0.0, 0.0, 0.0, 0.0, 0.0, 1.6541559114255092E9, 0.0, 2022-06-02 09:45:11.425
130.0, 27840.483527241176, -3511.9731440512114, -60520.20913603415, -35472.55372673914, -11069.455572301815, -34746.0996801972, -4521.914365519806, -26302.77291569387, -0.048, 0.884, 0.492, 192.0, 0.0, 0.0, 0.0, 0.0, 0.0, 0.0, 0.0, 0.0, 0.0, 1.6541559114255145E9, 0.0, 2022-06-02 09:45:11.425
131.0, 27824.591436933453, -3535.9565658517563, -60537.59879322038, -35491.82093045961, -11094.645988302946, -34767.69146534103, -4552.357441467934, -26322.844782214735, -0.048, 0.884, 0.492, 192.0, 0.0, 0.0, 0.0, 0.0, 0.0, 0.0, 0.0, 0.0, 0.0, 1.6541559114255197E9, 0.0, 2022-06-02 09:45:11.425
132.0, 27835.253219038634, -3528.312269248041, -60524.74654015858, -35481.0250378877, -11096.031796459174, -34756.58264834674, -4556.939549081272, -26318.508543790405, -0.048, 0.884, 0.492, 192.0, 0.0, 0.0, 0.0, 0.0, 0.0, 0.0, 0.0, 0.0, 0.0, 1.6541559114255247E9, 0.0, 2022-06-02 09:45:11.425
133.0, 27836.1696405613, -3521.2714697446195, -60508.11684228383, -35463.568325468106, -11086.778174254678, -34737.87423823765, -4540.153388995336, -26301.16359009309, -0.048, 0.884, 0.492, 192.0, 0.0, 0.0, 0.0, 0.0, 0.0, 0.0, 0.0, 0.0, 0.0, 1.6541559114255297E9, 0.0, 2022-06-02 09:45:11.425
134.0, 27826.781907890072, -3523.216071512231, -60503.177106759205, -35459.83558414407, -11080.229113129273, -34731.52634281234, -4538.991098283661, -26302.929377905057, -0.048, 0.884, 0.492, 192.0, 0.0, 0.0, 0.0, 0.0, 0.0, 0.0, 0.0, 0.0, 0.0, 1.6541559114255347E9, 0.0, 2022-06-02 09:45:11.425
135.0, 27818.288244997057, -3532.8496733724683, -60515.3811592318, -35474.7218459513, -11084.252427131227, -34740.064709194274, -4542.120342507404, -26292.513464988886, -0.048, 0.884, 0.492, 192.0, 0.0, 0.0, 0.0, 0.0, 0.0, 0.0, 0.0, 0.0, 0.0, 1.6541559114255404E9, 0.0, 2022-06-02 09:45:11.425
136.0, 27808.20760824771, -3553.390926526896, -60532.25672629556, -35492.44677930436, -11100.43509011687, -34757.052034980305, -4551.172799011802, -26308.226741340965, -0.038, 0.894, 0.494, 192.0, 254.0, 208.0, 27.0, 240.0, 15.0, 112.0, 0.0, 0.0, 0.0, 1.6541559114255464E9, 0.0, 2022-06-02 09:45:11.425
137.0, 27794.59539587443, -3558.308310307063, -60525.41709249224, -35484.109578622534, -11102.692616306857, -34749.94418024352, -4566.439040474777, -26307.712651218495, -0.038, 0.894, 0.494, 192.0, 0.0, 0.0, 0.0, 0.0, 0.0, 0.0, 0.0, 0.0, 0.0, 1.6541559114255517E9, 0.0, 2022-06-02 09:45:11.425
138.0, 27801.45738142221, -3552.049821859577, -60505.85931609385, -35465.11059583552, -11092.38846211296, -34727.03364217683, -4558.99590957116, -26287.68548818654, -0.038, 0.894, 0.494, 192.0, 0.0, 0.0, 0.0, 0.0, 0.0, 0.0, 0.0, 0.0, 0.0, 1.6541559114255567E9, 0.0, 2022-06-02 09:45:11.425
139.0, 27816.991843818647, -3560.0070428856666, -60507.11101378334, -35469.580944726586, -11086.867581232498, -34735.30378762529, -4536.487702904667, -26294.122790589667, -0.038, 0.894, 0.494, 192.0, 0.0, 0.0, 0.0, 0.0, 0.0, 0.0, 0.0, 0.0, 0.0, 1.6541559114255617E9, 0.0, 2022-06-02 09:45:11.425
140.0, 27800.183331988257, -3574.8486012039903, -60509.949685329164, -35475.61591572952, -11074.596473526535, -34742.90338074009, -4499.786138509052, -26294.72628768996, -0.038, 0.894, 0.494, 192.0, 0.0, 0.0, 0.0, 0.0, 0.0, 0.0, 0.0, 0.0, 0.0, 1.654155911425567E9, 0.0, 2022-06-02 09:45:11.425
141.0, 27781.83254979045, -3603.3470753845068, -60528.412226249246, -35491.64211650397, -11093.126069679985, -34753.11812795617, -4521.534385864065, -26309.67960473056, -0.038, 0.894, 0.494, 192.0, 0.0, 0.0, 0.0, 0.0, 0.0, 0.0, 0.0, 0.0, 0.0, 1.654155911425572E9, 0.0, 2022-06-02 09:45:11.425
142.0, 27789.72271558317, -3600.374293371951, -60532.41318850675, -35493.92199443841, -11105.799508786144, -34753.52045935637, -4553.475028690699, -26318.01680541239, -0.038, 0.894, 0.494, 192.0, 0.0, 0.0, 0.0, 0.0, 0.0, 0.0, 0.0, 0.0, 0.0, 1.6541559114255767E9, 0.0, 2022-06-02 09:45:11.425
143.0, 27817.93061708577, -3572.8369442030125, -60523.65130468027, -35485.27186933421, -11096.7694040262, -34745.56323833027, -4549.161142010826, -26325.750508993926, -0.038, 0.894, 0.494, 192.0, 0.0, 0.0, 0.0, 0.0, 0.0, 0.0, 0.0, 0.0, 0.0, 1.654155911425582E9, 0.0, 2022-06-02 09:45:11.425
144.0, 27775.3058404095, -3613.271249922663, -60518.51040345555, -35475.05712211813, -11085.504124820725, -34738.20951440448, -4549.474066433199, -26250.0451505238, -0.038, 0.894, 0.494, 192.0, 0.0, 0.0, 0.0, 0.0, 0.0, 0.0, 0.0, 0.0, 0.0, 1.654155911425587E9, 0.0, 2022-06-02 09:45:11.425
145.0, 27749.288409863522, -3626.5481861291155, -60528.85926113836, -35479.52747100919, -11087.225209143784, -34741.02583420585, -4536.621813371398, -26265.44550245351, -0.038, 0.894, 0.494, 192.0, 0.0, 0.0, 0.0, 0.0, 0.0, 0.0, 0.0, 0.0, 0.0, 1.654155911425592E9, 0.0, 2022-06-02 09:45:11.425
146.0, 27775.93168925425, -3607.504499853194, -60540.90685139976, -35487.59645075756, -11094.400119113938, -34751.41939537757, -4530.2739179460905, -26315.759279222406, -0.026000000000000002, 0.902, 0.496, 192.0, 255.0, 48.0, 28.0, 48.0, 15.0, 128.0, 0.0, 0.0, 0.0, 1.6541559114255972E9, 0.0, 2022-06-02 09:45:11.425
147.0, 27851.59234423546, -3612.1089592109875, -60545.86893866884, -35489.60810775854, -11101.329159895082, -34753.274590167355, -4541.89682506285, -26311.82537219827, -0.026000000000000002, 0.902, 0.496, 192.0, 0.0, 0.0, 0.0, 0.0, 0.0, 0.0, 0.0, 0.0, 0.0, 1.6541559114256032E9, 0.0, 2022-06-02 09:45:11.425
148.0, 27729.82004044295, -3609.0691219650653, -60530.80386290597, -35471.033808116175, -11089.52743882268, -34736.66724403706, -4539.32637445049, -26288.62426145366, -0.026000000000000002, 0.902, 0.496, 192.0, 0.0, 0.0, 0.0, 0.0, 0.0, 0.0, 0.0, 0.0, 0.0, 1.6541559114256084E9, 0.0, 2022-06-02 09:45:11.425
149.0, 27801.971471544683, -3612.5112906111826, -60525.95353435916, -35459.142680065954, -11075.736412493756, -34730.766383500864, -4550.502246678144, -26288.69131668703, -0.026000000000000002, 0.902, 0.496, 192.0, 0.0, 0.0, 0.0, 0.0, 0.0, 0.0, 0.0, 0.0, 0.0, 1.6541559114256134E9, 0.0, 2022-06-02 09:45:11.425
150.0, 27728.702453220187, -3643.557863659604, -60536.72707518662, -35467.457529003324, -11068.606206012513, -34737.49425858191, -4554.212636257725, -26306.17038085108, -0.026000000000000002, 0.902, 0.496, 192.0, 0.0, 0.0, 0.0, 0.0, 0.0, 0.0, 0.0, 0.0, 0.0, 1.6541559114256208E9, 0.0, 2022-06-02 09:45:11.425
151.0, 27670.744379847572, -3679.2312478102745, -60567.68424125722, -35493.65377350495, -11096.612941815012, -34763.757558316895, -4575.156220812348, -26322.73302349246, -0.026000000000000002, 0.902, 0.496, 192.0, 0.0, 0.0, 0.0, 0.0, 0.0, 0.0, 0.0, 0.0, 0.0, 1.6541559114256256E9, 0.0, 2022-06-02 09:45:11.425
152.0, 27678.075752028915, -3659.2264365227747, -60570.67937501423, -35493.49731129376, -11097.127031937485, -34763.57874436125, -4565.209694529735, -26314.35111932172, -0.026000000000000002, 0.902, 0.496, 192.0, 0.0, 0.0, 0.0, 0.0, 0.0, 0.0, 0.0, 0.0, 0.0, 1.6541559114256308E9, 0.0, 2022-06-02 09:45:11.425
153.0, 27753.177613398748, -3628.8504158080123, -60553.289717828, -35469.849165660045, -11064.873464688477, -34741.29405513931, -4526.272955688591, -26280.711743916483, -0.026000000000000002, 0.902, 0.496, 192.0, 0.0, 0.0, 0.0, 0.0, 0.0, 0.0, 0.0, 0.0, 0.0, 1.654155911425636E9, 0.0, 2022-06-02 09:45:11.425
154.0, 27820.948102587237, -3554.79908642758, -60548.752313703575, -35456.706339920325, -11046.097999346019, -34725.71488925396, -4511.096121203437, -26269.826444366747, -0.026000000000000002, 0.902, 0.496, 192.0, 0.0, 0.0, 0.0, 0.0, 0.0, 0.0, 0.0, 0.0, 0.0, 1.6541559114256413E9, 0.0, 2022-06-02 09:45:11.425
155.0, 27847.94900988925, -3624.1341977279426, -60553.42382829474, -35460.39437775545, -11045.09217084553, -34727.88300846613, -4501.84249899894, -26285.025630596356, -0.026000000000000002, 0.902, 0.496, 192.0, 0.0, 0.0, 0.0, 0.0, 0.0, 0.0, 0.0, 0.0, 0.0, 1.6541559114256463E9, 0.0, 2022-06-02 09:45:11.425
156.0, 27727.92014216425, -3657.7735731331795, -60563.95149993319, -35473.134872094975, -11064.605243755013, -34741.00348246139, -4521.668496330797, -26312.406517554107, -0.02, 0.9, 0.5, 192.0, 255.0, 96.0, 28.0, 32.0, 15.0, 160.0, 0.0, 0.0, 0.0, 1.6541559114256513E9, 0.0, 2022-06-02 09:45:11.425
157.0, 27728.188363097714, -3634.416000177384, -60569.4947325581, -35475.995895385255, -11076.00463342722, -34740.64585455011, -4531.5032638911325, -26310.327805319765, -0.02, 0.9, 0.5, 192.0, 0.0, 0.0, 0.0, 0.0, 0.0, 0.0, 0.0, 0.0, 0.0, 1.6541559114256563E9, 0.0, 2022-06-02 09:45:11.425
158.0, 27792.20375921771, -3604.3976073739063, -60563.05743015498, -35469.11155809302, -11068.986185668253, -34732.643930035105, -4527.2787841890795, -26298.30256680281, -0.02, 0.9, 0.5, 192.0, 0.0, 0.0, 0.0, 0.0, 0.0, 0.0, 0.0, 0.0, 0.0, 1.6541559114256613E9, 0.0, 2022-06-02 09:45:11.425
159.0, 27885.656402785353, -3590.4277670893393, -60564.26442435556, -35464.820023157605, -11060.38076405296, -34725.60313053169, -4516.639353828354, -26287.81959865327, -0.02, 0.9, 0.5, 192.0, 0.0, 0.0, 0.0, 0.0, 0.0, 0.0, 0.0, 0.0, 0.0, 1.6541559114256663E9, 0.0, 2022-06-02 09:45:11.425
160.0, 27841.13172783038, -3580.145964639898, -60576.22260763915, -35469.0221511152, -11059.754915208212, -34729.358223600175, -4510.738493292152, -26290.591214965727, -0.02, 0.9, 0.5, 192.0, 0.0, 0.0, 0.0, 0.0, 0.0, 0.0, 0.0, 0.0, 0.0, 1.6541559114256716E9, 0.0, 2022-06-02 09:45:11.425
161.0, 27777.853939277404, -3600.8436800055124, -60600.630712584345, -35488.445817046864, -11081.525514307681, -34749.74301454342, -4536.063019760015, -26310.551322764317, -0.02, 0.9, 0.5, 192.0, 0.0, 0.0, 0.0, 0.0, 0.0, 0.0, 0.0, 0.0, 0.0, 1.6541559114256766E9, 0.0, 2022-06-02 09:45:11.425
162.0, 27853.492242514163, -3584.1022234084876, -60596.026253226555, -35479.75098845375, -11083.984206197763, -34739.438860349524, -4540.667479117808, -26304.73986920594, -0.02, 0.9, 0.5, 192.0, 0.0, 0.0, 0.0, 0.0, 0.0, 0.0, 0.0, 0.0, 0.0, 1.6541559114256816E9, 0.0, 2022-06-02 09:45:11.425
163.0, 27905.884731517403, -3572.4122610583618, -60570.83583722542, -35456.03578758667, -11067.399211811926, -34713.91316818156, -4524.127188220881, -26282.879863128648, -0.02, 0.9, 0.5, 192.0, 0.0, 0.0, 0.0, 0.0, 0.0, 0.0, 0.0, 0.0, 0.0, 1.6541559114256868E9, 0.0, 2022-06-02 09:45:11.425
164.0, 27973.074075350058, -3554.8884934054013, -60562.185712121216, -35450.04552007264, -11055.821008184077, -34706.24651983339, -4514.203013682725, -26276.3531537477, -0.02, 0.9, 0.5, 192.0, 0.0, 0.0, 0.0, 0.0, 0.0, 0.0, 0.0, 0.0, 0.0, 1.6541559114256918E9, 0.0, 2022-06-02 09:45:11.425
165.0, 27957.740778653715, -3518.991591810178, -60572.243997126105, -35466.429348758385, -11061.632461742456, -34718.808200217274, -4527.837577800462, -26290.211235309987, -0.02, 0.9, 0.5, 192.0, 0.0, 0.0, 0.0, 0.0, 0.0, 0.0, 0.0, 0.0, 0.0, 1.6541559114256968E9, 0.0, 2022-06-02 09:45:11.425
166.0, 27924.883714304415, -3563.6950807207922, -60596.04860497101, -35493.69847699386, -11091.24852314574, -34748.78188953184, -4562.99687182866, -26318.150915879123, -0.014, 0.902, 0.496, 192.0, 255.0, 144.0, 28.0, 48.0, 15.0, 128.0, 0.0, 0.0, 0.0, 1.6541559114257023E9, 0.0, 2022-06-02 09:45:11.425
167.0, 27890.976117965714, -3591.210078145275, -60585.99031996612, -35488.69168623587, -11095.67416854789, -34744.35624412969, -4573.502191722655, -26314.753450721917, -0.014, 0.902, 0.496, 192.0, 0.0, 0.0, 0.0, 0.0, 0.0, 0.0, 0.0, 0.0, 0.0, 1.6541559114257073E9, 0.0, 2022-06-02 09:45:11.425
168.0, 27850.519460501608, -3553.6814992048144, -60563.95149993319, -35469.78211042668, -11078.128049150473, -34726.02781367634, -4555.866665347417, -26302.86232267169, -0.014, 0.902, 0.496, 192.0, 0.0, 0.0, 0.0, 0.0, 0.0, 0.0, 0.0, 0.0, 0.0, 1.6541559114257123E9, 0.0, 2022-06-02 09:45:11.425
169.0, 27924.81665907105, -3476.567980834005, -60563.102133643886, -35472.151395338944, -11061.408944297904, -34725.87135146515, -4534.587804625965, -26299.420154025574, -0.014, 0.902, 0.496, 192.0, 0.0, 0.0, 0.0, 0.0, 0.0, 0.0, 0.0, 0.0, 0.0, 1.6541559114257176E9, 0.0, 2022-06-02 09:45:11.425
170.0, 27998.331546584555, -3505.580545136994, -60576.96021520618, -35488.512872280226, -11064.09115363254, -34739.17063941606, -4513.711275304709, -26303.845799427727, -0.014, 0.902, 0.496, 192.0, 0.0, 0.0, 0.0, 0.0, 0.0, 0.0, 0.0, 0.0, 0.0, 1.6541559114257228E9, 0.0, 2022-06-02 09:45:11.425
171.0, 27911.897350775882, -3581.5764762850376, -60575.105020416384, -35481.53912801017, -11068.583854268058, -34740.80231676129, -4507.899821746329, -26312.96531116549, -0.014, 0.902, 0.496, 192.0, 0.0, 0.0, 0.0, 0.0, 0.0, 0.0, 0.0, 0.0, 0.0, 1.65415591142573E9, 0.0, 2022-06-02 09:45:11.425
172.0, 27882.214234139235, -3586.918543209856, -60566.54430229, -35468.530412737186, -11067.958005423308, -34734.0967934247, -4536.308888949024, -26287.529025975353, -0.014, 0.902, 0.496, 192.0, 0.0, 0.0, 0.0, 0.0, 0.0, 0.0, 0.0, 0.0, 0.0, 1.654155911425735E9, 0.0, 2022-06-02 09:45:11.425
173.0, 27905.86237977295, -3560.208208585764, -60559.05646789748, -35452.70537766282, -11064.359374566004, -34716.55067402729, -4555.777258369596, -26281.337592761232, -0.014, 0.902, 0.496, 192.0, 0.0, 0.0, 0.0, 0.0, 0.0, 0.0, 0.0, 0.0, 0.0, 1.65415591142574E9, 0.0, 2022-06-02 09:45:11.425
174.0, 27942.943923824303, -3529.4969117041724, -60559.57055801995, -35451.58779044006, -11061.118371619985, -34713.846112948195, -4510.17969968077, -26295.307433045797, -0.014, 0.902, 0.496, 192.0, 0.0, 0.0, 0.0, 0.0, 0.0, 0.0, 0.0, 0.0, 0.0, 1.6541559114257452E9, 0.0, 2022-06-02 09:45:11.425
175.0, 27940.90991507887, -3525.048914557566, -60562.29747084349, -35457.91333412091, -11052.915281404887, -34720.551636284785, -4484.497545301622, -26299.97894763696, -0.014, 0.902, 0.496, 192.0, 0.0, 0.0, 0.0, 0.0, 0.0, 0.0, 0.0, 0.0, 0.0, 1.6541559114257505E9, 0.0, 2022-06-02 09:45:11.425
176.0, 27954.075092563045, -3517.7622458651363, -60567.438372068216, -35463.54597372365, -11059.240825085739, -34725.58077878723, -4510.291458403046, -26319.53672403535, -0.02, 0.906, 0.484, 192.0, 255.0, 96.0, 28.0, 80.0, 15.0, 32.0, 0.0, 0.0, 0.0, 1.6541559114257555E9, 0.0, 2022-06-02 09:45:11.425
177.0, 27894.306527889556, -3523.1937197677757, -60568.623014524346, -35464.26122954622, -11069.410868812904, -34723.993804930906, -4529.670420845798, -26328.3656630952, -0.02, 0.906, 0.484, 192.0, 0.0, 0.0, 0.0, 0.0, 0.0, 0.0, 0.0, 0.0, 0.0, 1.6541559114257605E9, 0.0, 2022-06-02 09:45:11.425
178.0, 27904.834199528006, -3508.5309754050945, -60545.86893866884, -35441.79772636863, -11048.489636002736, -34701.262080819855, -4516.147615450337, -26301.81179068229, -0.02, 0.906, 0.484, 192.0, 0.0, 0.0, 0.0, 0.0, 0.0, 0.0, 0.0, 0.0, 0.0, 1.6541559114257655E9, 0.0, 2022-06-02 09:45:11.425
179.0, 27906.89056001789, -3481.1947919362538, -60540.88449965531, -35435.42747919887, -11035.145644562917, -34693.506025493865, -4505.709350789708, -26306.52800876236, -0.02, 0.906, 0.484, 192.0, 0.0, 0.0, 0.0, 0.0, 0.0, 0.0, 0.0, 0.0, 0.0, 1.6541559114257705E9, 0.0, 2022-06-02 09:45:11.425
180.0, 27882.147178905867, -3499.702036345248, -60563.41505806626, -35456.39341549795, -11048.936670891842, -34713.421429803544, -4504.614115311399, -26279.750618904905, -0.02, 0.906, 0.484, 192.0, 0.0, 0.0, 0.0, 0.0, 0.0, 0.0, 0.0, 0.0, 0.0, 1.6541559114257755E9, 0.0, 2022-06-02 09:45:11.425
181.0, 27923.542609637097, -3511.2578882286416, -60570.05352616949, -35461.28844753366, -11058.23499658525, -34714.06963039275, -4522.94254576475, -26283.818636395772, -0.02, 0.906, 0.484, 192.0, 0.0, 0.0, 0.0, 0.0, 0.0, 0.0, 0.0, 0.0, 0.0, 1.6541559114257808E9, 0.0, 2022-06-02 09:45:11.425
182.0, 27957.87488912045, -3506.9440015487676, -60568.10892440187, -35459.05327308813, -11062.817104198588, -34711.38742105811, -4520.930888763773, -26313.434697799054, -0.02, 0.906, 0.484, 192.0, 0.0, 0.0, 0.0, 0.0, 0.0, 0.0, 0.0, 0.0, 0.0, 1.654155911425786E9, 0.0, 2022-06-02 09:45:11.425
183.0, 27927.543571894596, -3497.4668618997175, -60546.62889798032, -35444.07760430308, -11046.768551679677, -34693.61778421614, -4493.237077383647, -26303.421116283076, -0.02, 0.906, 0.484, 192.0, 0.0, 0.0, 0.0, 0.0, 0.0, 0.0, 0.0, 0.0, 0.0, 1.6541559114257913E9, 0.0, 2022-06-02 09:45:11.425
184.0, 27906.95761525126, -3469.348367374941, -60530.9379733727, -35430.48774367425, -11028.283659015138, -34679.62559218712, -4487.2468098696245, -26287.752543419905, -0.02, 0.906, 0.484, 192.0, 0.0, 0.0, 0.0, 0.0, 0.0, 0.0, 0.0, 0.0, 0.0, 1.6541559114257965E9, 0.0, 2022-06-02 09:45:11.425
185.0, 27878.794417237572, -3472.3658528764076, -60534.64836295228, -35431.98531055276, -11029.110673559986, -34680.00557184286, -4516.237022428158, -26283.215139295477, -0.032, 0.906, 0.486, 192.0, 255.0, 0.0, 28.0, 80.0, 15.0, 48.0, 0.0, 0.0, 0.0, 1.6541559114258015E9, 0.0, 2022-06-02 09:45:11.425
186.0, 27869.07140839951, -3487.4309286392845, -60547.09828461389, -35445.932799092865, -11039.28071728715, -34694.19892957198, -4521.556737608521, -26307.35502330721, -0.032, 0.906, 0.486, 192.0, 0.0, 0.0, 0.0, 0.0, 0.0, 0.0, 0.0, 0.0, 0.0, 1.6541559114258063E9, 0.0, 2022-06-02 09:45:11.425
187.0, 27844.931524387783, -3478.490230857162, -60544.75135144608, -35444.323473492084, -11046.410923768393, -34696.657621462065, -4518.427493384778, -26331.15963115211, -0.032, 0.906, 0.486, 192.0, 0.0, 0.0, 0.0, 0.0, 0.0, 0.0, 0.0, 0.0, 0.0, 1.6541559114258118E9, 0.0, 2022-06-02 09:45:11.425
188.0, 27864.265783341623, -3463.2016376497318, -60535.609487963855, -35433.75109836472, -11039.906566131898, -34684.74414166738, -4496.3439698629345, -26269.58057517774, -0.032, 0.906, 0.486, 192.0, 0.0, 0.0, 0.0, 0.0, 0.0, 0.0, 0.0, 0.0, 0.0, 1.6541559114258168E9, 0.0, 2022-06-02 09:45:11.425
189.0, 27911.24915018668, -3441.4980937836285, -60525.26063028105, -35423.424592426374, -11023.343923490516, -34673.501214206364, -4465.096231114416, -26254.224926736944, -0.032, 0.906, 0.486, 192.0, 0.0, 0.0, 0.0, 0.0, 0.0, 0.0, 0.0, 0.0, 0.0, 1.6541559114258225E9, 0.0, 2022-06-02 09:45:11.425
190.0, 27864.75752171964, -3461.704070771226, -60530.80386290597, -35429.45956342931, -11023.567440935069, -34677.03278983031, -4476.808545208996, -26288.512502731384, -0.032, 0.906, 0.486, 192.0, 0.0, 0.0, 0.0, 0.0, 0.0, 0.0, 0.0, 0.0, 0.0, 1.6541559114258275E9, 0.0, 2022-06-02 09:45:11.425
191.0, 27872.915908445826, -3473.5951988214492, -60547.008877636064, -35438.24379900024, -11038.565461464581, -34689.661525447555, -4497.595667552432, -26301.990604637936, -0.032, 0.906, 0.486, 192.0, 0.0, 0.0, 0.0, 0.0, 0.0, 0.0, 0.0, 0.0, 0.0, 1.6541559114258325E9, 0.0, 2022-06-02 09:45:11.425
192.0, 27858.74490246116, -3436.6254134923715, -60560.017592909055, -35447.273903760186, -11058.614976240991, -34699.85392091917, -4522.339048664457, -26311.49009603144, -0.032, 0.906, 0.486, 192.0, 0.0, 0.0, 0.0, 0.0, 0.0, 0.0, 0.0, 0.0, 0.0, 1.6541559114258397E9, 0.0, 2022-06-02 09:45:11.425
193.0, 27853.805166936538, -3459.9159312148013, -60541.06331361095, -35428.878418073466, -11040.599470210012, -34678.329191008714, -4513.197185182236, -26288.02076435337, -0.032, 0.906, 0.486, 192.0, 0.0, 0.0, 0.0, 0.0, 0.0, 0.0, 0.0, 0.0, 0.0, 1.654155911425845E9, 0.0, 2022-06-02 09:45:11.425
194.0, 27809.25814023711, -3484.1005187154437, -60539.74456068809, -35429.34780470703, -11038.654868442401, -34677.16690029704, -4523.568394609499, -26283.72922941795, -0.032, 0.906, 0.486, 192.0, 0.0, 0.0, 0.0, 0.0, 0.0, 0.0, 0.0, 0.0, 0.0, 1.6541559114258497E9, 0.0, 2022-06-02 09:45:11.425
195.0, 27818.2658932526, -3482.9382280037676, -60551.36746780485, -35442.73649963576, -11051.03773487064, -34687.426351002025, -4539.393429683856, -26294.18984582303, -0.046, 0.896, 0.49, 192.0, 254.0, 144.0, 28.0, 0.0, 15.0, 80.0, 0.0, 0.0, 0.0, 1.6541559114258547E9, 0.0, 2022-06-02 09:45:11.425
196.0, 27837.734262673173, -3498.316228189019, -60563.929148188734, -35462.40603475643, -11055.37397329497, -34709.71104022396, -4538.365249438912, -26339.809756256316, -0.046, 0.896, 0.49, 192.0, 0.0, 0.0, 0.0, 0.0, 0.0, 0.0, 0.0, 0.0, 0.0, 1.65415591142586E9, 0.0, 2022-06-02 09:45:11.425
197.0, 27790.661488850295, -3502.9430392912677, -60562.096305143394, -35466.719921436306, -11063.867636187988, -34715.388383315614, -4533.403162169834, -26336.144070165643, -0.046, 0.896, 0.49, 192.0, 0.0, 0.0, 0.0, 0.0, 0.0, 0.0, 0.0, 0.0, 0.0, 1.654155911425865E9, 0.0, 2022-06-02 09:45:11.425
198.0, 27753.803462243493, -3490.4931176296614, -60540.01278162155, -35448.167973538395, -11055.485732017247, -34694.64596446109, -4517.198147439736, -26284.73505791844, -0.046, 0.896, 0.49, 192.0, 0.0, 0.0, 0.0, 0.0, 0.0, 0.0, 0.0, 0.0, 0.0, 1.65415591142587E9, 0.0, 2022-06-02 09:45:11.425
199.0, 27777.362200899388, -3471.382376120374, -60536.01181936405, -35442.44592695784, -11050.434237770349, -34685.36999051213, -4506.983400223661, -26290.01006960989, -0.046, 0.896, 0.49, 192.0, 0.0, 0.0, 0.0, 0.0, 0.0, 0.0, 0.0, 0.0, 0.0, 1.6541559114258752E9, 0.0, 2022-06-02 09:45:11.425
200.0, 27805.771268102082, -3462.6651957828044, -60530.80386290597, -35436.25449374372, -11041.694705688324, -34682.21839454394, -4526.675287088787, -26308.472610529974, -0.046, 0.896, 0.49, 192.0, 0.0, 0.0, 0.0, 0.0, 0.0, 0.0, 0.0, 0.0, 0.0, 1.6541559114258804E9, 0.0, 2022-06-02 09:45:11.425
201.0, 27788.292203938032, -3490.4260623962955, -60539.811615921455, -35450.35844449502, -11047.75202843571, -34697.708153451465, -4517.444016628744, -26352.1702709401, -0.046, 0.896, 0.49, 192.0, 0.0, 0.0, 0.0, 0.0, 0.0, 0.0, 0.0, 0.0, 0.0, 1.6541559114258854E9, 0.0, 2022-06-02 09:45:11.425
202.0, 27769.002648473102, -3494.0246932536, -60545.488959013106, -35457.28748527616, -11054.6587174724, -34702.26790932035, -4506.245792656636, -26326.376357838675, -0.046, 0.896, 0.49, 192.0, 0.0, 0.0, 0.0, 0.0, 0.0, 0.0, 0.0, 0.0, 0.0, 1.6541559114258904E9, 0.0, 2022-06-02 09:45:11.425
203.0, 27819.674053153285, -3475.4056901223294, -60541.71151420016, -35443.9658455808, -11055.262214572695, -34685.68291493451, -4531.61502261341, -26285.070334085267, -0.046, 0.896, 0.49, 192.0, 0.0, 0.0, 0.0, 0.0, 0.0, 0.0, 0.0, 0.0, 0.0, 1.6541559114258957E9, 0.0, 2022-06-02 09:45:11.425
204.0, 27787.26402369309, -3464.498038828139, -60524.09833956938, -35420.831790069555, -11033.737484662233, -34662.124176278616, -4511.073769458982, -26285.740886418927, -0.046, 0.896, 0.49, 192.0, 0.0, 0.0, 0.0, 0.0, 0.0, 0.0, 0.0, 0.0, 0.0, 1.6541559114259007E9, 0.0, 2022-06-02 09:45:11.425
205.0, 27783.196006202223, -3474.645730810849, -60529.060426838456, -35428.029051784164, -11028.395417737416, -34668.91910659303, -4496.254562885113, -26282.745752661915, -0.04, 0.888, 0.49, 192.0, 254.0, 192.0, 27.0, 192.0, 15.0, 80.0, 0.0, 0.0, 0.0, 1.6541559114259057E9, 0.0, 2022-06-02 09:45:11.425
206.0, 27745.667427261764, -3482.8488210259466, -60546.114807857855, -35442.04359555765, -11045.8074266681, -34680.74317940989, -4527.815226056007, -26323.269465359386, -0.04, 0.888, 0.49, 192.0, 0.0, 0.0, 0.0, 0.0, 0.0, 0.0, 0.0, 0.0, 0.0, 1.6541559114259107E9, 0.0, 2022-06-02 09:45:11.425
207.0, 27757.02211344506, -3492.6165333529157, -60558.832950452925, -35453.57709569658, -11063.644118743434, -34693.707191193964, -4548.267072232613, -26352.907878507125, -0.04, 0.888, 0.49, 192.0, 0.0, 0.0, 0.0, 0.0, 0.0, 0.0, 0.0, 0.0, 0.0, 1.654155911425916E9, 0.0, 2022-06-02 09:45:11.425
208.0, 27739.25247660309, -3482.759414048125, -60541.51034850006, -35433.23700824225, -11046.209758068295, -34673.21064152844, -4513.84538577144, -26281.382296250144, -0.04, 0.888, 0.49, 192.0, 0.0, 0.0, 0.0, 0.0, 0.0, 0.0, 0.0, 0.0, 0.0, 1.654155911425921E9, 0.0, 2022-06-02 09:45:11.425
209.0, 27743.11932839386, -3468.320187129997, -60522.98075234661, -35408.71714457478, -11015.99019956472, -34649.2272197279, -4485.101042401915, -26262.76329311887, -0.04, 0.888, 0.49, 192.0, 0.0, 0.0, 0.0, 0.0, 0.0, 0.0, 0.0, 0.0, 0.0, 1.6541559114259262E9, 0.0, 2022-06-02 09:45:11.425
210.0, 27746.4497383177, -3449.410611320807, -60532.52494722902, -35410.88526378694, -11021.645190911913, -34656.51388842033, -4495.8745832293735, -26288.26663354238, -0.04, 0.888, 0.49, 192.0, 0.0, 0.0, 0.0, 0.0, 0.0, 0.0, 0.0, 0.0, 0.0, 1.6541559114259312E9, 0.0, 2022-06-02 09:45:11.425
211.0, 27714.889075146806, -3474.958655233223, -60547.724133458636, -35421.10001100302, -11029.870632871465, -34670.8860601051, -4509.106815946915, -26300.247168570422, -0.04, 0.888, 0.49, 192.0, 0.0, 0.0, 0.0, 0.0, 0.0, 0.0, 0.0, 0.0, 0.0, 1.6541559114259365E9, 0.0, 2022-06-02 09:45:11.425
212.0, 27706.90950237626, -3473.1258121878877, -60559.101171386385, -35428.56549365109, -11043.929880133854, -34676.60810668566, -4525.937679521761, -26307.91381691859, -0.04, 0.888, 0.49, 192.0, 0.0, 0.0, 0.0, 0.0, 0.0, 0.0, 0.0, 0.0, 0.0, 1.6541559114259415E9, 0.0, 2022-06-02 09:45:11.425
213.0, 27749.69074126372, -3439.6205472493825, -60547.94765090319, -35416.38379292295, -11035.65973468539, -34661.78890011179, -4515.879394516873, -26289.026592853857, -0.04, 0.888, 0.49, 192.0, 0.0, 0.0, 0.0, 0.0, 0.0, 0.0, 0.0, 0.0, 0.0, 1.6541559114259467E9, 0.0, 2022-06-02 09:45:11.425
214.0, 27787.241671948635, -3442.928605428768, -60535.00599086357, -35402.7045253163, -11019.007685066186, -34650.83654532868, -4493.617057039387, -26272.262784512375, -0.04, 0.888, 0.49, 192.0, 0.0, 0.0, 0.0, 0.0, 0.0, 0.0, 0.0, 0.0, 0.0, 1.6541559114259536E9, 0.0, 2022-06-02 09:45:11.425
215.0, 27716.744269936597, -3450.2599776101088, -60540.52687174403, -35406.9066532739, -11018.605353665991, -34658.10086227666, -4504.591763566943, -26283.952746862502, -0.042, 0.894, 0.502, 192.0, 254.0, 176.0, 27.0, 240.0, 15.0, 176.0, 0.0, 0.0, 0.0, 1.6541559114259589E9, 0.0, 2022-06-02 09:45:11.425
216.0, 27715.76079318056, -3482.424137881296, -60568.89123545781, -35432.521752419685, -11044.846301656522, -34680.74317940989, -4558.258302004136, -26317.59212226774, -0.042, 0.894, 0.502, 192.0, 0.0, 0.0, 0.0, 0.0, 0.0, 0.0, 0.0, 0.0, 0.0, 1.6541559114259636E9, 0.0, 2022-06-02 09:45:11.425
217.0, 27773.11536945288, -3473.1705156767985, -60574.52387506055, -35435.516886176694, -11058.346755307526, -34683.514795722345, -4553.13975252387, -26300.940072648536, -0.042, 0.894, 0.502, 192.0, 0.0, 0.0, 0.0, 0.0, 0.0, 0.0, 0.0, 0.0, 0.0, 1.654155911425969E9, 0.0, 2022-06-02 09:45:11.425
218.0, 27749.087244163424, -3460.4523730817286, -60539.27517405453, -35404.51501661718, -11031.748179405711, -34656.35742620914, -4492.343007605435, -26273.49213045742, -0.042, 0.894, 0.502, 192.0, 0.0, 0.0, 0.0, 0.0, 0.0, 0.0, 0.0, 0.0, 0.0, 1.654155911425974E9, 0.0, 2022-06-02 09:45:11.425
219.0, 27681.093237530382, -3445.4543525522176, -60530.33447627241, -35391.57335657756, -11018.89592634391, -34646.14267899307, -4496.701597774219, -26275.01204908038, -0.042, 0.894, 0.502, 192.0, 0.0, 0.0, 0.0, 0.0, 0.0, 0.0, 0.0, 0.0, 0.0, 1.654155911425979E9, 0.0, 2022-06-02 09:45:11.425
220.0, 27698.68406041671, -3461.614663793405, -60550.36163930436, -35410.12530447546, -11034.98918235173, -34662.52650767881, -4527.167025466803, -26294.458066756495, -0.042, 0.894, 0.502, 192.0, 0.0, 0.0, 0.0, 0.0, 0.0, 0.0, 0.0, 0.0, 0.0, 1.654155911425984E9, 0.0, 2022-06-02 09:45:11.425
221.0, 27665.514071645033, -3454.417402078796, -60551.94861316069, -35418.5072086462, -11031.390551494427, -34670.506080449355, -4504.480004844667, -26310.43956404204, -0.042, 0.894, 0.502, 192.0, 0.0, 0.0, 0.0, 0.0, 0.0, 0.0, 0.0, 0.0, 0.0, 1.6541559114259892E9, 0.0, 2022-06-02 09:45:11.425
222.0, 27643.877583012294, -3454.8420852234467, -60552.6415172388, -35414.39448766643, -11035.145644562917, -34672.94242059498, -4513.957144493716, -26313.09942163222, -0.042, 0.894, 0.502, 192.0, 0.0, 0.0, 0.0, 0.0, 0.0, 0.0, 0.0, 0.0, 0.0, 1.6541559114259944E9, 0.0, 2022-06-02 09:45:11.425
223.0, 27659.05441749745, -3474.0422337105556, -60544.95251714618, -35400.31288865959, -11029.602411938002, -34661.766548367326, -4516.438188128256, -26272.57570893475, -0.042, 0.894, 0.502, 192.0, 0.0, 0.0, 0.0, 0.0, 0.0, 0.0, 0.0, 0.0, 0.0, 1.6541559114260015E9, 0.0, 2022-06-02 09:45:11.426
224.0, 27704.38375525281, -3465.0121289506114, -60534.24603155209, -35386.521862330665, -11013.285638485628, -34644.53335339229, -4496.142804162837, -26244.85954581017, -0.042, 0.894, 0.502, 192.0, 0.0, 0.0, 0.0, 0.0, 0.0, 0.0, 0.0, 0.0, 0.0, 1.6541559114260068E9, 0.0, 2022-06-02 09:45:11.426
225.0, 27692.76084813605, -3452.6069107779163, -60544.281964812515, -35397.76478979168, -11017.107786787485, -34653.98814129688, -4491.717158760686, -26286.67965968605, -0.038, 0.892, 0.508, 192.0, 254.0, 208.0, 27.0, 224.0, 15.0, 224.0, 0.0, 0.0, 0.0, 1.6541559114260118E9, 0.0, 2022-06-02 09:45:11.426
226.0, 27636.345045130856, -3483.45231812624, -60560.39757256479, -35411.466409142784, -11031.61406893898, -34669.29908624877, -4526.049438244037, -26308.718479718984, -0.038, 0.892, 0.508, 192.0, 0.0, 0.0, 0.0, 0.0, 0.0, 0.0, 0.0, 0.0, 0.0, 1.6541559114260168E9, 0.0, 2022-06-02 09:45:11.426
227.0, 27695.57716793742, -3482.7817657925807, -60566.11961914535, -35411.71227833179, -11036.598507952513, -34669.321437993225, -4526.965859766706, -26306.639767484638, -0.038, 0.892, 0.508, 192.0, 0.0, 0.0, 0.0, 0.0, 0.0, 0.0, 0.0, 0.0, 0.0, 1.654155911426022E9, 0.0, 2022-06-02 09:45:11.426
228.0, 27596.55894000041, -3444.0685443959887, -60546.98652589161, -35394.45673161229, -11025.355580491494, -34649.13781275008, -4494.600533795421, -26285.29385152982, -0.038, 0.892, 0.508, 192.0, 0.0, 0.0, 0.0, 0.0, 0.0, 0.0, 0.0, 0.0, 0.0, 1.6541559114260273E9, 0.0, 2022-06-02 09:45:11.426
229.0, 27632.008806706526, -3446.6613467528045, -60533.798996662976, -35382.20797565079, -11008.949400061298, -34636.50907713283, -4485.615132524387, -26284.891520129626, -0.038, 0.892, 0.508, 192.0, 0.0, 0.0, 0.0, 0.0, 0.0, 0.0, 0.0, 0.0, 0.0, 1.654155911426032E9, 0.0, 2022-06-02 09:45:11.426
230.0, 27618.46364956661, -3462.1064021714215, -60540.75038918858, -35388.86879549847, -11006.602466893492, -34637.358443422134, -4487.3585685919015, -26277.269575270366, -0.038, 0.892, 0.508, 192.0, 0.0, 0.0, 0.0, 0.0, 0.0, 0.0, 0.0, 0.0, 0.0, 1.6541559114260373E9, 0.0, 2022-06-02 09:45:11.426
231.0, 27588.713477696598, -3464.4309835947734, -60557.17892136323, -35401.94456600482, -11021.689894400823, -34649.450737172454, -4511.520804348088, -26286.2549765414, -0.038, 0.892, 0.508, 192.0, 0.0, 0.0, 0.0, 0.0, 0.0, 0.0, 0.0, 0.0, 0.0, 1.6541559114260423E9, 0.0, 2022-06-02 09:45:11.426
232.0, 27622.017576935003, -3443.7556199736146, -60555.1449126178, -35399.642336325924, -11027.61310668148, -34644.980388281394, -4528.262260945113, -26287.037287597333, -0.038, 0.892, 0.508, 192.0, 0.0, 0.0, 0.0, 0.0, 0.0, 0.0, 0.0, 0.0, 0.0, 1.6541559114260473E9, 0.0, 2022-06-02 09:45:11.426
233.0, 27593.161474843204, -3443.420343806785, -60547.05358112497, -35388.93585073183, -11022.47220545676, -34636.039690499274, -4500.814318753996, -26277.58249969274, -0.038, 0.892, 0.508, 192.0, 0.0, 0.0, 0.0, 0.0, 0.0, 0.0, 0.0, 0.0, 0.0, 1.6541559114260523E9, 0.0, 2022-06-02 09:45:11.426
234.0, 27597.520065011988, -3427.5059017546064, -60538.42580776523, -35385.98542046373, -11013.911487330377, -34632.41870789751, -4481.681225500253, -26265.132578031134, -0.038, 0.892, 0.508, 192.0, 0.0, 0.0, 0.0, 0.0, 0.0, 0.0, 0.0, 0.0, 0.0, 1.6541559114260576E9, 0.0, 2022-06-02 09:45:11.426
235.0, 27600.89517842474, -3416.419436504774, -60535.94476413069, -35386.924193730854, -11011.631609395936, -34627.635434584074, -4520.260336430113, -26275.369676991664, -0.054, 0.892, 0.5, 192.0, 254.0, 80.0, 27.0, 224.0, 15.0, 160.0, 0.0, 0.0, 0.0, 1.6541559114260652E9, 0.0, 2022-06-02 09:45:11.426
236.0, 27556.25874474749, -3465.123887672888, -60552.663868983254, -35405.78906605113, -11025.08735955803, -34643.63928361407, -4545.763676853619, -26331.740776507948, -0.054, 0.892, 0.5, 192.0, 0.0, 0.0, 0.0, 0.0, 0.0, 0.0, 0.0, 0.0, 0.0, 1.6541559114260705E9, 0.0, 2022-06-02 09:45:11.426
237.0, 27529.25783744548, -3477.842030267958, -60564.10796214437, -35417.143752234435, -11039.548938220614, -34663.82290885722, -4538.700525605742, -26305.365718050685, -0.054, 0.892, 0.5, 192.0, 0.0, 0.0, 0.0, 0.0, 0.0, 0.0, 0.0, 0.0, 0.0, 1.6541559114260755E9, 0.0, 2022-06-02 09:45:11.426
238.0, 27495.953738207074, -3486.9168385168123, -60550.920432915744, -35394.45673161229, -11034.631554440446, -34642.968731280416, -4524.976554510183, -26269.11118854418, -0.054, 0.892, 0.5, 192.0, 0.0, 0.0, 0.0, 0.0, 0.0, 0.0, 0.0, 0.0, 0.0, 1.6541559114260805E9, 0.0, 2022-06-02 09:45:11.426
239.0, 27530.73305257953, -3474.265751155109, -60531.60852570636, -35379.83869073852, -11000.031054023631, -34629.80355379624, -4448.332422772935, -26291.038249854835, -0.054, 0.892, 0.5, 192.0, 0.0, 0.0, 0.0, 0.0, 0.0, 0.0, 0.0, 0.0, 0.0, 1.6541559114260857E9, 0.0, 2022-06-02 09:45:11.426
240.0, 27539.60669512829, -3463.8498382389357, -60523.45013898017, -35376.12830115894, -10991.55974287507, -34628.19422819546, -4453.205103064192, -26268.373580977153, -0.054, 0.892, 0.5, 192.0, 0.0, 0.0, 0.0, 0.0, 0.0, 0.0, 0.0, 0.0, 0.0, 1.6541559114260907E9, 0.0, 2022-06-02 09:45:11.426
241.0, 27491.818665482842, -3463.4028033498294, -60531.005028606065, -35384.71137102978, -11001.103937757485, -34636.62083585511, -4487.157402891803, -26273.782703135337, -0.054, 0.892, 0.5, 192.0, 0.0, 0.0, 0.0, 0.0, 0.0, 0.0, 0.0, 0.0, 0.0, 1.6541559119047537E9, 0.0, 2022-06-02 09:45:11.904
242.0, 27497.49600857449, -3482.379434392385, -60546.42773228023, -35402.7045253163, -11022.718074645767, -34649.92012380602, -4508.592725824443, -26294.0557353563, -0.054, 0.892, 0.5, 192.0, 0.0, 0.0, 0.0, 0.0, 0.0, 0.0, 0.0, 0.0, 0.0, 1.654155911904818E9, 0.0, 2022-06-02 09:45:11.904
243.0, 27486.610709024753, -3457.0996114134327, -60528.54633671598, -35386.14188267492, -11012.458623940782, -34627.88130377309, -4489.325522103968, -26276.643726425616, -0.054, 0.892, 0.5, 192.0, 0.0, 0.0, 0.0, 0.0, 0.0, 0.0, 0.0, 0.0, 0.0, 1.654155911904879E9, 0.0, 2022-06-02 09:45:11.904
244.0, 27480.285165343903, -3434.9490326582236, -60519.5832871894, -35379.14578666041, -11004.032016281131, -34620.28171065828, -4483.826992967963, -26269.401761222096, -0.054, 0.892, 0.5, 192.0, 0.0, 0.0, 0.0, 0.0, 0.0, 0.0, 0.0, 0.0, 0.0, 1.654155911904948E9, 0.0, 2022-06-02 09:45:11.904
245.0, 27410.547722643343, -3485.575733849494, -60527.83108089341, -35387.706504786795, -11002.199173235795, -34629.08829797367, -4486.710368002698, -26281.359944505686, -0.034, 0.872, 0.502, 192.0, 254.0, 240.0, 27.0, 64.0, 15.0, 176.0, 0.0, 0.0, 0.0, 1.65415591190498E9, 0.0, 2022-06-02 09:45:11.904
246.0, 27425.031653050384, -3508.9333068052897, -60549.26640382605, -35413.14278997693, -11019.097092044007, -34651.909429062536, -4509.710313047208, -26303.577578494263, -0.034, 0.872, 0.502, 192.0, 0.0, 0.0, 0.0, 0.0, 0.0, 0.0, 0.0, 0.0, 0.0, 1.6541559119050186E9, 0.0, 2022-06-02 09:45:11.905
247.0, 27380.015239717395, -3520.7573796221473, -60556.50836902957, -35421.0106040252, -11035.123292818464, -34658.86082158814, -4520.03681898556, -26296.29090980183, -0.034, 0.872, 0.502, 192.0, 0.0, 0.0, 0.0, 0.0, 0.0, 0.0, 0.0, 0.0, 0.0, 1.6541559119050386E9, 0.0, 2022-06-02 09:45:11.905
248.0, 27359.921021452075, -3511.704923117748, -60540.6386304663, -35403.73270556125, -11033.46926372877, -34643.97455978091, -4508.637429313353, -26249.598115634697, -0.034, 0.872, 0.502, 192.0, 0.0, 0.0, 0.0, 0.0, 0.0, 0.0, 0.0, 0.0, 0.0, 1.6541559119050455E9, 0.0, 2022-06-02 09:45:11.905
249.0, 27404.93743478506, -3499.8361468119797, -60523.40543549126, -35388.66762979837, -11012.346865218506, -34626.58490259467, -4480.340120832935, -26256.840080838214, -0.034, 0.872, 0.502, 192.0, 0.0, 0.0, 0.0, 0.0, 0.0, 0.0, 0.0, 0.0, 0.0, 1.6541559119050512E9, 0.0, 2022-06-02 09:45:11.905
250.0, 27417.812039591317, -3430.277518067064, -60534.0895693409, -35405.8561212845, -11017.666580398867, -34637.514905633325, -4484.922228446273, -26272.039267067823, -0.034, 0.872, 0.502, 192.0, 0.0, 0.0, 0.0, 0.0, 0.0, 0.0, 0.0, 0.0, 0.0, 1.6541559119050581E9, 0.0, 2022-06-02 09:45:11.905
251.0, 27337.032835129838, -3454.1044776564217, -60537.82231066493, -35412.62869985446, -11025.55674619159, -34642.678158602495, -4496.925115218773, -26260.30460122879, -0.034, 0.872, 0.502, 192.0, 0.0, 0.0, 0.0, 0.0, 0.0, 0.0, 0.0, 0.0, 0.0, 1.654155911905064E9, 0.0, 2022-06-02 09:45:11.905
252.0, 27264.747293561377, -3541.9021298768675, -60535.408322263764, -35406.370211406975, -11037.336115519538, -34639.30304518974, -4526.317659177502, -26264.707894886484, -0.034, 0.872, 0.502, 192.0, 0.0, 0.0, 0.0, 0.0, 0.0, 0.0, 0.0, 0.0, 0.0, 1.6541559119050696E9, 0.0, 2022-06-02 09:45:11.905
253.0, 27261.30512491526, -3517.3599144649406, -60532.971982118135, -35408.49362713023, -11040.443007998825, -34639.21363821193, -4524.4177608988, -26261.86922334066, -0.034, 0.872, 0.502, 192.0, 0.0, 0.0, 0.0, 0.0, 0.0, 0.0, 0.0, 0.0, 0.0, 1.6541559119050758E9, 0.0, 2022-06-02 09:45:11.905
254.0, 27261.662752826545, -3487.632094339382, -60516.65520866576, -35400.558757848594, -11018.98533332173, -34627.456620628436, -4487.917362203284, -26245.775967332836, -0.034, 0.872, 0.502, 192.0, 0.0, 0.0, 0.0, 0.0, 0.0, 0.0, 0.0, 0.0, 0.0, 1.6541559119050817E9, 0.0, 2022-06-02 09:45:11.905
255.0, 27280.25940421336, -3469.3036638860303, -60512.631894663806, -35398.16712119187, -11008.32355121655, -34619.23117866888, -4462.816353179974, -26244.65838011007, -0.032, 0.876, 0.506, 192.0, 255.0, 0.0, 27.0, 96.0, 15.0, 208.0, 0.0, 0.0, 0.0, 1.6541559119050877E9, 0.0, 2022-06-02 09:45:11.905
0.0, 27255.49367135688, -3450.0141084211004, -60535.29656354148, -35424.00573778221, -11023.835661868532, -34641.47116440191, -4495.584010551454, -26266.786607120826, -0.032, 0.876, 0.506, 192.0, 0.0, 0.0, 0.0, 0.0, 0.0, 0.0, 0.0, 0.0, 0.0, 1.6541559119051068E9, 0.0, 2022-06-02 09:45:11.905
1.0, 27193.825208404687, -3440.291099583042, -60551.836854438414, -35434.7122233763, -11041.292374288127, -34661.00658905585, -4505.955219978717, -26330.086747418256, -0.032, 0.876, 0.506, 192.0, 0.0, 0.0, 0.0, 0.0, 0.0, 0.0, 0.0, 0.0, 0.0, 1.6541559119051125E9, 0.0, 2022-06-02 09:45:11.905
2.0, 27158.04006553174, -3447.6895269977485, -60536.16828157524, -35430.39833669643, -11028.708342159789, -34649.16016449453, -4476.74148997563, -26287.529025975353, -0.032, 0.876, 0.506, 192.0, 0.0, 0.0, 0.0, 0.0, 0.0, 0.0, 0.0, 0.0, 0.0, 1.6541559119051175E9, 0.0, 2022-06-02 09:45:11.905
3.0, 27144.31609443618, -3481.485364614173, -60526.31116227045, -35417.92606329037, -11014.425577452848, -34633.75981256483, -4501.998961210127, -26247.34058944471, -0.032, 0.876, 0.506, 192.0, 0.0, 0.0, 0.0, 0.0, 0.0, 0.0, 0.0, 0.0, 0.0, 1.654155911905123E9, 0.0, 2022-06-02 09:45:11.905
4.0, 27139.644579845022, -3486.5592106055274, -60532.547298973484, -35417.25551095671, -11024.975600835753, -34634.497420131855, -4523.255470187124, -26246.15594698858, -0.032, 0.876, 0.506, 192.0, 0.0, 0.0, 0.0, 0.0, 0.0, 0.0, 0.0, 0.0, 0.0, 1.6541559119051285E9, 0.0, 2022-06-02 09:45:11.905
5.0, 27112.487210331823, -3474.1763441772873, -60544.25961306806, -35431.180647752364, -11046.94736563532, -34651.7306151069, -4498.869716986384, -26268.507691443887, -0.032, 0.876, 0.506, 192.0, 0.0, 0.0, 0.0, 0.0, 0.0, 0.0, 0.0, 0.0, 0.0, 1.6541559119051335E9, 0.0, 2022-06-02 09:45:11.905
6.0, 27126.61351282758, -3446.5048845416172, -60539.23047056562, -35430.21952274079, -11047.03677261314, -34648.86959181662, -4480.116603388382, -26291.261767299387, -0.032, 0.876, 0.506, 192.0, 0.0, 0.0, 0.0, 0.0, 0.0, 0.0, 0.0, 0.0, 0.0, 1.6541559119051392E9, 0.0, 2022-06-02 09:45:11.905
7.0, 27127.731100050343, -3420.7109714401927, -60515.492917954085, -35414.32743243306, -11031.055275327597, -34626.00375723884, -4485.3692633353785, -26282.656345684096, -0.032, 0.876, 0.506, 192.0, 0.0, 0.0, 0.0, 0.0, 0.0, 0.0, 0.0, 0.0, 0.0, 1.6541559119051447E9, 0.0, 2022-06-02 09:45:11.905
8.0, 27110.78847775322, -3409.5350992125395, -60507.75921437255, -35417.99311852374, -11020.572307178058, -34626.76371655032, -4485.41396682429, -26320.564904280294, -0.032, 0.876, 0.506, 192.0, 0.0, 0.0, 0.0, 0.0, 0.0, 0.0, 0.0, 0.0, 0.0, 1.65415591190515E9, 0.0, 2022-06-02 09:45:11.905
9.0, 27084.525178018237, -3409.9374306127347, -60511.581362674406, -35424.65393837141, -11013.93383907483, -34635.27973118779, -4472.964045162684, -26282.164607306077, -0.038, 0.876, 0.512, 192.0, 254.0, 208.0, 27.0, 96.0, 16.0, 0.0, 0.0, 0.0, 0.0, 1.6541559119051557E9, 0.0, 2022-06-02 09:45:11.905
10.0, 27079.65249772698, -3401.7566921420926, -60523.941877358186, -35429.16899075139, -11018.940629832821, -34631.09995497465, -4488.654969770309, -26225.10060371168, -0.038, 0.876, 0.512, 192.0, 0.0, 0.0, 0.0, 0.0, 0.0, 0.0, 0.0, 0.0, 0.0, 1.654155911905161E9, 0.0, 2022-06-02 09:45:11.905
11.0, 27075.584480236113, -3397.1745845287546, -60530.96032511716, -35428.27492097318, -11027.61310668148, -34625.57907409419, -4515.946449750239, -26272.1510257901, -0.038, 0.876, 0.512, 192.0, 0.0, 0.0, 0.0, 0.0, 0.0, 0.0, 0.0, 0.0, 0.0, 1.6541559119051664E9, 0.0, 2022-06-02 09:45:11.905
12.0, 27066.174395820428, -3390.7149303811707, -60517.16929878823, -35414.14861847742, -11015.006722808686, -34608.68115528597, -4493.035911683549, -26278.38716249313, -0.038, 0.876, 0.512, 192.0, 0.0, 0.0, 0.0, 0.0, 0.0, 0.0, 0.0, 0.0, 0.0, 1.654155911905172E9, 0.0, 2022-06-02 09:45:11.905
13.0, 27053.29979101417, -3402.360189242386, -60520.16443254524, -35421.50234240322, -11014.917315830866, -34614.157332677525, -4492.924152961273, -26277.403685737096, -0.038, 0.876, 0.512, 192.0, 0.0, 0.0, 0.0, 0.0, 0.0, 0.0, 0.0, 0.0, 0.0, 1.6541559119051776E9, 0.0, 2022-06-02 09:45:11.905
14.0, 27068.92366038843, -3396.2581630060868, -60522.84664187988, -35429.68308087386, -11008.70353087229, -34620.460524613925, -4493.393539594834, -26277.426037481553, -0.038, 0.876, 0.512, 192.0, 0.0, 0.0, 0.0, 0.0, 0.0, 0.0, 0.0, 0.0, 0.0, 1.6541559119051828E9, 0.0, 2022-06-02 09:45:11.905
15.0, 27066.64378245399, -3409.356285256897, -60538.22464206513, -35446.37983398198, -11021.578135678546, -34634.072736987204, -4517.220499184192, -26289.473627742962, -0.038, 0.876, 0.512, 192.0, 0.0, 0.0, 0.0, 0.0, 0.0, 0.0, 0.0, 0.0, 0.0, 1.654155911905188E9, 0.0, 2022-06-02 09:45:11.905
16.0, 27044.15792753195, -3405.221212532665, -60542.15854908926, -35453.711206163316, -11037.760798664189, -34640.21946671241, -4529.938641779261, -26296.49207550193, -0.038, 0.876, 0.512, 192.0, 0.0, 0.0, 0.0, 0.0, 0.0, 0.0, 0.0, 0.0, 0.0, 1.6541559119051936E9, 0.0, 2022-06-02 09:45:11.905
17.0, 27027.59528489057, -3390.7372821256263, -60515.9846563321, -35434.64516814294, -11027.478996214748, -34623.27684441529, -4514.135958449359, -26284.176264307054, -0.038, 0.876, 0.512, 192.0, 0.0, 0.0, 0.0, 0.0, 0.0, 0.0, 0.0, 0.0, 0.0, 1.6541559119051995E9, 0.0, 2022-06-02 09:45:11.905
18.0, 27049.455290967857, -3359.310729421464, -60499.31025496844, -35430.33128146306, -11012.592734407513, -34613.8220565107, -4502.960086221706, -26261.28807798482, -0.06, 0.872, 0.51, 192.0, 254.0, 32.0, 27.0, 64.0, 15.0, 240.0, 0.0, 0.0, 0.0, 1.654155911905205E9, 0.0, 2022-06-02 09:45:11.905
19.0, 27075.83034942512, -3364.451630646185, -60502.81947884792, -35439.33903447855, -11013.218583252261, -34623.321547904205, -4506.871641501384, -26266.183110020535, -0.06, 0.872, 0.51, 192.0, 0.0, 0.0, 0.0, 0.0, 0.0, 0.0, 0.0, 0.0, 0.0, 1.6541559119052105E9, 0.0, 2022-06-02 09:45:11.905
20.0, 27053.277439269717, -3402.5390031980282, -60505.30052248246, -35438.9143513339, -11021.645190911913, -34633.424536398, -4524.730685321175, -26276.95665084799, -0.06, 0.872, 0.51, 192.0, 0.0, 0.0, 0.0, 0.0, 0.0, 0.0, 0.0, 0.0, 0.0, 1.654155911905216E9, 0.0, 2022-06-02 09:45:11.905
21.0, 27002.53897935617, -3426.053038365011, -60506.37340621631, -35446.44688921534, -11035.145644562917, -34646.61206562663, -4528.262260945113, -26282.276366028353, -0.06, 0.872, 0.51, 192.0, 0.0, 0.0, 0.0, 0.0, 0.0, 0.0, 0.0, 0.0, 0.0, 1.6541559119052217E9, 0.0, 2022-06-02 09:45:11.905
22.0, 27020.263912709226, -3393.8218228604583, -60478.41137390273, -35424.58688313805, -11021.891060100921, -34624.215617682414, -4517.4663683732, -26270.96638333397, -0.06, 0.872, 0.51, 192.0, 0.0, 0.0, 0.0, 0.0, 0.0, 0.0, 0.0, 0.0, 0.0, 1.65415591190523E9, 0.0, 2022-06-02 09:45:11.905
23.0, 27027.081194768096, -3393.0842152934333, -60475.19272270116, -35426.75500235021, -11024.260345013183, -34623.455658370935, -4534.163121481314, -26259.365827961665, -0.06, 0.872, 0.51, 192.0, 0.0, 0.0, 0.0, 0.0, 0.0, 0.0, 0.0, 0.0, 0.0, 1.6541559119052353E9, 0.0, 2022-06-02 09:45:11.905
24.0, 27034.97136056082, -3398.6274479183494, -60474.34335641186, -35426.33031920556, -11021.600487423002, -34620.63933856956, -4552.871531590406, -26267.635973410128, -0.06, 0.872, 0.51, 192.0, 0.0, 0.0, 0.0, 0.0, 0.0, 0.0, 0.0, 0.0, 0.0, 1.6541559119052408E9, 0.0, 2022-06-02 09:45:11.905
25.0, 27053.54566020318, -3382.645950632805, -60483.44051640517, -35439.517848434196, -11019.722940888756, -34638.61014111163, -4524.149539965337, -26281.359944505686, -0.06, 0.872, 0.51, 192.0, 0.0, 0.0, 0.0, 0.0, 0.0, 0.0, 0.0, 0.0, 0.0, 1.6541559119052465E9, 0.0, 2022-06-02 09:45:11.905
26.0, 27054.193860792384, -3378.1085465083775, -60474.812743045426, -35432.74526986424, -11015.341998975517, -34634.430364898486, -4502.580106565965, -26289.317165531775, -0.06, 0.872, 0.51, 192.0, 0.0, 0.0, 0.0, 0.0, 0.0, 0.0, 0.0, 0.0, 0.0, 1.654155911905252E9, 0.0, 2022-06-02 09:45:11.905
27.0, 27049.58940143459, -3394.134747282833, -60456.484312592074, -35416.8084760676, -11008.681179127834, -34616.99600422335, -4470.3935945503235, -26247.027665022335, -0.06, 0.872, 0.51, 192.0, 0.0, 0.0, 0.0, 0.0, 0.0, 0.0, 0.0, 0.0, 0.0, 1.6541559119052575E9, 0.0, 2022-06-02 09:45:11.905
28.0, 27077.149102347983, -3372.0735755054448, -60449.44351308865, -35411.22053995378, -11009.105862272485, -34609.64228029755, -4483.491716801133, -26232.744900315392, -0.066, 0.894, 0.512, 192.0, 253.0, 240.0, 27.0, 240.0, 16.0, 0.0, 0.0, 0.0, 0.0, 1.6541559119052632E9, 0.0, 2022-06-02 09:45:11.905
29.0, 27078.289041315205, -3377.0803662634335, -60460.26175740502, -35419.311871446596, -11020.907583344888, -34615.967823978404, -4526.094141732949, -26239.182202718523, -0.066, 0.894, 0.512, 192.0, 0.0, 0.0, 0.0, 0.0, 0.0, 0.0, 0.0, 0.0, 0.0, 1.654155911905269E9, 0.0, 2022-06-02 09:45:11.905
30.0, 27021.64972086546, -3387.988017557623, -60475.1256674678, -35436.09803153253, -11030.89881311641, -34636.397318410556, -4499.473214086677, -26267.613621665674, -0.066, 0.894, 0.512, 192.0, 0.0, 0.0, 0.0, 0.0, 0.0, 0.0, 0.0, 0.0, 0.0, 1.6541559119052744E9, 0.0, 2022-06-02 09:45:11.905
31.0, 27031.26097098124, -3380.2766657205425, -60472.8234377889, -35435.315720476596, -11036.41969399687, -34641.04648125726, -4483.178792378759, -26278.58832819323, -0.066, 0.894, 0.512, 192.0, 0.0, 0.0, 0.0, 0.0, 0.0, 0.0, 0.0, 0.0, 0.0, 1.65415591190528E9, 0.0, 2022-06-02 09:45:11.905
32.0, 27053.45625322536, -3394.2912094940198, -60462.16165568372, -35422.35170869252, -11033.84924338451, -34631.05525148574, -4482.441184811733, -26283.215139295477, -0.066, 0.894, 0.512, 192.0, 0.0, 0.0, 0.0, 0.0, 0.0, 0.0, 0.0, 0.0, 0.0, 1.6541559119052856E9, 0.0, 2022-06-02 09:45:11.905
33.0, 27043.7332443873, -3376.3651104408636, -60448.59414679935, -35407.219577696276, -11019.097092044007, -34617.80066702374, -4474.349853318912, -26261.422188451554, -0.066, 0.894, 0.512, 192.0, 0.0, 0.0, 0.0, 0.0, 0.0, 0.0, 0.0, 0.0, 0.0, 1.6541559119052908E9, 0.0, 2022-06-02 09:45:11.905
34.0, 27010.786773060176, -3399.8344421189363, -60469.94006275417, -35429.25839772921, -11033.066932328575, -34636.732594577385, -4495.047568684527, -26259.879918084138, -0.066, 0.894, 0.512, 192.0, 0.0, 0.0, 0.0, 0.0, 0.0, 0.0, 0.0, 0.0, 0.0, 1.6541559119052963E9, 0.0, 2022-06-02 09:45:11.905
35.0, 27016.82174406311, -3398.9403723407236, -60478.38902215827, -35437.6626536444, -11040.398304509916, -34646.12032724862, -4506.55871707901, -26269.312354244277, -0.066, 0.894, 0.512, 192.0, 0.0, 0.0, 0.0, 0.0, 0.0, 0.0, 0.0, 0.0, 0.0, 1.654155911905302E9, 0.0, 2022-06-02 09:45:11.905
36.0, 27015.905322540442, -3389.865564091869, -60485.09454549487, -35444.256418258716, -11052.08826686004, -34656.08920527568, -4509.732664791663, -26291.887616144137, -0.066, 0.894, 0.512, 192.0, 0.0, 0.0, 0.0, 0.0, 0.0, 0.0, 0.0, 0.0, 0.0, 1.6541559119053073E9, 0.0, 2022-06-02 09:45:11.905
37.0, 27048.874145612022, -3378.8238023309473, -60476.64558609076, -35433.147601264434, -11051.641231970934, -34643.54987663626, -4504.591763566943, -26278.76714214887, -0.066, 0.894, 0.512, 192.0, 0.0, 0.0, 0.0, 0.0, 0.0, 0.0, 0.0, 0.0, 0.0, 1.6541559119053135E9, 0.0, 2022-06-02 09:45:11.905
38.0, 27056.183166048908, -3380.1425552538108, -60462.139303939264, -35415.19915046682, -11038.274888786662, -34628.060117728724, -4505.374074622879, -26275.01204908038, -0.042, 0.89, 0.504, 192.0, 254.0, 176.0, 27.0, 208.0, 15.0, 192.0, 0.0, 0.0, 0.0, 1.6541559119053187E9, 0.0, 2022-06-02 09:45:11.905
39.0, 27035.39604370547, -3387.8539070908914, -60473.69515582266, -35423.46929591528, -11043.28167954465, -34635.57030386571, -4511.341990392446, -26273.223909523957, -0.042, 0.89, 0.504, 192.0, 0.0, 0.0, 0.0, 0.0, 0.0, 0.0, 0.0, 0.0, 0.0, 1.6541559119053247E9, 0.0, 2022-06-02 09:45:11.905
40.0, 26976.163920898907, -3406.159985799788, -60489.54254264147, -35440.143697278945, -11057.877368673966, -34653.47405117441, -4508.70448454672, -26283.68452592904, -0.042, 0.89, 0.504, 192.0, 0.0, 0.0, 0.0, 0.0, 0.0, 0.0, 0.0, 0.0, 0.0, 1.6541559119053302E9, 0.0, 2022-06-02 09:45:11.905
41.0, 26969.01136267321, -3416.3970847603186, -60494.19170548817, -35448.77147063869, -11068.00270891222, -34665.6334001581, -4519.858005029918, -26286.165569563578, -0.042, 0.89, 0.504, 192.0, 0.0, 0.0, 0.0, 0.0, 0.0, 0.0, 0.0, 0.0, 0.0, 1.6541559119053366E9, 0.0, 2022-06-02 09:45:11.905
42.0, 26977.661487777412, -3398.3368752404303, -60482.05470824894, -35438.10968853351, -11061.744220464734, -34655.23983898638, -4529.312792934513, -26267.837139110226, -0.042, 0.89, 0.504, 192.0, 0.0, 0.0, 0.0, 0.0, 0.0, 0.0, 0.0, 0.0, 0.0, 1.654155911905342E9, 0.0, 2022-06-02 09:45:11.905
43.0, 26995.29701415265, -3384.4340901892297, -60469.15775169823, -35426.084450016555, -11046.835606913044, -34646.746176093366, -4511.632563070365, -26280.555281705296, -0.042, 0.89, 0.504, 192.0, 0.0, 0.0, 0.0, 0.0, 0.0, 0.0, 0.0, 0.0, 0.0, 1.654155911905351E9, 0.0, 2022-06-02 09:45:11.905
44.0, 27024.622502878014, -3381.751880854593, -60464.46388536262, -35416.69671734532, -11035.056237585097, -34636.19615271046, -4485.212801124192, -26270.38523797813, -0.042, 0.89, 0.504, 192.0, 0.0, 0.0, 0.0, 0.0, 0.0, 0.0, 0.0, 0.0, 0.0, 1.6541559119053564E9, 0.0, 2022-06-02 09:45:11.905
45.0, 27014.25129345075, -3384.322331466953, -60470.85648427683, -35418.037822012644, -11040.331249276549, -34632.99985325335, -4499.875545486873, -26229.05686248027, -0.042, 0.89, 0.504, 192.0, 0.0, 0.0, 0.0, 0.0, 0.0, 0.0, 0.0, 0.0, 0.0, 1.6541559119053626E9, 0.0, 2022-06-02 09:45:11.905
46.0, 26972.833510975066, -3385.3058082229863, -60486.70387109565, -35434.7122233763, -11061.677165231367, -34653.8316790857, -4521.780255053074, -26278.320107259766, -0.042, 0.89, 0.504, 192.0, 0.0, 0.0, 0.0, 0.0, 0.0, 0.0, 0.0, 0.0, 0.0, 1.654155911905368E9, 0.0, 2022-06-02 09:45:11.905
47.0, 26970.91126095191, -3395.0064653165896, -60471.1247052103, -35419.17776097987, -11051.462418015291, -34644.287484203276, -4508.950353735728, -26277.984831092934, -0.042, 0.89, 0.504, 192.0, 0.0, 0.0, 0.0, 0.0, 0.0, 0.0, 0.0, 0.0, 0.0, 1.6541559119053736E9, 0.0, 2022-06-02 09:45:11.905
48.0, 26986.803351259634, -3387.988017557623, -60462.429876617185, -35409.63356609745, -11038.565461464581, -34636.263207943826, -4500.188469909247, -26269.267650755366, -0.04, 0.886, 0.502, 192.0, 254.0, 192.0, 27.0, 176.0, 15.0, 176.0, 0.0, 0.0, 0.0, 1.6541559119053793E9, 0.0, 2022-06-02 09:45:11.905
49.0, 26985.752819270234, -3390.0220263030565, -60468.218978431105, -35413.72393533277, -11033.46926372877, -34639.61596961212, -4508.168042679792, -26258.091778527712, -0.04, 0.886, 0.502, 192.0, 0.0, 0.0, 0.0, 0.0, 0.0, 0.0, 0.0, 0.0, 0.0, 1.6541559119053848E9, 0.0, 2022-06-02 09:45:11.905
50.0, 26974.688705764856, -3404.0365700765337, -60482.45703964914, -35427.60436863951, -11045.583909223546, -34656.13390876459, -4511.498452603633, -26259.410531450576, -0.04, 0.886, 0.502, 192.0, 0.0, 0.0, 0.0, 0.0, 0.0, 0.0, 0.0, 0.0, 0.0, 1.6541559119053905E9, 0.0, 2022-06-02 09:45:11.905
51.0, 26977.035638932663, -3412.060846335989, -60489.69900485266, -35438.668482144894, -11060.894854175433, -34668.22620251491, -4507.743359535141, -26287.931357375546, -0.04, 0.886, 0.502, 192.0, 0.0, 0.0, 0.0, 0.0, 0.0, 0.0, 0.0, 0.0, 0.0, 1.654155911905396E9, 0.0, 2022-06-02 09:45:11.905
52.0, 26968.966659184298, -3400.683808408238, -60473.78456280048, -35424.09514476003, -11052.736467449246, -34652.110594762635, -4507.676304301775, -26273.156854290588, -0.04, 0.886, 0.502, 192.0, 0.0, 0.0, 0.0, 0.0, 0.0, 0.0, 0.0, 0.0, 0.0, 1.6541559119054017E9, 0.0, 2022-06-02 09:45:11.905
53.0, 26968.363162084006, -3389.619694902861, -60458.00423121503, -35409.34299341953, -11034.743313162722, -34639.325396934204, -4495.584010551454, -26255.52132791535, -0.04, 0.886, 0.502, 192.0, 0.0, 0.0, 0.0, 0.0, 0.0, 0.0, 0.0, 0.0, 0.0, 1.6541559119054072E9, 0.0, 2022-06-02 09:45:11.905
54.0, 26988.90441523843, -3379.0473197755005, -60449.33175436637, -35401.966917749276, -11020.66171415588, -34632.753984064344, -4478.194353365226, -26252.52619415834, -0.04, 0.886, 0.502, 192.0, 0.0, 0.0, 0.0, 0.0, 0.0, 0.0, 0.0, 0.0, 0.0, 1.6541559119054134E9, 0.0, 2022-06-02 09:45:11.905
55.0, 26993.754743785234, -3392.3019042374976, -60457.020754459, -35411.53346437615, -11029.065970071075, -34640.06300450123, -4506.044626956538, -26246.75944408887, -0.04, 0.886, 0.502, 192.0, 0.0, 0.0, 0.0, 0.0, 0.0, 0.0, 0.0, 0.0, 0.0, 1.6541559119054208E9, 0.0, 2022-06-02 09:45:11.905
56.0, 26972.47588306378, -3406.450558477707, -60472.77873429999, -35423.82692382657, -11053.719944205279, -34654.368120952626, -4541.047458773549, -26271.39106647862, -0.04, 0.886, 0.502, 192.0, 0.0, 0.0, 0.0, 0.0, 0.0, 0.0, 0.0, 0.0, 0.0, 1.6541559119054265E9, 0.0, 2022-06-02 09:45:11.905
57.0, 26976.946231954844, -3394.425319960752, -60460.23940566056, -35406.19139745133, -11046.097999346019, -34642.43228941349, -4519.925060263284, -26260.997505306903, -0.04, 0.886, 0.502, 192.0, 0.0, 0.0, 0.0, 0.0, 0.0, 0.0, 0.0, 0.0, 0.0, 1.6541559119054315E9, 0.0, 2022-06-02 09:45:11.905
58.0, 26990.33492688357, -3387.451575690696, -60448.54944331044, -35394.88141475694, -11028.976563093252, -34634.85504804314, -4497.372150107879, -26241.81970856425, -0.042, 0.884, 0.504, 192.0, 254.0, 176.0, 27.0, 160.0, 15.0, 192.0, 0.0, 0.0, 0.0, 1.6541559119054375E9, 0.0, 2022-06-02 09:45:11.905
59.0, 26970.643040018447, -3385.2164012451653, -60445.75547525352, -35391.9533362333, -11026.09318805852, -34635.838524799176, -4504.0329699555605, -26247.787624333814, -0.042, 0.884, 0.504, 192.0, 0.0, 0.0, 0.0, 0.0, 0.0, 0.0, 0.0, 0.0, 0.0, 1.6541559119054427E9, 0.0, 2022-06-02 09:45:11.905
60.0, 26994.849979263545, -3366.0386045025116, -60419.24630632953, -35364.17011787536, -11013.732673374734, -34609.10583843062, -4489.861963970896, -26227.738109557406, -0.042, 0.884, 0.504, 192.0, 0.0, 0.0, 0.0, 0.0, 0.0, 0.0, 0.0, 0.0, 0.0, 1.6541559119054484E9, 0.0, 2022-06-02 09:45:11.905
61.0, 27048.605924678555, -3330.1864063961993, -60383.707032645594, -35329.681376180815, -10973.588940333002, -34576.49464327034, -4451.729887930142, -26209.70025178197, -0.042, 0.884, 0.504, 192.0, 0.0, 0.0, 0.0, 0.0, 0.0, 0.0, 0.0, 0.0, 0.0, 1.6541559119054537E9, 0.0, 2022-06-02 09:45:11.905
62.0, 27033.518497171226, -3327.8841767173026, -60379.21433201007, -35326.66389067935, -10964.9388152288, -34572.71719845739, -4444.242053537614, -26192.690574251483, -0.042, 0.884, 0.504, 192.0, 0.0, 0.0, 0.0, 0.0, 0.0, 0.0, 0.0, 0.0, 0.0, 1.6541559119054592E9, 0.0, 2022-06-02 09:45:11.905
63.0, 27019.548656886658, -3342.457514102163, -60390.88194261574, -35334.37524251643, -10972.65016706588, -34578.37218980458, -4460.424716523256, -26165.98023962739, -0.042, 0.884, 0.504, 192.0, 0.0, 0.0, 0.0, 0.0, 0.0, 0.0, 0.0, 0.0, 0.0, 1.654155911905465E9, 0.0, 2022-06-02 09:45:11.905
64.0, 27044.40379672096, -3343.128066435822, -60394.16764905067, -35336.47630649523, -10975.198265933785, -34580.249736338825, -4499.495565831133, -26177.04435313277, -0.042, 0.884, 0.504, 192.0, 0.0, 0.0, 0.0, 0.0, 0.0, 0.0, 0.0, 0.0, 0.0, 1.6541559119054728E9, 0.0, 2022-06-02 09:45:11.905
65.0, 27055.803186393165, -3358.1707904542436, -60415.938248150145, -35357.44224279431, -11000.500440657192, -34603.58495755016, -4522.920194020295, -26220.85377226517, -0.042, 0.884, 0.504, 192.0, 0.0, 0.0, 0.0, 0.0, 0.0, 0.0, 0.0, 0.0, 0.0, 1.6541559119054787E9, 0.0, 2022-06-02 09:45:11.905
66.0, 26986.222205903796, -3365.2786451910315, -60425.236573843555, -35373.73666450223, -11018.046560054609, -34624.014451982315, -4493.907629717306, -26281.0023165944, -0.042, 0.884, 0.504, 192.0, 0.0, 0.0, 0.0, 0.0, 0.0, 0.0, 0.0, 0.0, 0.0, 1.654155911905484E9, 0.0, 2022-06-02 09:45:11.905
67.0, 26975.29220286515, -3378.7120436086707, -60423.828413942865, -35378.58699304903, -11011.519850673658, -34625.199094438445, -4476.585027764443, -26226.911095012558, -0.042, 0.884, 0.504, 192.0, 0.0, 0.0, 0.0, 0.0, 0.0, 0.0, 0.0, 0.0, 0.0, 1.6541559119054892E9, 0.0, 2022-06-02 09:45:11.905
68.0, 26980.075476178587, -3376.253351718587, -60412.920762648675, -35368.551059788595, -11000.61219937947, -34614.2690913998, -4474.573370763465, -26180.151245612058, -0.042, 0.886, 0.506, 192.0, 254.0, 176.0, 27.0, 176.0, 15.0, 208.0, 0.0, 0.0, 0.0, 1.6541559119054947E9, 0.0, 2022-06-02 09:45:11.905
69.0, 26991.34075538406, -3375.8286685739363, -60414.15010859372, -35365.93590568732, -11001.930952302331, -34615.632547811576, -4483.201144123214, -26201.877141222616, -0.042, 0.886, 0.506, 192.0, 0.0, 0.0, 0.0, 0.0, 0.0, 0.0, 0.0, 0.0, 0.0, 1.6541559119055E9, 0.0, 2022-06-02 09:45:11.905
70.0, 27000.48261886628, -3388.0103693020787, -60425.46009128811, -35373.33433310203, -11014.917315830866, -34627.09899271715, -4506.022275212083, -26230.48737412541, -0.042, 0.886, 0.506, 192.0, 0.0, 0.0, 0.0, 0.0, 0.0, 0.0, 0.0, 0.0, 0.0, 1.6541559119055057E9, 0.0, 2022-06-02 09:45:11.905
71.0, 26988.613842560513, -3393.777119371548, -60426.17534711067, -35371.32267610105, -11021.734597889734, -34628.26128342882, -4511.565507836999, -26237.304656184275, -0.042, 0.886, 0.506, 192.0, 0.0, 0.0, 0.0, 0.0, 0.0, 0.0, 0.0, 0.0, 0.0, 1.6541559119055111E9, 0.0, 2022-06-02 09:45:11.905
72.0, 26976.38743834346, -3393.643008904816, -60426.264754088494, -35373.62490577995, -11021.153452533896, -34628.86478052912, -4505.821109511985, -26237.70698758447, -0.042, 0.886, 0.506, 192.0, 0.0, 0.0, 0.0, 0.0, 0.0, 0.0, 0.0, 0.0, 0.0, 1.6541559119055173E9, 0.0, 2022-06-02 09:45:11.905
73.0, 26957.835490445555, -3375.38163368483, -60420.542707507935, -35370.09333015601, -11010.357559961982, -34625.60142583864, -4500.501394331622, -26238.981037018424, -0.042, 0.886, 0.506, 192.0, 0.0, 0.0, 0.0, 0.0, 0.0, 0.0, 0.0, 0.0, 0.0, 1.6541559119055228E9, 0.0, 2022-06-02 09:45:11.905
74.0, 26975.56042379861, -3379.38259594233, -60429.39399831224, -35380.46453958327, -11013.687969885823, -34634.94445502096, -4503.071844943982, -26244.345455687697, -0.042, 0.886, 0.506, 192.0, 0.0, 0.0, 0.0, 0.0, 0.0, 0.0, 0.0, 0.0, 0.0, 1.6541559119055293E9, 0.0, 2022-06-02 09:45:11.905
75.0, 26976.119217409996, -3426.835349420947, -60447.70007702114, -35401.76575204918, -11033.8045398956, -34656.20096399796, -4518.248679429135, -26247.38529293362, -0.042, 0.886, 0.506, 192.0, 0.0, 0.0, 0.0, 0.0, 0.0, 0.0, 0.0, 0.0, 0.0, 1.6541559119055347E9, 0.0, 2022-06-02 09:45:11.905
76.0, 26952.739292709746, -3425.5389482425394, -60441.15101589573, -35396.49074035773, -11032.798711395111, -34652.35646395165, -4526.138845221859, -26257.108301771677, -0.042, 0.886, 0.506, 192.0, 0.0, 0.0, 0.0, 0.0, 0.0, 0.0, 0.0, 0.0, 0.0, 1.6541559119055407E9, 0.0, 2022-06-02 09:45:11.905
77.0, 26937.204830313305, -3418.1181690833773, -60431.71857973559, -35387.706504786795, -11028.306010759594, -34642.94637953596, -4535.548929637544, -26257.309467471776, -0.042, 0.886, 0.506, 192.0, 0.0, 0.0, 0.0, 0.0, 0.0, 0.0, 0.0, 0.0, 0.0, 1.654155911905547E9, 0.0, 2022-06-02 09:45:11.905
78.0, 26932.7568331667, -3418.229927805654, -60431.15978612421, -35389.2040716653, -11027.568403192568, -34637.917237033515, -4539.013450028116, -26241.95381903098, -0.054, 0.886, 0.512, 192.0, 254.0, 80.0, 27.0, 176.0, 16.0, 0.0, 0.0, 0.0, 0.0, 1.6541559119055524E9, 0.0, 2022-06-02 09:45:11.905
79.0, 26945.94436239533, -3417.5370237275392, -60434.78076872597, -35396.356629890994, -11030.60824043849, -34643.08049000269, -4534.543101137055, -26257.01889479386, -0.054, 0.886, 0.512, 192.0, 0.0, 0.0, 0.0, 0.0, 0.0, 0.0, 0.0, 0.0, 0.0, 1.654155911905558E9, 0.0, 2022-06-02 09:45:11.905
80.0, 26964.809234715613, -3418.900480139313, -60439.631097272766, -35407.420743396375, -11040.599470210012, -34655.01632154183, -4528.552833623032, -26241.506784141875, -0.054, 0.886, 0.512, 192.0, 0.0, 0.0, 0.0, 0.0, 0.0, 0.0, 0.0, 0.0, 0.0, 1.654155911905563E9, 0.0, 2022-06-02 09:45:11.905
81.0, 26990.53609258367, -3418.0734655944666, -60435.04898965943, -35402.57041484957, -11046.165054579384, -34652.267056973826, -4549.541121666565, -26236.209420705967, -0.054, 0.886, 0.512, 192.0, 0.0, 0.0, 0.0, 0.0, 0.0, 0.0, 0.0, 0.0, 0.0, 1.6541559119055693E9, 0.0, 2022-06-02 09:45:11.905
82.0, 26958.19311835684, -3416.419436504774, -60422.777881953465, -35386.20893790829, -11038.408999253394, -34634.229199198395, -4560.0911450494705, -26245.23952546591, -0.054, 0.886, 0.512, 192.0, 0.0, 0.0, 0.0, 0.0, 0.0, 0.0, 0.0, 0.0, 0.0, 1.6541559119055748E9, 0.0, 2022-06-02 09:45:11.905
83.0, 26933.47208898927, -3424.15314008631, -60433.43966405865, -35395.37315313496, -11046.656792957401, -34644.30983594774, -4549.451714688744, -26263.791473363817, -0.054, 0.886, 0.512, 192.0, 0.0, 0.0, 0.0, 0.0, 0.0, 0.0, 0.0, 0.0, 0.0, 1.6541559119055803E9, 0.0, 2022-06-02 09:45:11.905
84.0, 26947.486632762746, -3423.996677875123, -60428.38816981175, -35395.328449646055, -11034.56449920708, -34643.21460046942, -4516.147615450337, -26261.511595429372, -0.054, 0.886, 0.512, 192.0, 0.0, 0.0, 0.0, 0.0, 0.0, 0.0, 0.0, 0.0, 0.0, 1.6541559119055872E9, 0.0, 2022-06-02 09:45:11.905
85.0, 26950.77233919768, -3434.6584599803045, -60430.422178557186, -35403.12920846095, -11034.765664907178, -34647.573190638206, -4526.809397555518, -26245.217173721456, -0.054, 0.886, 0.512, 192.0, 0.0, 0.0, 0.0, 0.0, 0.0, 0.0, 0.0, 0.0, 0.0, 1.6541559119055934E9, 0.0, 2022-06-02 09:45:11.905
86.0, 26956.963772411797, -3445.7896287190474, -60438.82643447238, -35407.66661258538, -11050.255423814706, -34653.161126752035, -4541.203920984736, -26262.53977567432, -0.054, 0.886, 0.512, 192.0, 0.0, 0.0, 0.0, 0.0, 0.0, 0.0, 0.0, 0.0, 0.0, 1.6541559119056015E9, 0.0, 2022-06-02 09:45:11.905
87.0, 26951.442891531336, -3421.9850208741454, -60429.0140186565, -35401.22931018225, -11041.292374288127, -34653.295237218765, -4518.9415835072505, -26299.97894763696, -0.054, 0.886, 0.512, 192.0, 0.0, 0.0, 0.0, 0.0, 0.0, 0.0, 0.0, 0.0, 0.0, 1.6541559119056072E9, 0.0, 2022-06-02 09:45:11.905
88.0, 26945.273810061673, -3410.8538521354026, -60419.04514062943, -35394.50143510121, -11030.340019505027, -34647.930818549496, -4525.155368465826, -26270.20642402249, -0.058, 0.894, 0.514, 192.0, 254.0, 48.0, 27.0, 240.0, 16.0, 16.0, 0.0, 0.0, 0.0, 1.6541559119056141E9, 0.0, 2022-06-02 09:45:11.905
89.0, 26997.733354298278, -3407.5681457004725, -60428.76814946749, -35394.970821734765, -11040.286545787638, -34637.157277722035, -4559.241778760169, -26224.541810100298, -0.058, 0.894, 0.514, 192.0, 0.0, 0.0, 0.0, 0.0, 0.0, 0.0, 0.0, 0.0, 0.0, 1.65415591190562E9, 0.0, 2022-06-02 09:45:11.905
90.0, 26975.96275519881, -3417.268802794076, -60438.647620516735, -35404.09033347253, -11048.623746469468, -34646.99204528237, -4542.097990762948, -26244.61367662116, -0.058, 0.894, 0.514, 192.0, 0.0, 0.0, 0.0, 0.0, 0.0, 0.0, 0.0, 0.0, 0.0, 1.6541559119056256E9, 0.0, 2022-06-02 09:45:11.905
91.0, 26925.447812729813, -3439.866416438391, -60427.09176863334, -35393.11562694498, -11040.353601021005, -34639.41480391202, -4521.109702719415, -26259.522290172852, -0.058, 0.894, 0.514, 192.0, 0.0, 0.0, 0.0, 0.0, 0.0, 0.0, 0.0, 0.0, 0.0, 1.6541559119056313E9, 0.0, 2022-06-02 09:45:11.905
92.0, 26899.832713584034, -3455.065602668, -60426.95765816661, -35394.344972890016, -11042.029981855152, -34638.207809711435, -4528.575185367487, -26247.318237700256, -0.058, 0.894, 0.514, 192.0, 0.0, 0.0, 0.0, 0.0, 0.0, 0.0, 0.0, 0.0, 0.0, 1.6541559119056373E9, 0.0, 2022-06-02 09:45:11.905
93.0, 26923.592617940023, -3446.057849652511, -60419.69334121863, -35388.77938852065, -11030.787054394134, -34631.30112067475, -4521.579089352977, -26243.67490335404, -0.058, 0.894, 0.514, 192.0, 0.0, 0.0, 0.0, 0.0, 0.0, 0.0, 0.0, 0.0, 0.0, 1.6541559119056425E9, 0.0, 2022-06-02 09:45:11.905
94.0, 26939.86468790349, -3440.9393001722456, -60422.17438485318, -35393.786179278635, -11029.513004960181, -34634.51977187631, -4529.916290034806, -26247.631162122627, -0.058, 0.894, 0.514, 192.0, 0.0, 0.0, 0.0, 0.0, 0.0, 0.0, 0.0, 0.0, 0.0, 1.6541559119056487E9, 0.0, 2022-06-02 09:45:11.905
95.0, 26943.32920829406, -3446.9742711751787, -60438.28999260545, -35408.94066201933, -11039.392476009427, -34647.148507493555, -4549.295252477557, -26268.462987954976, -0.058, 0.894, 0.514, 192.0, 0.0, 0.0, 0.0, 0.0, 0.0, 0.0, 0.0, 0.0, 0.0, 1.6541559119056575E9, 0.0, 2022-06-02 09:45:11.905
96.0, 26948.939496152343, -3437.4971315261287, -60446.29191712045, -35414.34978417752, -11044.242804556228, -34652.15529825155, -4561.655767161342, -26289.87595914316, -0.058, 0.894, 0.514, 192.0, 0.0, 0.0, 0.0, 0.0, 0.0, 0.0, 0.0, 0.0, 0.0, 1.6541559119056664E9, 0.0, 2022-06-02 09:45:11.905
97.0, 26935.170821567874, -3432.602099490416, -60451.1198939228, -35415.62383361147, -11048.176711580361, -34649.584847639184, -4555.486685691677, -26263.679714641537, -0.066, 0.882, 0.526, 192.0, 253.0, 240.0, 27.0, 144.0, 16.0, 112.0, 0.0, 0.0, 0.0, 1.6541559119056728E9, 0.0, 2022-06-02 09:45:11.905
98.0, 26948.00072288522, -3455.8255619794804, -60449.64467878875, -35410.214711453285, -11040.621821954468, -34645.78505108179, -4547.0600780320265, -26244.971304532446, -0.066, 0.882, 0.526, 192.0, 0.0, 0.0, 0.0, 0.0, 0.0, 0.0, 0.0, 0.0, 0.0, 1.6541559119056804E9, 0.0, 2022-06-02 09:45:11.905
99.0, 26948.24659207423, -3460.2065038927203, -60451.74574276755, -35408.02424049666, -11033.625725939957, -34647.19321098247, -4539.751057595141, -26257.108301771677, -0.066, 0.882, 0.526, 192.0, 0.0, 0.0, 0.0, 0.0, 0.0, 0.0, 0.0, 0.0, 0.0, 1.6541559119056947E9, 0.0, 2022-06-02 09:45:11.905
100.0, 26932.823888400068, -3467.4931725851507, -60468.73306855358, -35421.70350810332, -11046.23210981275, -34664.359350724146, -4563.175685784303, -26288.780723664848, -0.066, 0.882, 0.526, 192.0, 0.0, 0.0, 0.0, 0.0, 0.0, 0.0, 0.0, 0.0, 0.0, 1.654155911905707E9, 0.0, 2022-06-02 09:45:11.905
101.0, 26926.18542029684, -3469.5942365639494, -60479.70777508114, -35430.75596460771, -11057.989127396242, -34674.52939445131, -4591.584752986998, -26311.26657858689, -0.066, 0.882, 0.526, 192.0, 0.0, 0.0, 0.0, 0.0, 0.0, 0.0, 0.0, 0.0, 0.0, 1.654155911905713E9, 0.0, 2022-06-02 09:45:11.905
102.0, 26931.460431988293, -3460.1394486593545, -60472.15288545524, -35416.83082781206, -11042.253499299706, -34658.77141461032, -4557.475990948199, -26261.53394717383, -0.066, 0.882, 0.526, 192.0, 0.0, 0.0, 0.0, 0.0, 0.0, 0.0, 0.0, 0.0, 0.0, 1.6541559119057186E9, 0.0, 2022-06-02 09:45:11.905
103.0, 26942.591600727035, -3455.5573410460165, -60469.44832437615, -35406.97370850727, -11034.586850951535, -34650.83654532868, -4546.255415231635, -26240.925638786037, -0.066, 0.882, 0.526, 192.0, 0.0, 0.0, 0.0, 0.0, 0.0, 0.0, 0.0, 0.0, 0.0, 1.6541559119057248E9, 0.0, 2022-06-02 09:45:11.905
104.0, 26944.5585542391, -3459.871227725891, -60478.25491169154, -35411.3099469316, -11034.139816062429, -34657.72088262092, -4564.0250520736045, -26271.324011245255, -0.066, 0.882, 0.526, 192.0, 0.0, 0.0, 0.0, 0.0, 0.0, 0.0, 0.0, 0.0, 0.0, 1.6541559119057307E9, 0.0, 2022-06-02 09:45:11.905
105.0, 26960.04831314663, -3462.6651957828044, -60489.341376941375, -35417.836656312546, -11035.995010852219, -34665.47693794691, -4568.495400964666, -26277.180168292543, -0.066, 0.882, 0.526, 192.0, 0.0, 0.0, 0.0, 0.0, 0.0, 0.0, 0.0, 0.0, 0.0, 1.654155912385618E9, 0.0, 2022-06-02 09:45:12.385
106.0, 26973.258194119717, -3465.6603295398154, -60492.135344998285, -35415.06504000009, -11042.342906277527, -34663.95701932395, -4568.562456198032, -26275.369676991664, -0.066, 0.882, 0.526, 192.0, 0.0, 0.0, 0.0, 0.0, 0.0, 0.0, 0.0, 0.0, 0.0, 1.654155912385832E9, 0.0, 2022-06-02 09:45:12.385
107.0, 26954.728597966267, -3454.8420852234467, -60486.882685051285, -35407.59955735201, -11038.341944020027, -34659.86665008863, -4561.789877628074, -26257.82355759425, -0.058, 0.866, 0.52, 192.0, 254.0, 48.0, 27.0, 16.0, 16.0, 64.0, 0.0, 0.0, 0.0, 1.654155912385862E9, 0.0, 2022-06-02 09:45:12.385
108.0, 26958.841318946044, -3449.2988525985306, -60473.51634186701, -35393.294440900616, -11022.427501967848, -34645.47212665941, -4542.500322163144, -26247.89938305609, -0.058, 0.866, 0.52, 192.0, 0.0, 0.0, 0.0, 0.0, 0.0, 0.0, 0.0, 0.0, 0.0, 1.6541559123858683E9, 0.0, 2022-06-02 09:45:12.385
109.0, 26955.510909022203, -3463.44750683874, -60481.07123149291, -35400.29053691513, -11025.690856658322, -34654.971618052914, -4552.983290312683, -26272.463950212474, -0.058, 0.866, 0.52, 192.0, 0.0, 0.0, 0.0, 0.0, 0.0, 0.0, 0.0, 0.0, 0.0, 1.654155912385874E9, 0.0, 2022-06-02 09:45:12.385
110.0, 26946.167879839886, -3481.6865303142704, -60503.02064454802, -35424.765697093695, -11049.85309241451, -34679.35737125366, -4592.456471020755, -26289.093648087222, -0.058, 0.866, 0.52, 192.0, 0.0, 0.0, 0.0, 0.0, 0.0, 0.0, 0.0, 0.0, 0.0, 1.6541559123858795E9, 0.0, 2022-06-02 09:45:12.385
111.0, 26954.48272877726, -3475.3833383778738, -60494.61638863282, -35420.272996458174, -11051.082438359552, -34679.82675788722, -4569.076546320503, -26275.168511291566, -0.058, 0.866, 0.52, 192.0, 0.0, 0.0, 0.0, 0.0, 0.0, 0.0, 0.0, 0.0, 0.0, 1.6541559123858848E9, 0.0, 2022-06-02 09:45:12.385
112.0, 26985.372839614494, -3458.418364336296, -60473.94102501166, -35401.36342064899, -11034.09511257352, -34665.879269347104, -4544.131999508381, -26270.027610066845, -0.058, 0.866, 0.52, 192.0, 0.0, 0.0, 0.0, 0.0, 0.0, 0.0, 0.0, 0.0, 0.0, 1.65415591238589E9, 0.0, 2022-06-02 09:45:12.385
113.0, 26975.895699965444, -3455.959672446212, -60467.92840575319, -35395.127283945956, -11027.434292725837, -34661.38656871159, -4538.454656416733, -26266.965421076467, -0.058, 0.866, 0.52, 192.0, 0.0, 0.0, 0.0, 0.0, 0.0, 0.0, 0.0, 0.0, 0.0, 1.6541559123858953E9, 0.0, 2022-06-02 09:45:12.385
114.0, 26968.58667952856, -3458.8877509698573, -60474.18689420068, -35403.576243350064, -11032.932821861843, -34666.25924900285, -4554.346746724456, -26229.28037992482, -0.058, 0.866, 0.52, 192.0, 0.0, 0.0, 0.0, 0.0, 0.0, 0.0, 0.0, 0.0, 0.0, 1.6541559123859007E9, 0.0, 2022-06-02 09:45:12.385
115.0, 26985.149322169942, -3467.8508004964356, -60480.19951345915, -35411.35465042051, -11045.270984801173, -34675.80344388526, -4574.642130689876, -26240.120975985647, -0.058, 0.866, 0.52, 192.0, 0.0, 0.0, 0.0, 0.0, 0.0, 0.0, 0.0, 0.0, 0.0, 1.654155912385906E9, 0.0, 2022-06-02 09:45:12.385
116.0, 26980.85778723452, -3462.4640300827064, -60468.06251621992, -35399.57528109256, -11044.600432467512, -34669.81317637124, -4570.887037621384, -26266.451330953998, -0.058, 0.866, 0.52, 192.0, 0.0, 0.0, 0.0, 0.0, 0.0, 0.0, 0.0, 0.0, 0.0, 1.6541559123859112E9, 0.0, 2022-06-02 09:45:12.385
117.0, 26979.33786861156, -3464.833314994969, -60462.7204492951, -35396.311926402086, -11040.577118465557, -34667.30978099225, -4562.862761361928, -26258.00237154989, -0.046, 0.88, 0.514, 192.0, 254.0, 144.0, 27.0, 128.0, 16.0, 16.0, 0.0, 0.0, 0.0, 1.6541559123859165E9, 0.0, 2022-06-02 09:45:12.385
118.0, 26984.456418091824, -3462.955768460723, -60457.19956841464, -35392.42272286686, -11030.56353694958, -34662.52650767881, -4552.782124612585, -26243.38433067612, -0.046, 0.88, 0.514, 192.0, 0.0, 0.0, 0.0, 0.0, 0.0, 0.0, 0.0, 0.0, 0.0, 1.6541559123859217E9, 0.0, 2022-06-02 09:45:12.385
119.0, 26988.233862904774, -3476.635036067371, -60464.530940595985, -35402.7045253163, -11030.831757883045, -34675.62462992962, -4553.586787412976, -26259.701104128493, -0.046, 0.88, 0.514, 192.0, 0.0, 0.0, 0.0, 0.0, 0.0, 0.0, 0.0, 0.0, 0.0, 1.6541559123859267E9, 0.0, 2022-06-02 09:45:12.385
120.0, 26984.00938320272, -3485.5086786161282, -60474.790391300965, -35418.171932479374, -11047.75202843571, -34694.4895022499, -4563.935645095783, -26274.0509240688, -0.046, 0.88, 0.514, 192.0, 0.0, 0.0, 0.0, 0.0, 0.0, 0.0, 0.0, 0.0, 0.0, 1.654155912385932E9, 0.0, 2022-06-02 09:45:12.385
121.0, 27000.147342699453, -3476.567980834005, -60465.06738246291, -35409.90178703091, -11046.8579586575, -34688.253365546865, -4560.627586916397, -26249.084025512224, -0.046, 0.88, 0.514, 192.0, 0.0, 0.0, 0.0, 0.0, 0.0, 0.0, 0.0, 0.0, 0.0, 1.6541559123859372E9, 0.0, 2022-06-02 09:45:12.385
122.0, 27020.889761553975, -3467.7837452630697, -60458.42891435968, -35403.218615438775, -11038.677220186857, -34681.45843523245, -4556.827790358995, -26238.757519573872, -0.046, 0.88, 0.514, 192.0, 0.0, 0.0, 0.0, 0.0, 0.0, 0.0, 0.0, 0.0, 0.0, 1.6541559123859425E9, 0.0, 2022-06-02 09:45:12.385
123.0, 27014.00542426174, -3462.0393469380556, -60449.689382277655, -35393.33914438953, -11036.442045741325, -34671.15428103856, -4561.633415416886, -26236.09766198369, -0.046, 0.88, 0.514, 192.0, 0.0, 0.0, 0.0, 0.0, 0.0, 0.0, 0.0, 0.0, 0.0, 1.6541559123859477E9, 0.0, 2022-06-02 09:45:12.385
124.0, 27054.26091602575, -3458.73128875867, -60445.375495597786, -35389.606403065496, -11036.37499050796, -34669.56730718223, -4566.863723619428, -26234.264818938354, -0.046, 0.88, 0.514, 192.0, 0.0, 0.0, 0.0, 0.0, 0.0, 0.0, 0.0, 0.0, 0.0, 1.6541559123859527E9, 0.0, 2022-06-02 09:45:12.385
125.0, 27039.419357707426, -3474.4892685996615, -60461.35699288333, -35408.270109685676, -11058.257348329706, -34690.086208592205, -4589.841316919484, -26267.032476309836, -0.046, 0.88, 0.514, 192.0, 0.0, 0.0, 0.0, 0.0, 0.0, 0.0, 0.0, 0.0, 0.0, 1.654155912385958E9, 0.0, 2022-06-02 09:45:12.385
126.0, 27014.117182984017, -3469.348367374941, -60453.824455001886, -35402.27984217165, -11064.80640945511, -34684.00653410036, -4609.5108520401545, -26274.095627557712, -0.046, 0.88, 0.514, 192.0, 0.0, 0.0, 0.0, 0.0, 0.0, 0.0, 0.0, 0.0, 0.0, 1.6541559123859632E9, 0.0, 2022-06-02 09:45:12.385
127.0, 27021.850886565553, -3463.7157277722035, -60448.43768458816, -35397.697734558315, -11067.041583900642, -34680.29614452078, -4605.331075827012, -26258.2482407389, -0.05, 0.884, 0.502, 192.0, 254.0, 112.0, 27.0, 160.0, 15.0, 176.0, 0.0, 0.0, 0.0, 1.6541559123859684E9, 0.0, 2022-06-02 09:45:12.385
128.0, 27031.573895403613, -3461.8158294935024, -60445.88958572026, -35396.49074035773, -11066.594549011535, -34679.67029567603, -4599.6537327353635, -26245.395987677097, -0.05, 0.884, 0.502, 192.0, 0.0, 0.0, 0.0, 0.0, 0.0, 0.0, 0.0, 0.0, 0.0, 1.654155912385996E9, 0.0, 2022-06-02 09:45:12.385
129.0, 27028.981093046797, -3475.808021522525, -60448.46003633262, -35405.36438290648, -11067.37686006747, -34688.879214391614, -4574.686834178786, -26271.72634264545, -0.05, 0.884, 0.502, 192.0, 0.0, 0.0, 0.0, 0.0, 0.0, 0.0, 0.0, 0.0, 0.0, 1.654155912386001E9, 0.0, 2022-06-02 09:45:12.386
130.0, 27039.374654218514, -3482.0441582255553, -60449.287050877465, -35416.719069089784, -11064.918168177386, -34703.229034331926, -4558.884150848884, -26282.768104406372, -0.05, 0.884, 0.502, 192.0, 0.0, 0.0, 0.0, 0.0, 0.0, 0.0, 0.0, 0.0, 0.0, 1.654155912386006E9, 0.0, 2022-06-02 09:45:12.386
131.0, 27080.45716052737, -3473.7293092881814, -60445.28608861996, -35413.90274928841, -11066.505142033713, -34699.56334824125, -4586.4438517622775, -26265.937240831525, -0.05, 0.884, 0.502, 192.0, 0.0, 0.0, 0.0, 0.0, 0.0, 0.0, 0.0, 0.0, 0.0, 1.6541559123860111E9, 0.0, 2022-06-02 09:45:12.386
132.0, 27061.05584634016, -3476.16564943381, -60443.117969407795, -35406.61608059598, -11064.694650732834, -34692.455493504465, -4607.409788061355, -26267.68067689904, -0.05, 0.884, 0.502, 192.0, 0.0, 0.0, 0.0, 0.0, 0.0, 0.0, 0.0, 0.0, 0.0, 1.6541559123860164E9, 0.0, 2022-06-02 09:45:12.386
133.0, 27031.953875059353, -3467.2696551405975, -60433.99845767003, -35397.25069966921, -11056.603319240014, -34682.24074628839, -4604.3475990709785, -26204.872274979625, -0.05, 0.884, 0.502, 192.0, 0.0, 0.0, 0.0, 0.0, 0.0, 0.0, 0.0, 0.0, 0.0, 1.6541559123860214E9, 0.0, 2022-06-02 09:45:12.386
134.0, 27048.82944212311, -3459.5359515590612, -60432.836166958354, -35397.09423745802, -11050.680106959357, -34680.69847592097, -4568.495400964666, -26228.118089213145, -0.05, 0.884, 0.502, 192.0, 0.0, 0.0, 0.0, 0.0, 0.0, 0.0, 0.0, 0.0, 0.0, 1.6541559123860269E9, 0.0, 2022-06-02 09:45:12.386
135.0, 27060.519404473234, -3474.891599999857, -60446.403675842725, -35409.231234697254, -11061.699516975823, -34697.46228426245, -4568.517752709121, -26277.381333992642, -0.05, 0.884, 0.502, 192.0, 0.0, 0.0, 0.0, 0.0, 0.0, 0.0, 0.0, 0.0, 0.0, 1.654155912386032E9, 0.0, 2022-06-02 09:45:12.386
136.0, 27070.868262156044, -3469.9742162196894, -60443.34148685235, -35405.811417795594, -11064.649947243923, -34696.25529006187, -4568.562456198032, -26288.69131668703, -0.05, 0.884, 0.502, 192.0, 0.0, 0.0, 0.0, 0.0, 0.0, 0.0, 0.0, 0.0, 0.0, 1.6541559123860376E9, 0.0, 2022-06-02 09:45:12.386
137.0, 27076.031515125218, -3469.5942365639494, -60432.657353002716, -35395.79783627961, -11056.670374473379, -34684.5876794562, -4566.260226519135, -26244.546621387795, -0.044, 0.896, 0.5, 192.0, 254.0, 160.0, 28.0, 0.0, 15.0, 160.0, 0.0, 0.0, 0.0, 1.6541559123860428E9, 0.0, 2022-06-02 09:45:12.386
138.0, 27082.714686717354, -3466.1073644289213, -60433.19379486964, -35396.378981635455, -11054.882234916955, -34682.01722884384, -4574.955055112249, -26226.776984545828, -0.044, 0.896, 0.5, 192.0, 0.0, 0.0, 0.0, 0.0, 0.0, 0.0, 0.0, 0.0, 0.0, 1.654155912386048E9, 0.0, 2022-06-02 09:45:12.386
139.0, 27094.27053860075, -3467.403765607329, -60436.568908282396, -35399.21765318127, -11053.362316293993, -34685.258231789856, -4564.583845684987, -26264.39497046411, -0.044, 0.896, 0.5, 192.0, 0.0, 0.0, 0.0, 0.0, 0.0, 0.0, 0.0, 0.0, 0.0, 1.654155912386053E9, 0.0, 2022-06-02 09:45:12.386
140.0, 27099.612605525566, -3484.324036159997, -60445.353143853325, -35408.67244108587, -11063.510008276702, -34694.22128131644, -4580.744156926174, -26273.06744731277, -0.044, 0.896, 0.5, 192.0, 0.0, 0.0, 0.0, 0.0, 0.0, 0.0, 0.0, 0.0, 0.0, 1.6541559123860583E9, 0.0, 2022-06-02 09:45:12.386
141.0, 27123.350158137102, -3471.963521476212, -60440.48046356207, -35402.34689740502, -11069.52262753518, -34685.97348761243, -4597.105633867459, -26237.61758060665, -0.044, 0.896, 0.5, 192.0, 0.0, 0.0, 0.0, 0.0, 0.0, 0.0, 0.0, 0.0, 0.0, 1.6541559123860638E9, 0.0, 2022-06-02 09:45:12.386
142.0, 27118.499829590302, -3454.931492201268, -60427.00236165552, -35386.924193730854, -11059.062011130096, -34671.5342606943, -4573.569246956021, -26242.87024055365, -0.044, 0.896, 0.5, 192.0, 0.0, 0.0, 0.0, 0.0, 0.0, 0.0, 0.0, 0.0, 0.0, 1.6541559123860688E9, 0.0, 2022-06-02 09:45:12.386
143.0, 27100.193750881404, -3458.35130910293, -60432.18796636915, -35391.551004833105, -11060.00078439722, -34674.64115317359, -4572.09403182197, -26263.255031496887, -0.044, 0.896, 0.5, 192.0, 0.0, 0.0, 0.0, 0.0, 0.0, 0.0, 0.0, 0.0, 0.0, 1.654155912386074E9, 0.0, 2022-06-02 09:45:12.386
144.0, 27111.436678342427, -3454.283291612064, -60435.45132105963, -35393.47325485626, -11056.871540173477, -34675.93755435199, -4574.9997586011605, -26242.266743453354, -0.044, 0.896, 0.5, 192.0, 0.0, 0.0, 0.0, 0.0, 0.0, 0.0, 0.0, 0.0, 0.0, 1.6541559123860795E9, 0.0, 2022-06-02 09:45:12.386
145.0, 27135.42010014297, -3455.646748023838, -60437.4182745717, -35394.14380718992, -11054.479903516758, -34676.56340319674, -4572.451659733255, -26248.56993538975, -0.044, 0.896, 0.5, 192.0, 0.0, 0.0, 0.0, 0.0, 0.0, 0.0, 0.0, 0.0, 0.0, 1.6541559123860848E9, 0.0, 2022-06-02 09:45:12.386
146.0, 27147.780614826755, -3445.4320008077625, -60428.90225993422, -35387.12535943095, -11056.111580861996, -34674.976429340415, -4569.143601553869, -26253.73318835893, -0.044, 0.896, 0.5, 192.0, 0.0, 0.0, 0.0, 0.0, 0.0, 0.0, 0.0, 0.0, 0.0, 1.65415591238609E9, 0.0, 2022-06-02 09:45:12.386
147.0, 27148.22764971586, -3450.550550288028, -60427.42704480017, -35386.20893790829, -11055.57513899507, -34671.400150227564, -4560.113496793926, -26226.15113570108, -0.052000000000000005, 0.906, 0.5, 192.0, 254.0, 96.0, 28.0, 80.0, 15.0, 160.0, 0.0, 0.0, 0.0, 1.6541559123860955E9, 0.0, 2022-06-02 09:45:12.386
148.0, 27170.62409766008, -3445.387297318852, -60422.19673659763, -35379.77163550516, -11047.059124357596, -34658.52554542131, -4548.065906532515, -26226.978150245926, -0.052000000000000005, 0.906, 0.5, 192.0, 0.0, 0.0, 0.0, 0.0, 0.0, 0.0, 0.0, 0.0, 0.0, 1.6541559123861008E9, 0.0, 2022-06-02 09:45:12.386
149.0, 27171.85344360512, -3442.123942628377, -60423.1131581203, -35380.62100179446, -11041.448836499314, -34658.547897165765, -4553.609139157431, -26225.32412115623, -0.052000000000000005, 0.906, 0.5, 192.0, 0.0, 0.0, 0.0, 0.0, 0.0, 0.0, 0.0, 0.0, 0.0, 1.654155912386106E9, 0.0, 2022-06-02 09:45:12.386
