%OpenBCI Raw EEG Data
%Number of channels = 8
%Sample Rate = 250 Hz
%Board = OpenBCI_GUI$BoardCytonSerial
Sample Index, EXG Channel 0, EXG Channel 1, EXG Channel 2, EXG Channel 3, EXG Channel 4, EXG Channel 5, EXG Channel 6, EXG Channel 7, Accel Channel 0, Accel Channel 1, Accel Channel 2, Other, Other, Other, Other, Other, Other, Other, Analog Channel 0, Analog Channel 1, Analog Channel 2, Timestamp, Other, Timestamp (Formatted)
0.0, 0.0, 0.0, 0.0, 0.0, 0.0, 0.0, 0.0, 0.0, 0.0, 0.0, 0.0, 192.0, 0.0, 0.0, 0.0, 0.0, 0.0, 0.0, 0.0, 0.0, 0.0, 1.6541572342369561E9, 0.0, 2022-06-02 10:07:14.236
1.0, 21241.24273553404, 4993.267952593321, -72275.03624856904, -54938.822083332794, -44560.05776644442, -46847.40118353381, -17254.2726700631, -49744.45548587507, 0.008, 0.794, 0.64, 192.0, 0.0, 64.0, 24.0, 208.0, 20.0, 0.0, 0.0, 0.0, 0.0, 1.6541572347213E9, 0.0, 2022-06-02 10:07:14.721
2.0, 21235.453633720117, 4989.155231613545, -72263.94978331921, -54929.791978572845, -44560.75067052253, -46824.15536930029, -17241.532175723576, -49700.869584187225, 0.008, 0.794, 0.64, 192.0, 0.0, 0.0, 0.0, 0.0, 0.0, 0.0, 0.0, 0.0, 0.0, 1.654157234721342E9, 0.0, 2022-06-02 10:07:14.721
3.0, 21239.8122238889, 4993.916153182525, -72263.88272808585, -54922.68412383606, -44552.23465588506, -46814.18649127323, -17216.520573678084, -49686.49741250246, 0.008, 0.794, 0.64, 192.0, 0.0, 0.0, 0.0, 0.0, 0.0, 0.0, 0.0, 0.0, 0.0, 1.6541572347213547E9, 0.0, 2022-06-02 10:07:14.721
4.0, 21247.657686192713, 5002.856850964648, -72274.16453053529, -54927.266231449394, -44557.80024025444, -46824.55770070049, -17234.290210520056, -49720.293250118884, 0.008, 0.794, 0.64, 192.0, 0.0, 0.0, 0.0, 0.0, 0.0, 0.0, 0.0, 0.0, 0.0, 1.6541572347213664E9, 0.0, 2022-06-02 10:07:14.721
5.0, 21248.10472108182, 4995.950161927958, -72279.1042660599, -54940.87844382268, -44564.50576359103, -46840.62860496386, -17238.98407685567, -49728.988078712, 0.008, 0.794, 0.64, 192.0, 0.0, 0.0, 0.0, 0.0, 0.0, 0.0, 0.0, 0.0, 0.0, 1.6541572347213788E9, 0.0, 2022-06-02 10:07:14.721
6.0, 21242.360322756806, 4988.574086257707, -72281.42884748326, -54946.15345551413, -44572.64179857276, -46845.210712577194, -17256.46314101972, -49740.163950939655, 0.008, 0.794, 0.64, 192.0, 0.0, 0.0, 0.0, 0.0, 0.0, 0.0, 0.0, 0.0, 0.0, 1.6541572347214012E9, 0.0, 2022-06-02 10:07:14.721
7.0, 21239.029912832968, 4991.591571759173, -72271.90700434531, -54934.08351350827, -44560.840077500354, -46845.769506188575, -17236.726550665684, -49753.73145982403, 0.008, 0.794, 0.64, 192.0, 0.0, 0.0, 0.0, 0.0, 0.0, 0.0, 0.0, 0.0, 0.0, 1.6541572347214153E9, 0.0, 2022-06-02 10:07:14.721
8.0, 21234.648970919727, 4990.742205469872, -72281.74177190564, -54935.9163565536, -44569.937237493665, -46844.093125354426, -17258.69831546525, -49759.92289303814, 0.008, 0.788, 0.638, 192.0, 0.0, 64.0, 24.0, 160.0, 19.0, 240.0, 0.0, 0.0, 0.0, 1.6541572347214298E9, 0.0, 2022-06-02 10:07:14.721
9.0, 21236.52651745397, 4987.70236822395, -72297.32093779098, -54939.69380136655, -44568.50672584853, -46836.404125261804, -17226.37769298288, -49727.31169787785, 0.008, 0.788, 0.638, 192.0, 0.0, 0.0, 0.0, 0.0, 0.0, 0.0, 0.0, 0.0, 0.0, 1.6541572347214413E9, 0.0, 2022-06-02 10:07:14.721
10.0, 21233.889011608248, 4980.862734420626, -72304.60760648342, -54949.03683054887, -44572.26181891702, -46851.62566323586, -17219.381596968364, -49742.77910504092, 0.008, 0.788, 0.638, 192.0, 0.0, 0.0, 0.0, 0.0, 0.0, 0.0, 0.0, 0.0, 0.0, 1.6541572347214532E9, 0.0, 2022-06-02 10:07:14.721
11.0, 21227.854040605314, 4976.124164596101, -72294.63872845635, -54943.47124617949, -44569.311388648915, -46848.295253312026, -17223.226097014678, -49731.60323281327, 0.008, 0.788, 0.638, 192.0, 0.0, 0.0, 0.0, 0.0, 0.0, 0.0, 0.0, 0.0, 0.0, 1.6541572347214663E9, 0.0, 2022-06-02 10:07:14.721
12.0, 21229.95510458411, 4978.135821597079, -72285.42980974076, -54930.46253090651, -44560.03541469997, -46829.56449145848, -17241.107492578925, -49716.06877041683, 0.008, 0.788, 0.638, 192.0, 0.0, 0.0, 0.0, 0.0, 0.0, 0.0, 0.0, 0.0, 0.0, 1.6541572347214792E9, 0.0, 2022-06-02 10:07:14.721
13.0, 21237.39823548773, 4984.84134493367, -72279.75246664912, -54916.71620806649, -44551.966434951595, -46810.63256390483, -17234.13374830887, -49699.953162664555, 0.008, 0.788, 0.638, 192.0, 0.0, 0.0, 0.0, 0.0, 0.0, 0.0, 0.0, 0.0, 0.0, 1.6541572347214913E9, 0.0, 2022-06-02 10:07:14.721
14.0, 21239.320485510885, 4983.857868177637, -72291.2636150436, -54920.292487179344, -44551.47469657358, -46811.61604066087, -17202.59543688243, -49697.80739519685, 0.008, 0.788, 0.638, 192.0, 0.0, 0.0, 0.0, 0.0, 0.0, 0.0, 0.0, 0.0, 0.0, 1.6541572347215087E9, 0.0, 2022-06-02 10:07:14.721
15.0, 21228.68105515016, 4972.3914232720645, -72307.22276058469, -54940.274946722384, -44568.462022359614, -46834.07954383845, -17205.92584680627, -49712.62660177072, 0.008, 0.788, 0.638, 192.0, 0.0, 0.0, 0.0, 0.0, 0.0, 0.0, 0.0, 0.0, 0.0, 1.6541572347215238E9, 0.0, 2022-06-02 10:07:14.721
16.0, 21238.739340155047, 4985.020158889313, -72288.00026035312, -54927.44504540504, -44556.727356520576, -46819.79677913151, -17207.199896240225, -49701.24956384296, 0.008, 0.788, 0.638, 192.0, 0.0, 0.0, 0.0, 0.0, 0.0, 0.0, 0.0, 0.0, 0.0, 1.6541572347215402E9, 0.0, 2022-06-02 10:07:14.721
17.0, 21242.896764623736, 4996.03956890578, -72268.75540837711, -54916.090359221744, -44544.568007536895, -46810.72197088265, -17207.64693112933, -49709.16208138014, 0.008, 0.788, 0.638, 192.0, 0.0, 0.0, 0.0, 0.0, 0.0, 0.0, 0.0, 0.0, 0.0, 1.6541572347215517E9, 0.0, 2022-06-02 10:07:14.721
18.0, 21241.82388088988, 4998.721778240416, -72274.4103997243, -54920.851280790725, -44548.1666383942, -46811.61604066087, -17211.044396286536, -49719.242718129484, 0.004, 0.788, 0.644, 192.0, 0.0, 32.0, 24.0, 160.0, 20.0, 32.0, 0.0, 0.0, 0.0, 1.65415723472156E9, 0.0, 2022-06-02 10:07:14.721
19.0, 21233.352569741317, 4983.3661297996205, -72303.84764717193, -54949.26034799342, -44573.55822009542, -46829.11745656937, -17227.249411016634, -49721.38848559719, 0.004, 0.788, 0.644, 192.0, 0.0, 0.0, 0.0, 0.0, 0.0, 0.0, 0.0, 0.0, 0.0, 1.654157234721567E9, 0.0, 2022-06-02 10:07:14.721
20.0, 21230.53624993995, 4977.0852896076785, -72311.04490888654, -54966.33708075727, -44585.15877546773, -46855.73838421564, -17262.207539344734, -49748.27763417693, 0.004, 0.788, 0.644, 192.0, 0.0, 0.0, 0.0, 0.0, 0.0, 0.0, 0.0, 0.0, 0.0, 1.6541572347215931E9, 0.0, 2022-06-02 10:07:14.721
21.0, 21232.704369152114, 4982.114432110123, -72296.62803371287, -54956.88229285268, -44572.97707473959, -46853.48085802566, -17267.482551036188, -49752.949148768086, 0.004, 0.788, 0.644, 192.0, 0.0, 0.0, 0.0, 0.0, 0.0, 0.0, 0.0, 0.0, 0.0, 1.6541572347216003E9, 0.0, 2022-06-02 10:07:14.721
22.0, 21217.929866067156, 4971.922036638503, -72294.77283892308, -54960.50327545444, -44566.53977233646, -46849.63635797935, -17264.35330681244, -49741.773276540436, 0.004, 0.788, 0.644, 192.0, 0.0, 0.0, 0.0, 0.0, 0.0, 0.0, 0.0, 0.0, 0.0, 1.6541572347216513E9, 0.0, 2022-06-02 10:07:14.721
23.0, 21219.159212012197, 4975.453612262441, -72293.49878948912, -54956.234092263476, -44565.4221851137, -46844.47310501017, -17269.74007722617, -49746.53419810942, 0.004, 0.788, 0.644, 192.0, 0.0, 0.0, 0.0, 0.0, 0.0, 0.0, 0.0, 0.0, 0.0, 1.6541572347216597E9, 0.0, 2022-06-02 10:07:14.721
24.0, 21224.523630681473, 4973.307844794732, -72310.95550190873, -54965.26419702342, -44579.30261842044, -46853.14558185883, -17292.069469937025, -49777.491364180016, 0.004, 0.788, 0.644, 192.0, 0.0, 0.0, 0.0, 0.0, 0.0, 0.0, 0.0, 0.0, 0.0, 1.6541572347216685E9, 0.0, 2022-06-02 10:07:14.721
25.0, 21222.735491125048, 4968.144591825556, -72318.35392932344, -54975.61305470623, -44585.35994116783, -46864.09793664193, -17273.2269493612, -49756.88305579222, 0.004, 0.788, 0.644, 192.0, 0.0, 0.0, 0.0, 0.0, 0.0, 0.0, 0.0, 0.0, 0.0, 1.6541572347216768E9, 0.0, 2022-06-02 10:07:14.721
26.0, 21215.71704336608, 4965.998824357846, -72311.76016470912, -54973.02025234941, -44581.336627165874, -46856.386584804844, -17256.641954975363, -49721.36613385274, 0.004, 0.788, 0.644, 192.0, 0.0, 0.0, 0.0, 0.0, 0.0, 0.0, 0.0, 0.0, 0.0, 1.6541572347216852E9, 0.0, 2022-06-02 10:07:14.721
27.0, 21209.302092707407, 4967.094059836157, -72300.22666457017, -54963.61016793373, -44570.94306599416, -46848.161142845296, -17239.341704766954, -49714.012409926945, 0.006, 0.792, 0.646, 192.0, 0.0, 48.0, 24.0, 192.0, 20.0, 48.0, 0.0, 0.0, 0.0, 1.6541572347216923E9, 0.0, 2022-06-02 10:07:14.721
28.0, 21218.131031767254, 4975.766536684816, -72291.28596678805, -54948.16511251511, -44554.44747858614, -46836.00179386161, -17219.269838246088, -49723.60130829827, 0.006, 0.792, 0.646, 192.0, 0.0, 0.0, 0.0, 0.0, 0.0, 0.0, 0.0, 0.0, 0.0, 1.6541572347216988E9, 0.0, 2022-06-02 10:07:14.721
29.0, 21211.403156686207, 4964.680071434984, -72320.5220485356, -54964.21366503402, -44575.90515326323, -46848.921102156775, -17262.69927772275, -49752.43505864561, 0.006, 0.792, 0.646, 192.0, 0.0, 0.0, 0.0, 0.0, 0.0, 0.0, 0.0, 0.0, 0.0, 1.6541572347217047E9, 0.0, 2022-06-02 10:07:14.721
30.0, 21206.73164209505, 4956.119353308601, -72332.10025216345, -54981.960950131535, -44596.647572117756, -46870.84816346743, -17289.633129791397, -49770.47291642105, 0.006, 0.792, 0.646, 192.0, 0.0, 0.0, 0.0, 0.0, 0.0, 0.0, 0.0, 0.0, 0.0, 1.6541572347217124E9, 0.0, 2022-06-02 10:07:14.721
31.0, 21200.651967603204, 4950.397306728042, -72326.51231604962, -54977.44589775156, -44589.69617959216, -46868.23300936616, -17253.244489818157, -49754.44671564659, 0.006, 0.792, 0.646, 192.0, 0.0, 0.0, 0.0, 0.0, 0.0, 0.0, 0.0, 0.0, 0.0, 1.6541572347217183E9, 0.0, 2022-06-02 10:07:14.721
32.0, 21188.894950019712, 4943.3341554801655, -72320.90202819134, -54973.19906630505, -44578.96734225361, -46852.31856731398, -17230.423358729287, -49728.406933356164, 0.006, 0.792, 0.646, 192.0, 0.0, 0.0, 0.0, 0.0, 0.0, 0.0, 0.0, 0.0, 0.0, 1.6541572347217245E9, 0.0, 2022-06-02 10:07:14.721
33.0, 21195.06403148938, 4950.754934639327, -72315.02351939959, -54964.86186562322, -44575.23460092957, -46845.925968399766, -17242.716818179706, -49749.35051791078, 0.006, 0.792, 0.646, 192.0, 0.0, 0.0, 0.0, 0.0, 0.0, 0.0, 0.0, 0.0, 0.0, 1.654157234721745E9, 0.0, 2022-06-02 10:07:14.721
34.0, 21194.840514044823, 4945.010536314313, -72343.58904881348, -54983.19029607657, -44597.31812445142, -46866.80249772102, -17277.09380115197, -49778.27367523595, 0.006, 0.792, 0.646, 192.0, 0.0, 0.0, 0.0, 0.0, 0.0, 0.0, 0.0, 0.0, 0.0, 1.6541572347217631E9, 0.0, 2022-06-02 10:07:14.721
35.0, 21195.555769867395, 4950.397306728042, -72343.11966217992, -54986.31954030032, -44603.66601987672, -46873.105689657415, -17272.064658649524, -49762.448640161594, 0.006, 0.792, 0.646, 192.0, 0.0, 0.0, 0.0, 0.0, 0.0, 0.0, 0.0, 0.0, 0.0, 1.654157234721786E9, 0.0, 2022-06-02 10:07:14.721
36.0, 21182.502351105493, 4942.149513024034, -72339.38692085588, -54988.84528742377, -44597.8769180628, -46876.05611992552, -17255.189091585766, -49757.486552892515, 0.006, 0.792, 0.646, 192.0, 0.0, 0.0, 0.0, 0.0, 0.0, 0.0, 0.0, 0.0, 0.0, 1.6541572347218149E9, 0.0, 2022-06-02 10:07:14.721
37.0, 21188.090287219322, 4946.038716559257, -72325.46178406021, -54973.422583749605, -44586.16460396822, -46866.15429713181, -17269.94124292627, -49763.05213726189, 0.012, 0.788, 0.646, 192.0, 0.0, 96.0, 24.0, 160.0, 20.0, 48.0, 0.0, 0.0, 0.0, 1.654157234721845E9, 0.0, 2022-06-02 10:07:14.721
38.0, 21194.348775666807, 4950.576120683685, -72324.18773462626, -54966.44883947955, -44591.21609821512, -46866.7130907432, -17287.353251856955, -49770.96465479906, 0.012, 0.788, 0.646, 192.0, 0.0, 0.0, 0.0, 0.0, 0.0, 0.0, 0.0, 0.0, 0.0, 1.6541572347218666E9, 0.0, 2022-06-02 10:07:14.721
39.0, 21200.696671092115, 4954.018289329802, -72327.69695850575, -54969.6227871922, -44591.86429880432, -46861.929817429766, -17261.581690499985, -49745.8412940313, 0.012, 0.788, 0.646, 192.0, 0.0, 0.0, 0.0, 0.0, 0.0, 0.0, 0.0, 0.0, 0.0, 1.654157234721894E9, 0.0, 2022-06-02 10:07:14.721
40.0, 21205.792868827924, 4956.6557951755285, -72330.31211260702, -54979.21168556353, -44599.68740936368, -46870.06585241149, -17267.370792313908, -49741.28153816242, 0.012, 0.788, 0.646, 192.0, 0.0, 0.0, 0.0, 0.0, 0.0, 0.0, 0.0, 0.0, 0.0, 1.6541572347219188E9, 0.0, 2022-06-02 10:07:14.721
41.0, 21206.9551595396, 4963.137801067567, -72320.34323457995, -54976.48477273998, -44600.58147914189, -46873.79859373553, -17287.085030923492, -49761.80043957239, 0.012, 0.788, 0.646, 192.0, 0.0, 0.0, 0.0, 0.0, 0.0, 0.0, 0.0, 0.0, 0.0, 1.6541572347219276E9, 0.0, 2022-06-02 10:07:14.721
42.0, 21196.33808092333, 4955.359393997121, -72319.38210956838, -54977.08826984028, -44593.65243836075, -46881.197021150234, -17278.70312675275, -49779.21244850307, 0.012, 0.788, 0.646, 192.0, 0.0, 0.0, 0.0, 0.0, 0.0, 0.0, 0.0, 0.0, 0.0, 1.6541572347219365E9, 0.0, 2022-06-02 10:07:14.721
43.0, 21188.403211641697, 4950.173789283489, -72328.21104862822, -54983.7267379435, -44594.09947324985, -46880.25824788312, -17284.201655888755, -49779.05598629189, 0.012, 0.788, 0.646, 192.0, 0.0, 0.0, 0.0, 0.0, 0.0, 0.0, 0.0, 0.0, 0.0, 1.6541572347219548E9, 0.0, 2022-06-02 10:07:14.721
44.0, 21195.62282510076, 4952.78894338476, -72340.10217667844, -54988.51001125694, -44599.59800238586, -46874.647960024835, -17272.22112086071, -49761.062832005366, 0.012, 0.788, 0.646, 192.0, 0.0, 0.0, 0.0, 0.0, 0.0, 0.0, 0.0, 0.0, 0.0, 1.654157234721962E9, 0.0, 2022-06-02 10:07:14.721
45.0, 21198.1038687353, 4947.7374491378605, -72349.73577853868, -55000.065863140335, -44617.59115667238, -46895.23391666817, -17284.671042522317, -49782.40874796018, 0.012, 0.788, 0.646, 192.0, 0.0, 0.0, 0.0, 0.0, 0.0, 0.0, 0.0, 0.0, 0.0, 1.6541572347219696E9, 0.0, 2022-06-02 10:07:14.721
46.0, 21200.249636203007, 4947.916263093503, -72338.76107201113, -54993.472098526014, -44614.886595593285, -46894.94334399025, -17288.023804190612, -49792.10940505379, 0.012, 0.788, 0.646, 192.0, 0.0, 0.0, 0.0, 0.0, 0.0, 0.0, 0.0, 0.0, 0.0, 1.654157234721979E9, 0.0, 2022-06-02 10:07:14.721
47.0, 21205.569351383372, 4953.6606614185175, -72320.9243799358, -54980.10575534174, -44592.2219267156, -46875.5643815475, -17271.79643771606, -49765.399070429696, 0.012, 0.792, 0.646, 192.0, 0.0, 96.0, 24.0, 192.0, 20.0, 48.0, 0.0, 0.0, 0.0, 1.6541572347219903E9, 0.0, 2022-06-02 10:07:14.721
48.0, 21194.63934834473, 4949.346774738643, -72324.03127241509, -54981.93859838708, -44582.9236010222, -46873.50802105761, -17256.08316136398, -49764.37089018475, 0.012, 0.792, 0.646, 192.0, 0.0, 0.0, 0.0, 0.0, 0.0, 0.0, 0.0, 0.0, 0.0, 1.654157234721997E9, 0.0, 2022-06-02 10:07:14.721
49.0, 21192.560636110382, 4946.195178770445, -72338.09051967747, -54988.5770664903, -44588.55624062494, -46874.89382921384, -17259.21240558772, -49772.55162865539, 0.012, 0.792, 0.646, 192.0, 0.0, 0.0, 0.0, 0.0, 0.0, 0.0, 0.0, 0.0, 0.0, 1.654157234722005E9, 0.0, 2022-06-02 10:07:14.722
50.0, 21197.52272337946, 4947.31276599321, -72344.61722905842, -54995.55081076036, -44604.06835127692, -46882.60518105092, -17284.447525077765, -49780.55355317039, 0.012, 0.792, 0.646, 192.0, 0.0, 0.0, 0.0, 0.0, 0.0, 0.0, 0.0, 0.0, 0.0, 1.6541572347220132E9, 0.0, 2022-06-02 10:07:14.722
51.0, 21201.367223425776, 4952.051335817735, -72332.77080449711, -54990.74518570247, -44605.92354606671, -46879.78886124955, -17298.03738570659, -49784.979198572546, 0.012, 0.792, 0.646, 192.0, 0.0, 0.0, 0.0, 0.0, 0.0, 0.0, 0.0, 0.0, 0.0, 1.6541572347220216E9, 0.0, 2022-06-02 10:07:14.722
52.0, 21196.405136156696, 4944.40703921402, -72327.56284803902, -54987.057147867345, -44600.58147914189, -46874.715015258196, -17288.292025124076, -49778.810117102876, 0.012, 0.792, 0.646, 192.0, 0.0, 0.0, 0.0, 0.0, 0.0, 0.0, 0.0, 0.0, 0.0, 1.6541572347220318E9, 0.0, 2022-06-02 10:07:14.722
53.0, 21184.446952873106, 4940.473132189886, -72330.33446435147, -54985.090194355274, -44601.38614194228, -46872.56924779049, -17287.62147279042, -49784.956846828085, 0.012, 0.792, 0.646, 192.0, 0.0, 0.0, 0.0, 0.0, 0.0, 0.0, 0.0, 0.0, 0.0, 1.6541572347220392E9, 0.0, 2022-06-02 10:07:14.722
54.0, 21170.43240909963, 4925.11748374909, -72357.4247786313, -55001.183450363096, -44621.033325318494, -46889.69068404326, -17312.543667858085, -49820.272603067475, 0.012, 0.792, 0.646, 192.0, 0.0, 0.0, 0.0, 0.0, 0.0, 0.0, 0.0, 0.0, 0.0, 1.6541572347220547E9, 0.0, 2022-06-02 10:07:14.722
55.0, 21169.42658059914, 4918.434312156954, -72365.42670314631, -55010.45942431205, -44636.634842948304, -46896.95500099123, -17330.670932611338, -49811.890698896736, 0.012, 0.792, 0.646, 192.0, 0.0, 0.0, 0.0, 0.0, 0.0, 0.0, 0.0, 0.0, 0.0, 1.6541572347220635E9, 0.0, 2022-06-02 10:07:14.722
56.0, 21177.674374303147, 4925.743332593838, -72343.79021451357, -54990.052281624354, -44611.28796473598, -46876.50315481462, -17284.872208222416, -49756.19015171411, 0.012, 0.792, 0.646, 192.0, 0.0, 0.0, 0.0, 0.0, 0.0, 0.0, 0.0, 0.0, 0.0, 1.6541572347220762E9, 0.0, 2022-06-02 10:07:14.722
57.0, 21171.773513766948, 4923.910489548503, -72334.60364754243, -54984.7772699329, -44602.25785997604, -46875.85495422542, -17278.837237219483, -49767.56718964186, 0.008, 0.794, 0.638, 192.0, 0.0, 64.0, 24.0, 208.0, 19.0, 240.0, 0.0, 0.0, 0.0, 1.6541572347220893E9, 0.0, 2022-06-02 10:07:14.722
58.0, 21172.600528311796, 4924.223413970878, -72332.68139751928, -54979.81518266382, -44605.11888326632, -46878.24659088214, -17279.708955253238, -49783.3028177384, 0.008, 0.794, 0.638, 192.0, 0.0, 0.0, 0.0, 0.0, 0.0, 0.0, 0.0, 0.0, 0.0, 1.6541572347220953E9, 0.0, 2022-06-02 10:07:14.722
59.0, 21168.644269543205, 4921.809425569704, -72347.0759209485, -54983.36911003222, -44609.74569436857, -46877.88896297085, -17268.42132430331, -49772.01518678846, 0.008, 0.794, 0.638, 192.0, 0.0, 0.0, 0.0, 0.0, 0.0, 0.0, 0.0, 0.0, 0.0, 1.654157234722101E9, 0.0, 2022-06-02 10:07:14.722
60.0, 21174.567481823862, 4926.905623305514, -72344.46076684723, -54981.603322220246, -44614.41720895973, -46878.201887393225, -17280.066583164524, -49761.263997705464, 0.008, 0.794, 0.638, 192.0, 0.0, 0.0, 0.0, 0.0, 0.0, 0.0, 0.0, 0.0, 0.0, 1.6541572347221084E9, 0.0, 2022-06-02 10:07:14.722
61.0, 21174.455723101586, 4928.447893672931, -72335.09538592046, -54977.60235996275, -44614.57367117091, -46882.42636709528, -17289.677833280308, -49767.72365185305, 0.008, 0.794, 0.638, 192.0, 0.0, 0.0, 0.0, 0.0, 0.0, 0.0, 0.0, 0.0, 0.0, 1.6541572347221177E9, 0.0, 2022-06-02 10:07:14.722
62.0, 21164.844472985802, 4922.524681392274, -72329.73096725118, -54977.758822173935, -44607.287002478486, -46883.722768273685, -17276.602062773953, -49765.108497751775, 0.008, 0.794, 0.638, 192.0, 0.0, 0.0, 0.0, 0.0, 0.0, 0.0, 0.0, 0.0, 0.0, 1.6541572347221284E9, 0.0, 2022-06-02 10:07:14.722
63.0, 21165.515025319462, 4926.16801573849, -72328.50162130615, -54975.34483377276, -44602.794301842965, -46879.29712287154, -17273.964556928226, -49762.4933436505, 0.008, 0.794, 0.638, 192.0, 0.0, 0.0, 0.0, 0.0, 0.0, 0.0, 0.0, 0.0, 0.0, 1.6541572347221355E9, 0.0, 2022-06-02 10:07:14.722
64.0, 21174.835702757326, 4932.873539075082, -72336.23532488768, -54978.183505318586, -44605.945897811165, -46883.722768273685, -17271.595272015962, -49776.574942657346, 0.008, 0.794, 0.638, 192.0, 0.0, 0.0, 0.0, 0.0, 0.0, 0.0, 0.0, 0.0, 0.0, 1.6541572347221527E9, 0.0, 2022-06-02 10:07:14.722
65.0, 21170.231243399532, 4920.937707535948, -72352.1274151954, -54997.87539218371, -44624.766066642536, -46904.420483639304, -17292.3823943594, -49794.03165507694, 0.008, 0.794, 0.638, 192.0, 0.0, 0.0, 0.0, 0.0, 0.0, 0.0, 0.0, 0.0, 0.0, 1.6541572347221603E9, 0.0, 2022-06-02 10:07:14.722
66.0, 21168.51015907647, 4918.255498201311, -72347.3217901375, -55001.45167129656, -44620.22866251811, -46901.04537022655, -17288.42613559081, -49776.08320427933, 0.008, 0.794, 0.638, 192.0, 0.0, 0.0, 0.0, 0.0, 0.0, 0.0, 0.0, 0.0, 0.0, 1.6541572347221715E9, 0.0, 2022-06-02 10:07:14.722
67.0, 21169.828911999335, 4920.244803457833, -72334.53659230907, -54996.26606658293, -44612.45025544766, -46890.093015443446, -17280.111286653435, -49766.62841637473, 0.012, 0.794, 0.638, 192.0, 0.0, 96.0, 24.0, 208.0, 19.0, 240.0, 0.0, 0.0, 0.0, 1.6541572347221797E9, 0.0, 2022-06-02 10:07:14.722
68.0, 21174.545130079405, 4927.3079547057105, -72332.83785973047, -54985.53722924438, -44606.012953044534, -46883.029864195574, -17283.218179132724, -49776.641997890714, 0.012, 0.794, 0.638, 192.0, 0.0, 0.0, 0.0, 0.0, 0.0, 0.0, 0.0, 0.0, 0.0, 1.6541572347221882E9, 0.0, 2022-06-02 10:07:14.722
69.0, 21165.87265323075, 4917.406131912009, -72362.14099671137, -55004.31269458684, -44625.660136420745, -46892.99874222264, -17298.193847917777, -49787.9519805851, 0.012, 0.794, 0.638, 192.0, 0.0, 0.0, 0.0, 0.0, 0.0, 0.0, 0.0, 0.0, 0.0, 1.6541572347221944E9, 0.0, 2022-06-02 10:07:14.722
70.0, 21172.600528311796, 4921.943536036437, -72368.28772643658, -55006.45846205455, -44633.4385434912, -46897.62555332489, -17312.498964369173, -49794.79161438842, 0.012, 0.794, 0.638, 192.0, 0.0, 0.0, 0.0, 0.0, 0.0, 0.0, 0.0, 0.0, 0.0, 1.6541572347222047E9, 0.0, 2022-06-02 10:07:14.722
71.0, 21171.549996322396, 4927.442065172442, -72352.84267101798, -54997.338950316785, -44632.231549290605, -46890.294181143545, -17317.66221733835, -49792.84701262081, 0.012, 0.794, 0.638, 192.0, 0.0, 0.0, 0.0, 0.0, 0.0, 0.0, 0.0, 0.0, 0.0, 1.6541572347222123E9, 0.0, 2022-06-02 10:07:14.722
72.0, 21171.505292833484, 4927.039733772246, -72342.44910984625, -54987.906514156646, -44624.11786605333, -46880.03473043856, -17316.47757488222, -49784.532163683434, 0.012, 0.794, 0.638, 192.0, 0.0, 0.0, 0.0, 0.0, 0.0, 0.0, 0.0, 0.0, 0.0, 1.6541572347222192E9, 0.0, 2022-06-02 10:07:14.722
73.0, 21167.191406153608, 4919.730713335361, -72352.46269136223, -54991.12516535821, -44633.21502604664, -46878.85008798243, -17335.364798946954, -49789.024864318955, 0.012, 0.794, 0.638, 192.0, 0.0, 0.0, 0.0, 0.0, 0.0, 0.0, 0.0, 0.0, 0.0, 1.6541572347222278E9, 0.0, 2022-06-02 10:07:14.722
74.0, 21162.922222962647, 4919.2613267018, -72364.21970894572, -54996.288418327385, -44640.16641857224, -46878.201887393225, -17313.90712426986, -49781.35821597078, 0.012, 0.794, 0.638, 192.0, 0.0, 0.0, 0.0, 0.0, 0.0, 0.0, 0.0, 0.0, 0.0, 1.6541572347222393E9, 0.0, 2022-06-02 10:07:14.722
75.0, 21156.507272303974, 4915.483881888853, -72370.96993577122, -55007.531345788404, -44635.60666270336, -46891.635285810866, -17281.877074465403, -49771.85872457728, 0.012, 0.794, 0.638, 192.0, 0.0, 0.0, 0.0, 0.0, 0.0, 0.0, 0.0, 0.0, 0.0, 1.654157234722247E9, 0.0, 2022-06-02 10:07:14.722
76.0, 21150.405246067676, 4911.706437075905, -72363.50445312315, -55008.447767311074, -44631.3374795124, -46897.4690911137, -17283.396993088365, -49769.6459018762, 0.012, 0.794, 0.638, 192.0, 0.0, 0.0, 0.0, 0.0, 0.0, 0.0, 0.0, 0.0, 0.0, 1.6541572347222538E9, 0.0, 2022-06-02 10:07:14.722
77.0, 21155.166167636653, 4915.774454566772, -72350.78631052808, -54998.16596486163, -44624.38608698679, -46896.4185591243, -17295.489286838685, -49797.071492322866, 0.016, 0.796, 0.638, 192.0, 0.0, 128.0, 24.0, 224.0, 19.0, 240.0, 0.0, 0.0, 0.0, 1.6541572347222614E9, 0.0, 2022-06-02 10:07:14.722
78.0, 21149.689990245104, 4903.905678261003, -72361.87277577791, -55000.043511395874, -44630.66692717873, -46894.94334399025, -17302.261865408644, -49802.011227847484, 0.016, 0.796, 0.638, 192.0, 0.0, 0.0, 0.0, 0.0, 0.0, 0.0, 0.0, 0.0, 0.0, 1.654157234722273E9, 0.0, 2022-06-02 10:07:14.722
79.0, 21146.56074602136, 4896.35078863511, -72383.66572662184, -55011.95699119056, -44652.6386919783, -46900.53128010408, -17336.057703025068, -49806.99566686102, 0.016, 0.796, 0.638, 192.0, 0.0, 0.0, 0.0, 0.0, 0.0, 0.0, 0.0, 0.0, 0.0, 1.6541572347222855E9, 0.0, 2022-06-02 10:07:14.722
80.0, 21157.222528126542, 4903.793919538727, -72387.15259875686, -55016.7849679929, -44665.60270376238, -46911.7742075651, -17371.127590075444, -49823.15597810221, 0.016, 0.796, 0.638, 192.0, 0.0, 0.0, 0.0, 0.0, 0.0, 0.0, 0.0, 0.0, 0.0, 1.6541572347223008E9, 0.0, 2022-06-02 10:07:14.722
81.0, 21152.975696680034, 4905.380893395054, -72380.84940682047, -55018.55075580487, -44654.78445944601, -46915.462245400224, -17345.71365662976, -49817.92566989967, 0.016, 0.796, 0.638, 192.0, 0.0, 0.0, 0.0, 0.0, 0.0, 0.0, 0.0, 0.0, 0.0, 1.65415723472231E9, 0.0, 2022-06-02 10:07:14.722
82.0, 21151.209908868066, 4912.086416731646, -72364.7337990682, -55002.144575374674, -44637.70772668216, -46908.957887763725, -17308.676816067316, -49809.208489562094, 0.016, 0.796, 0.638, 192.0, 0.0, 0.0, 0.0, 0.0, 0.0, 0.0, 0.0, 0.0, 0.0, 1.6541572347223215E9, 0.0, 2022-06-02 10:07:14.722
83.0, 21150.60641176777, 4913.248707443322, -72362.1857002003, -54994.053243881855, -44631.71745916813, -46896.48561435767, -17291.5330280701, -49789.13662304123, 0.016, 0.796, 0.638, 192.0, 0.0, 0.0, 0.0, 0.0, 0.0, 0.0, 0.0, 0.0, 0.0, 1.654157234722334E9, 0.0, 2022-06-02 10:07:14.722
84.0, 21157.446045571094, 4916.601469111618, -72372.86983404992, -54996.55663926085, -44637.59596795988, -46895.07745445698, -17303.021824720123, -49795.12689055525, 0.016, 0.796, 0.638, 192.0, 0.0, 0.0, 0.0, 0.0, 0.0, 0.0, 0.0, 0.0, 0.0, 1.654157234722342E9, 0.0, 2022-06-02 10:07:14.722
85.0, 21163.39160959621, 4919.976582524369, -72374.68032535081, -55006.23494461, -44654.13625885681, -46917.51860589011, -17337.979953048223, -49831.09084738384, 0.016, 0.796, 0.638, 192.0, 0.0, 0.0, 0.0, 0.0, 0.0, 0.0, 0.0, 0.0, 0.0, 1.6541572347223508E9, 0.0, 2022-06-02 10:07:14.722
86.0, 21162.9445747071, 4917.540242378741, -72366.99132525818, -55003.64214225318, -44650.9399593997, -46919.887890802376, -17338.56109840406, -49818.305649555405, 0.016, 0.796, 0.638, 192.0, 0.0, 0.0, 0.0, 0.0, 0.0, 0.0, 0.0, 0.0, 0.0, 1.6541572347223823E9, 0.0, 2022-06-02 10:07:14.722
87.0, 21162.251670628986, 4916.042675500235, -72352.95442974025, -54998.16596486163, -44640.25582555006, -46912.08713198747, -17314.689435325796, -49805.14047207123, 0.014, 0.792, 0.644, 192.0, 0.0, 112.0, 24.0, 192.0, 20.0, 32.0, 0.0, 0.0, 0.0, 1.6541572347223911E9, 0.0, 2022-06-02 10:07:14.722
88.0, 21155.344981592298, 4914.54510862173, -72352.79796752906, -54997.31659857233, -44636.567787714936, -46903.437006883265, -17311.917819013335, -49806.347466271814, 0.014, 0.792, 0.644, 192.0, 0.0, 0.0, 0.0, 0.0, 0.0, 0.0, 0.0, 0.0, 0.0, 1.654157234722405E9, 0.0, 2022-06-02 10:07:14.722
89.0, 21149.868804200745, 4910.074759730668, -72377.45194166327, -55013.40985458015, -44654.31507281245, -46910.3213441755, -17344.35020021799, -49838.042239909446, 0.014, 0.792, 0.644, 192.0, 0.0, 0.0, 0.0, 0.0, 0.0, 0.0, 0.0, 0.0, 0.0, 1.654157234722416E9, 0.0, 2022-06-02 10:07:14.722
90.0, 21144.8396616983, 4907.571364351674, -72395.0427645496, -55032.87822400072, -44680.37720684734, -46938.261024744636, -17394.328700820053, -49884.8244410544, 0.014, 0.792, 0.644, 192.0, 0.0, 0.0, 0.0, 0.0, 0.0, 0.0, 0.0, 0.0, 0.0, 1.6541572347224307E9, 0.0, 2022-06-02 10:07:14.722
91.0, 21152.394551324196, 4913.673390587973, -72376.71433409624, -55017.187299393096, -44667.74847123009, -46919.15028323535, -17354.989630578715, -49831.5602340174, 0.014, 0.792, 0.644, 192.0, 0.0, 0.0, 0.0, 0.0, 0.0, 0.0, 0.0, 0.0, 0.0, 1.6541572347224414E9, 0.0, 2022-06-02 10:07:14.722
92.0, 21151.589888523806, 4911.438216142442, -72364.51028162365, -55008.55952603335, -44657.198447847186, -46902.9229167608, -17320.90322028437, -49790.88005910874, 0.014, 0.792, 0.644, 192.0, 0.0, 0.0, 0.0, 0.0, 0.0, 0.0, 0.0, 0.0, 0.0, 1.6541572347224479E9, 0.0, 2022-06-02 10:07:14.722
93.0, 21146.001952409977, 4913.695742332428, -72361.02340948861, -55002.926886430614, -44645.307319796964, -46894.988047479164, -17304.29587415408, -49788.1531462852, 0.014, 0.792, 0.644, 192.0, 0.0, 0.0, 0.0, 0.0, 0.0, 0.0, 0.0, 0.0, 0.0, 1.6541572347224567E9, 0.0, 2022-06-02 10:07:14.722
94.0, 21151.701647246082, 4920.580079624663, -72366.92427002481, -54992.48862176998, -44641.44046800619, -46885.555611319025, -17295.154010671857, -49784.46510845007, 0.014, 0.792, 0.644, 192.0, 0.0, 0.0, 0.0, 0.0, 0.0, 0.0, 0.0, 0.0, 0.0, 1.6541572347224755E9, 0.0, 2022-06-02 10:07:14.722
95.0, 21142.60448725277, 4907.325495162666, -72393.25462499316, -55016.51674705944, -44669.60366601988, -46918.01034426813, -17336.974124547734, -49820.563175745396, 0.014, 0.792, 0.644, 192.0, 0.0, 0.0, 0.0, 0.0, 0.0, 0.0, 0.0, 0.0, 0.0, 1.654157234722486E9, 0.0, 2022-06-02 10:07:14.722
96.0, 21138.312952317352, 4905.604410839607, -72386.77261910113, -55014.43803482509, -44673.17994513273, -46916.66923960081, -17346.943002574804, -49814.03646636444, 0.014, 0.792, 0.644, 192.0, 0.0, 0.0, 0.0, 0.0, 0.0, 0.0, 0.0, 0.0, 0.0, 1.6541572347224953E9, 0.0, 2022-06-02 10:07:14.722
97.0, 21134.937838904603, 4904.486823616841, -72370.16527297083, -55004.64797075367, -44652.68339546721, -46909.20375695274, -17321.394958662386, -49793.8528411213, 0.008, 0.79, 0.64, 192.0, 0.0, 64.0, 24.0, 176.0, 20.0, 0.0, 0.0, 0.0, 0.0, 1.6541572347225094E9, 0.0, 2022-06-02 10:07:14.722
98.0, 21137.50828951696, 4908.6442480855285, -72364.62204034592, -54997.07072938332, -44651.252883822075, -46904.15226270584, -17339.343409459998, -49806.86155639429, 0.008, 0.79, 0.64, 192.0, 0.0, 0.0, 0.0, 0.0, 0.0, 0.0, 0.0, 0.0, 0.0, 1.6541572347225173E9, 0.0, 2022-06-02 10:07:14.722
99.0, 21144.370275064743, 4914.4557016439085, -72375.52969164011, -55000.73641547399, -44664.529820028525, -46910.164881964316, -17351.703924143785, -49828.47569328257, 0.008, 0.79, 0.64, 192.0, 0.0, 0.0, 0.0, 0.0, 0.0, 0.0, 0.0, 0.0, 0.0, 1.6541572347225296E9, 0.0, 2022-06-02 10:07:14.722
100.0, 21149.868804200745, 4914.410998154998, -72375.26147070664, -55007.2854765994, -44662.3393490719, -46927.80040833955, -17336.661200125363, -49841.931443444664, 0.008, 0.79, 0.64, 192.0, 0.0, 0.0, 0.0, 0.0, 0.0, 0.0, 0.0, 0.0, 0.0, 1.65415723472254E9, 0.0, 2022-06-02 10:07:14.722
101.0, 21155.121464147745, 4922.390570925542, -72356.70952280874, -54996.578991005306, -44650.045889621484, -46921.4748646587, -17331.252077967176, -49836.79054221995, 0.008, 0.79, 0.64, 192.0, 0.0, 0.0, 0.0, 0.0, 0.0, 0.0, 0.0, 0.0, 0.0, 1.6541572347225485E9, 0.0, 2022-06-02 10:07:14.722
102.0, 21147.36540882175, 4916.288544689244, -72355.74839779716, -54996.489584027484, -44647.16251458675, -46921.6760303588, -17335.185984991313, -49838.7127922431, 0.008, 0.79, 0.64, 192.0, 0.0, 0.0, 0.0, 0.0, 0.0, 0.0, 0.0, 0.0, 0.0, 1.6541572347225585E9, 0.0, 2022-06-02 10:07:14.722
103.0, 21143.744426219993, 4910.901774275515, -72362.1857002003, -55000.53524977389, -44651.43169777771, -46921.78778908108, -17333.219031479246, -49841.12678064428, 0.008, 0.79, 0.64, 192.0, 0.0, 0.0, 0.0, 0.0, 0.0, 0.0, 0.0, 0.0, 0.0, 1.6541572347225704E9, 0.0, 2022-06-02 10:07:14.722
104.0, 21150.919336190145, 4914.5674603661855, -72372.15457822736, -55002.859831197246, -44655.61147399086, -46917.563309379024, -17315.628208592916, -49830.397943305725, 0.008, 0.79, 0.64, 192.0, 0.0, 0.0, 0.0, 0.0, 0.0, 0.0, 0.0, 0.0, 0.0, 1.6541572347225847E9, 0.0, 2022-06-02 10:07:14.722
105.0, 21146.33722857681, 4912.198175453923, -72385.61032838945, -55013.99099993599, -44667.01086366306, -46921.29605070306, -17341.802101350084, -49815.7575506875, 0.008, 0.79, 0.64, 192.0, 0.0, 0.0, 0.0, 0.0, 0.0, 0.0, 0.0, 0.0, 0.0, 1.6541572347225983E9, 0.0, 2022-06-02 10:07:14.722
106.0, 21139.89992617368, 4907.481957373852, -72382.32462195453, -55014.84036622529, -44668.709596241664, -46920.37962918039, -17350.094598543, -49808.29206803943, 0.012, 0.792, 0.632, 192.0, 0.0, 96.0, 24.0, 192.0, 19.0, 192.0, 0.0, 0.0, 0.0, 1.6541572347226095E9, 0.0, 2022-06-02 10:07:14.722
107.0, 21135.60839123826, 4907.0572742292015, -72375.19441547328, -55004.603267264756, -44659.47832578162, -46913.04825699905, -17336.549441403084, -49806.54863197191, 0.012, 0.792, 0.632, 192.0, 0.0, 0.0, 0.0, 0.0, 0.0, 0.0, 0.0, 0.0, 0.0, 1.6541572347226388E9, 0.0, 2022-06-02 10:07:14.722
108.0, 21143.140929119698, 4917.7414080788385, -72367.41600840283, -54987.79475543437, -44653.80098268998, -46901.53710860456, -17340.125720515935, -49807.84503315032, 0.012, 0.792, 0.632, 192.0, 0.0, 0.0, 0.0, 0.0, 0.0, 0.0, 0.0, 0.0, 0.0, 1.6541572347226474E9, 0.0, 2022-06-02 10:07:14.722
109.0, 21143.543260519895, 4910.052407986213, -72389.8348080915, -55003.12805213071, -44662.20523860517, -46917.80917856803, -17349.736970631715, -49847.877007469775, 0.012, 0.792, 0.632, 192.0, 0.0, 0.0, 0.0, 0.0, 0.0, 0.0, 0.0, 0.0, 0.0, 1.654157234722654E9, 0.0, 2022-06-02 10:07:14.722
110.0, 21148.32653383333, 4904.285657916744, -72401.92710184182, -55022.484662829, -44674.47634631114, -46944.05012655856, -17371.172293564356, -49879.79529855196, 0.012, 0.792, 0.632, 192.0, 0.0, 0.0, 0.0, 0.0, 0.0, 0.0, 0.0, 0.0, 0.0, 1.6541572347226596E9, 0.0, 2022-06-02 10:07:14.722
111.0, 21149.868804200745, 4909.515966119286, -72386.34793595648, -55014.54979354737, -44665.17802061773, -46929.20856824024, -17364.220901038756, -49842.222016122585, 0.012, 0.792, 0.632, 192.0, 0.0, 0.0, 0.0, 0.0, 0.0, 0.0, 0.0, 0.0, 0.0, 1.6541572347226665E9, 0.0, 2022-06-02 10:07:14.722
112.0, 21146.627801254726, 4910.253573686311, -72371.23815670468, -55007.330180088305, -44649.710613454656, -46910.47780638669, -17335.90124081388, -49804.827547648856, 0.012, 0.792, 0.632, 192.0, 0.0, 0.0, 0.0, 0.0, 0.0, 0.0, 0.0, 0.0, 0.0, 1.6541572347226727E9, 0.0, 2022-06-02 10:07:14.722
113.0, 21136.167184849644, 4901.022303226269, -72377.25077596317, -55017.20965113755, -44652.504581511566, -46917.205681467734, -17328.502813399176, -49810.28137329595, 0.012, 0.792, 0.632, 192.0, 0.0, 0.0, 0.0, 0.0, 0.0, 0.0, 0.0, 0.0, 0.0, 1.6541572347226808E9, 0.0, 2022-06-02 10:07:14.722
114.0, 21131.406263280664, 4896.6637130574845, -72396.89795933937, -55033.45936935656, -44671.70472999868, -46935.71292587673, -17363.997383594204, -49849.50868481502, 0.012, 0.792, 0.632, 192.0, 0.0, 0.0, 0.0, 0.0, 0.0, 0.0, 0.0, 0.0, 0.0, 1.6541572347226875E9, 0.0, 2022-06-02 10:07:14.722
115.0, 21139.162318606654, 4904.464471872387, -72391.31002322555, -55037.8403112698, -44671.68237825423, -46951.58266444, -17371.082886586533, -49871.43574612567, 0.012, 0.792, 0.632, 192.0, 0.0, 0.0, 0.0, 0.0, 0.0, 0.0, 0.0, 0.0, 0.0, 1.6541572347226942E9, 0.0, 2022-06-02 10:07:14.722
116.0, 21138.000027894977, 4904.01743698328, -72376.75903758514, -55032.67705830062, -44664.48511653962, -46951.80618188455, -17341.019790294147, -49858.00234770803, 0.014, 0.792, 0.628, 192.0, 0.0, 112.0, 24.0, 192.0, 19.0, 160.0, 0.0, 0.0, 0.0, 1.654157234722704E9, 0.0, 2022-06-02 10:07:14.722
117.0, 21134.691969715594, 4897.4907276023305, -72366.79015955808, -55024.49631982998, -44656.37143330234, -46939.803295112055, -17316.544630115586, -49825.68172522566, 0.014, 0.792, 0.628, 192.0, 0.0, 0.0, 0.0, 0.0, 0.0, 0.0, 0.0, 0.0, 0.0, 1.6541572347227135E9, 0.0, 2022-06-02 10:07:14.722
118.0, 21137.08360637231, 4894.830870012149, -72365.87373803541, -55017.79079649339, -44649.30828205446, -46929.85676882944, -17317.706920827262, -49822.23955657954, 0.014, 0.792, 0.628, 192.0, 0.0, 0.0, 0.0, 0.0, 0.0, 0.0, 0.0, 0.0, 0.0, 1.6541572347227197E9, 0.0, 2022-06-02 10:07:14.722
119.0, 21127.405301023162, 4891.478108343853, -72381.74347659868, -55026.32916287532, -44657.35491005837, -46940.853827101455, -17351.10042704349, -49869.24527516905, 0.014, 0.792, 0.628, 192.0, 0.0, 0.0, 0.0, 0.0, 0.0, 0.0, 0.0, 0.0, 0.0, 1.654157234722736E9, 0.0, 2022-06-02 10:07:14.722
120.0, 21116.94468461808, 4884.526715818252, -72398.55198842907, -55045.75282880698, -44677.6949975127, -46966.37951926941, -17373.67568894335, -49892.289923702476, 0.014, 0.792, 0.628, 192.0, 0.0, 0.0, 0.0, 0.0, 0.0, 0.0, 0.0, 0.0, 0.0, 1.6541572347227497E9, 0.0, 2022-06-02 10:07:14.722
121.0, 21129.75223419097, 4895.881402001548, -72379.21772947523, -55032.81116876736, -44669.33544508641, -46943.82660911401, -17359.303517258588, -49838.10929514281, 0.014, 0.792, 0.628, 192.0, 0.0, 0.0, 0.0, 0.0, 0.0, 0.0, 0.0, 0.0, 0.0, 1.6541572352005403E9, 0.0, 2022-06-02 10:07:15.200
122.0, 21130.199269080076, 4891.612218810585, -72369.04768574807, -55017.34376160429, -44652.281064067014, -46922.57010013701, -17340.10336877148, -49804.06758833738, 0.014, 0.792, 0.628, 192.0, 0.0, 0.0, 0.0, 0.0, 0.0, 0.0, 0.0, 0.0, 0.0, 1.654157235200562E9, 0.0, 2022-06-02 10:07:15.200
123.0, 21130.199269080076, 4894.406186867498, -72362.6327350894, -55006.346703332274, -44649.08476460991, -46914.09878898845, -17359.795255636604, -49821.81487343489, 0.014, 0.792, 0.628, 192.0, 0.0, 0.0, 0.0, 0.0, 0.0, 0.0, 0.0, 0.0, 0.0, 1.6541572352006893E9, 0.0, 2022-06-02 10:07:15.200
124.0, 21131.875649914226, 4895.523774090263, -72375.26147070664, -55015.33210460331, -44658.025462392034, -46919.463207657725, -17360.309345759077, -49852.973205205584, 0.014, 0.792, 0.628, 192.0, 0.0, 0.0, 0.0, 0.0, 0.0, 0.0, 0.0, 0.0, 0.0, 1.6541572352007515E9, 0.0, 2022-06-02 10:07:15.200
125.0, 21130.89217315819, 4886.896000730515, -72393.81341860455, -55035.739247291, -44678.07497716844, -46945.52534169261, -17363.01390683817, -49870.184048436175, 0.014, 0.792, 0.628, 192.0, 0.0, 0.0, 0.0, 0.0, 0.0, 0.0, 0.0, 0.0, 0.0, 1.6541572352007575E9, 0.0, 2022-06-02 10:07:15.200
126.0, 21134.490804015495, 4890.673445543462, -72382.45873242125, -55028.229061154016, -44672.777613732535, -46930.19204499627, -17348.731142131226, -49833.258966596004, 0.012, 0.786, 0.628, 192.0, 0.0, 96.0, 24.0, 144.0, 19.0, 160.0, 0.0, 0.0, 0.0, 1.654157235200763E9, 0.0, 2022-06-02 10:07:15.200
127.0, 21137.798862194883, 4897.401320624509, -72367.70658108075, -55017.50022381547, -44660.59591300439, -46914.322306433, -17348.842900853506, -49817.72450419957, 0.012, 0.786, 0.628, 192.0, 0.0, 0.0, 0.0, 0.0, 0.0, 0.0, 0.0, 0.0, 0.0, 1.6541572352007687E9, 0.0, 2022-06-02 10:07:15.200
128.0, 21132.926181903626, 4893.981503722847, -72369.85234854846, -55018.97543894952, -44651.36464254435, -46917.13862623437, -17328.1898889768, -49827.402809548716, 0.012, 0.786, 0.628, 192.0, 0.0, 0.0, 0.0, 0.0, 0.0, 0.0, 0.0, 0.0, 0.0, 1.654157235200785E9, 0.0, 2022-06-02 10:07:15.200
129.0, 21136.99419939449, 4897.177803179956, -72381.60936613195, -55022.05997968435, -44649.420040776735, -46921.81014082553, -17315.359987659453, -49840.29976609943, 0.012, 0.786, 0.628, 192.0, 0.0, 0.0, 0.0, 0.0, 0.0, 0.0, 0.0, 0.0, 0.0, 1.6541572352007904E9, 0.0, 2022-06-02 10:07:15.200
130.0, 21136.03307438291, 4891.612218810585, -72396.1380000279, -55031.80534026687, -44665.20037236218, -46930.7284868632, -17329.218069221744, -49838.9139579432, 0.012, 0.786, 0.628, 192.0, 0.0, 0.0, 0.0, 0.0, 0.0, 0.0, 0.0, 0.0, 0.0, 1.654157235200796E9, 0.0, 2022-06-02 10:07:15.200
131.0, 21131.629780725216, 4889.354692620599, -72392.22644474822, -55030.08425594381, -44668.32961658593, -46928.85094032895, -17340.125720515935, -49829.369763060786, 0.012, 0.786, 0.628, 192.0, 0.0, 0.0, 0.0, 0.0, 0.0, 0.0, 0.0, 0.0, 0.0, 1.654157235200802E9, 0.0, 2022-06-02 10:07:15.200
132.0, 21128.679350457114, 4895.791995023727, -72386.8843778234, -55022.66347678465, -44664.75333747308, -46926.5263589056, -17360.711677159274, -49851.453286582626, 0.012, 0.786, 0.628, 192.0, 0.0, 0.0, 0.0, 0.0, 0.0, 0.0, 0.0, 0.0, 0.0, 1.6541572352008073E9, 0.0, 2022-06-02 10:07:15.200
133.0, 21124.834850410803, 4898.6083148250955, -72387.7337441127, -55019.24365988299, -44664.41806130625, -46925.38641993838, -17373.072191843057, -49866.38425187877, 0.012, 0.786, 0.628, 192.0, 0.0, 0.0, 0.0, 0.0, 0.0, 0.0, 0.0, 0.0, 0.0, 1.6541572352008126E9, 0.0, 2022-06-02 10:07:15.200
134.0, 21119.80570790836, 4893.981503722847, -72403.9387588428, -55025.50214833047, -44672.55409628798, -46935.444704943264, -17361.82926438204, -49864.08202219987, 0.012, 0.786, 0.628, 192.0, 0.0, 0.0, 0.0, 0.0, 0.0, 0.0, 0.0, 0.0, 0.0, 1.6541572352008176E9, 0.0, 2022-06-02 10:07:15.200
135.0, 21116.27413228442, 4885.733710018839, -72412.52182871364, -55036.968593236044, -44688.82616625144, -46947.067612060026, -17349.46874969825, -49845.44066732415, 0.012, 0.786, 0.628, 192.0, 0.0, 0.0, 0.0, 0.0, 0.0, 0.0, 0.0, 0.0, 0.0, 1.6541572352008228E9, 0.0, 2022-06-02 10:07:15.200
136.0, 21131.09333885829, 4900.798785781716, -72389.07484878003, -55021.4341308396, -44678.03027367953, -46934.88591133188, -17341.377418205433, -49827.44751303763, 0.012, 0.788, 0.63, 192.0, 0.0, 96.0, 24.0, 160.0, 19.0, 176.0, 0.0, 0.0, 0.0, 1.654157235200828E9, 0.0, 2022-06-02 10:07:15.200
137.0, 21123.046710854378, 4898.295390402722, -72382.61519463244, -55021.47883432852, -44677.35972134587, -46936.450533443756, -17353.693229400305, -49847.67584176968, 0.012, 0.788, 0.63, 192.0, 0.0, 0.0, 0.0, 0.0, 0.0, 0.0, 0.0, 0.0, 0.0, 1.654157235200833E9, 0.0, 2022-06-02 10:07:15.200
138.0, 21123.71726318804, 4898.451852613909, -72378.18954923029, -55017.388465093194, -44673.38111083283, -46934.550635165055, -17358.76707539166, -49855.58835930686, 0.012, 0.788, 0.63, 192.0, 0.0, 0.0, 0.0, 0.0, 0.0, 0.0, 0.0, 0.0, 0.0, 1.6541572352008383E9, 0.0, 2022-06-02 10:07:15.200
139.0, 21128.008798123457, 4896.171974679467, -72386.30323246756, -55019.19895639407, -44675.34806434489, -46927.10750426144, -17359.214110280765, -49845.59712953534, 0.012, 0.788, 0.63, 192.0, 0.0, 0.0, 0.0, 0.0, 0.0, 0.0, 0.0, 0.0, 0.0, 1.6541572352008433E9, 0.0, 2022-06-02 10:07:15.200
140.0, 21128.522888245927, 4891.9698467218695, -72391.71235462575, -55028.11730243174, -44682.83589873742, -46943.93836783629, -17359.594089936505, -49852.704984272124, 0.012, 0.788, 0.63, 192.0, 0.0, 0.0, 0.0, 0.0, 0.0, 0.0, 0.0, 0.0, 0.0, 1.6541572352008483E9, 0.0, 2022-06-02 10:07:15.200
141.0, 21124.70073994407, 4888.102994931101, -72382.4363806768, -55027.15617742016, -44675.638637022814, -46940.80912361254, -17363.66210742737, -49852.48146682757, 0.012, 0.788, 0.63, 192.0, 0.0, 0.0, 0.0, 0.0, 0.0, 0.0, 0.0, 0.0, 0.0, 1.6541572352008536E9, 0.0, 2022-06-02 10:07:15.200
142.0, 21117.168202062632, 4882.291541372721, -72381.36349694294, -55027.51380533145, -44670.69890149819, -46938.79746661156, -17384.046898370612, -49859.991652964556, 0.012, 0.788, 0.63, 192.0, 0.0, 0.0, 0.0, 0.0, 0.0, 0.0, 0.0, 0.0, 0.0, 1.6541572352008588E9, 0.0, 2022-06-02 10:07:15.200
143.0, 21131.629780725216, 4891.321646132666, -72360.91165076634, -55007.30782834385, -44640.23347380561, -46912.176538965294, -17342.450301939287, -49819.66910596718, 0.012, 0.788, 0.63, 192.0, 0.0, 0.0, 0.0, 0.0, 0.0, 0.0, 0.0, 0.0, 0.0, 1.654157235200864E9, 0.0, 2022-06-02 10:07:15.200
144.0, 21134.62491448223, 4892.819213011171, -72366.25371769116, -55008.96185743355, -44639.138238327294, -46910.3213441755, -17326.938191287303, -49816.070475109875, 0.012, 0.788, 0.63, 192.0, 0.0, 0.0, 0.0, 0.0, 0.0, 0.0, 0.0, 0.0, 0.0, 1.6541572352008698E9, 0.0, 2022-06-02 10:07:15.200
145.0, 21129.90869640216, 4886.940704219425, -72384.09040976649, -55031.02302921093, -44658.20427634767, -46934.59533865396, -17347.702961886283, -49854.64958603973, 0.012, 0.788, 0.63, 192.0, 0.0, 0.0, 0.0, 0.0, 0.0, 0.0, 0.0, 0.0, 0.0, 1.6541572352008748E9, 0.0, 2022-06-02 10:07:15.200
146.0, 21130.84746966928, 4891.321646132666, -72374.65797360634, -55029.95014547708, -44664.820392706446, -46934.10360027595, -17336.549441403084, -49849.687498770654, 0.014, 0.796, 0.636, 192.0, 0.0, 112.0, 24.0, 224.0, 19.0, 224.0, 0.0, 0.0, 0.0, 1.65415723520088E9, 0.0, 2022-06-02 10:07:15.200
147.0, 21130.2886760579, 4896.328436890654, -72359.8834705214, -55016.40498833716, -44652.012843133554, -46908.33203891898, -17310.86728702394, -49800.6030679468, 0.014, 0.796, 0.636, 192.0, 0.0, 0.0, 0.0, 0.0, 0.0, 0.0, 0.0, 0.0, 0.0, 1.6541572352008853E9, 0.0, 2022-06-02 10:07:15.200
148.0, 21135.384873793708, 4899.815309025683, -72354.69786580776, -55010.79470047888, -44640.45699125016, -46894.339846889954, -17298.797345018073, -49781.60408515979, 0.014, 0.796, 0.636, 192.0, 0.0, 0.0, 0.0, 0.0, 0.0, 0.0, 0.0, 0.0, 0.0, 1.6541572352008903E9, 0.0, 2022-06-02 10:07:15.200
149.0, 21142.47037678604, 4905.380893395054, -72366.92427002481, -55014.035703424895, -44645.41907851924, -46898.81019578102, -17316.36581615994, -49802.12298656976, 0.014, 0.796, 0.636, 192.0, 0.0, 0.0, 0.0, 0.0, 0.0, 0.0, 0.0, 0.0, 0.0, 1.6541572352008955E9, 0.0, 2022-06-02 10:07:15.200
150.0, 21150.0923216453, 4907.7054748184055, -72380.51413065364, -55025.90447973067, -44665.62505550683, -46928.06862927302, -17354.475540456242, -49852.25794938302, 0.014, 0.796, 0.636, 192.0, 0.0, 0.0, 0.0, 0.0, 0.0, 0.0, 0.0, 0.0, 0.0, 1.6541572352009027E9, 0.0, 2022-06-02 10:07:15.200
151.0, 21149.399417567187, 4908.68895157444, -72372.37809567191, -55026.01623845295, -44663.211067105665, -46940.697364890264, -17347.01005780817, -49856.705946529626, 0.014, 0.796, 0.636, 192.0, 0.0, 0.0, 0.0, 0.0, 0.0, 0.0, 0.0, 0.0, 0.0, 1.6541572352009077E9, 0.0, 2022-06-02 10:07:15.200
152.0, 21141.308086074365, 4910.052407986213, -72361.51514786662, -55016.15911914816, -44659.25480833707, -46920.37962918039, -17335.43185418032, -49802.637076692234, 0.014, 0.796, 0.636, 192.0, 0.0, 0.0, 0.0, 0.0, 0.0, 0.0, 0.0, 0.0, 0.0, 1.6541572352009132E9, 0.0, 2022-06-02 10:07:15.200
153.0, 21141.017513396444, 4914.098073732624, -72357.55888909804, -55009.27478185592, -44649.39768903228, -46917.920937290306, -17320.27737143962, -49807.196832561116, 0.014, 0.796, 0.636, 192.0, 0.0, 0.0, 0.0, 0.0, 0.0, 0.0, 0.0, 0.0, 0.0, 1.6541572352009225E9, 0.0, 2022-06-02 10:07:15.200
154.0, 21151.05344665688, 4919.596602868629, -72360.21874668822, -55010.057092911855, -44655.96910190214, -46926.504007161144, -17333.777825090627, -49842.087905655855, 0.014, 0.796, 0.636, 192.0, 0.0, 0.0, 0.0, 0.0, 0.0, 0.0, 0.0, 0.0, 0.0, 1.6541572352009292E9, 0.0, 2022-06-02 10:07:15.200
155.0, 21161.51406306196, 4925.631573871562, -72358.29649666506, -55001.96576141904, -44654.60564549037, -46923.41946642631, -17322.2890284406, -49816.45045476562, 0.014, 0.796, 0.636, 192.0, 0.0, 0.0, 0.0, 0.0, 0.0, 0.0, 0.0, 0.0, 0.0, 1.6541572352009344E9, 0.0, 2022-06-02 10:07:15.200
156.0, 21159.94944095009, 4927.754989594816, -72350.0710547055, -54992.75684270345, -44651.83402917791, -46913.919975032804, -17327.407577920865, -49792.33292249834, 0.012, 0.79, 0.634, 192.0, 0.0, 96.0, 24.0, 176.0, 19.0, 208.0, 0.0, 0.0, 0.0, 1.6541572352009394E9, 0.0, 2022-06-02 10:07:15.200
157.0, 21156.350810092787, 4933.655850131017, -72340.57156331201, -54981.84919140926, -44638.44533424918, -46905.962754006716, -17328.77103433264, -49795.171594044165, 0.012, 0.79, 0.634, 192.0, 0.0, 0.0, 0.0, 0.0, 0.0, 0.0, 0.0, 0.0, 0.0, 1.6541572352009444E9, 0.0, 2022-06-02 10:07:15.200
158.0, 21155.657906014672, 4935.443989687442, -72333.95544695323, -54971.09800232625, -44633.25972953555, -46897.89377425835, -17321.171441217833, -49801.318323769374, 0.012, 0.79, 0.634, 192.0, 0.0, 0.0, 0.0, 0.0, 0.0, 0.0, 0.0, 0.0, 0.0, 1.65415723520095E9, 0.0, 2022-06-02 10:07:15.200
159.0, 21159.412999083164, 4935.801617598727, -72336.68235977678, -54970.270987781405, -44632.90210162426, -46895.92682074628, -17308.3862433894, -49796.646809178215, 0.012, 0.79, 0.634, 192.0, 0.0, 0.0, 0.0, 0.0, 0.0, 0.0, 0.0, 0.0, 0.0, 1.6541572352009554E9, 0.0, 2022-06-02 10:07:15.200
160.0, 21153.601545524783, 4923.329344192665, -72360.39756064386, -54998.18831660609, -44657.24315133609, -46924.38059143789, -17343.52318567314, -49832.58841426235, 0.012, 0.79, 0.634, 192.0, 0.0, 0.0, 0.0, 0.0, 0.0, 0.0, 0.0, 0.0, 0.0, 1.654157235200961E9, 0.0, 2022-06-02 10:07:15.200
161.0, 21148.974734422536, 4916.847338300627, -72353.33440939599, -55006.92784868811, -44659.88065718182, -46934.99767005416, -17371.127590075444, -49851.69915577163, 0.012, 0.79, 0.634, 192.0, 0.0, 0.0, 0.0, 0.0, 0.0, 0.0, 0.0, 0.0, 0.0, 1.6541572352009664E9, 0.0, 2022-06-02 10:07:15.200
162.0, 21151.723998990536, 4915.774454566772, -72330.96031319622, -54998.858868939744, -44635.31609002544, -46917.40684716783, -17336.057703025068, -49819.9596786451, 0.012, 0.79, 0.634, 192.0, 0.0, 0.0, 0.0, 0.0, 0.0, 0.0, 0.0, 0.0, 0.0, 1.6541572352009716E9, 0.0, 2022-06-02 10:07:15.200
163.0, 21150.964039679056, 4907.079625973657, -72332.14495565236, -55006.86079345475, -44628.07412482192, -46914.322306433, -17303.29004565359, -49795.32805625535, 0.012, 0.79, 0.634, 192.0, 0.0, 0.0, 0.0, 0.0, 0.0, 0.0, 0.0, 0.0, 0.0, 1.6541572352009768E9, 0.0, 2022-06-02 10:07:15.200
164.0, 21137.105958116765, 4897.691893302428, -72355.0778454635, -55025.88212798621, -44637.73007842661, -46925.878158316395, -17317.505755127164, -49816.38339953225, 0.012, 0.79, 0.634, 192.0, 0.0, 0.0, 0.0, 0.0, 0.0, 0.0, 0.0, 0.0, 0.0, 1.654157235200982E9, 0.0, 2022-06-02 10:07:15.200
165.0, 21116.631760195705, 4882.000968694802, -72378.48012190821, -55051.296061431894, -44648.97300588763, -46948.252254516156, -17325.775900575627, -49824.96646940309, 0.012, 0.79, 0.634, 192.0, 0.0, 0.0, 0.0, 0.0, 0.0, 0.0, 0.0, 0.0, 0.0, 1.654157235200987E9, 0.0, 2022-06-02 10:07:15.200
166.0, 21130.735710947003, 4893.5568205781965, -72361.26927867762, -55040.20959618207, -44638.64649994928, -46941.72554513521, -17313.057757980558, -49798.21143129009, 0.014, 0.794, 0.634, 192.0, 0.0, 112.0, 24.0, 208.0, 19.0, 208.0, 0.0, 0.0, 0.0, 1.6541572352009926E9, 0.0, 2022-06-02 10:07:15.200
167.0, 21132.56855399234, 4894.093262445123, -72352.46269136223, -55032.85587225627, -44632.589177201895, -46930.81789384102, -17323.920705785837, -49790.500079453006, 0.014, 0.794, 0.634, 192.0, 0.0, 0.0, 0.0, 0.0, 0.0, 0.0, 0.0, 0.0, 0.0, 1.6541572352009993E9, 0.0, 2022-06-02 10:07:15.200
168.0, 21120.27509454192, 4883.610294295585, -72360.50931936615, -55038.91319500365, -44641.798095917475, -46936.584643910486, -17348.1947002643, -49811.13073958526, 0.014, 0.794, 0.634, 192.0, 0.0, 0.0, 0.0, 0.0, 0.0, 0.0, 0.0, 0.0, 0.0, 1.654157235201007E9, 0.0, 2022-06-02 10:07:15.201
169.0, 21121.750309675972, 4886.985407708336, -72370.92523228232, -55043.048267727885, -44646.84959016438, -46948.92280684982, -17362.097485315502, -49838.98101317656, 0.014, 0.794, 0.634, 192.0, 0.0, 0.0, 0.0, 0.0, 0.0, 0.0, 0.0, 0.0, 0.0, 1.6541572352010124E9, 0.0, 2022-06-02 10:07:15.201
170.0, 21127.94174289009, 4889.153526920501, -72371.90870903834, -55045.775180551434, -44650.202351832675, -46954.06370807454, -17337.264697225655, -49829.61563224979, 0.014, 0.794, 0.634, 192.0, 0.0, 0.0, 0.0, 0.0, 0.0, 0.0, 0.0, 0.0, 0.0, 1.6541572352010176E9, 0.0, 2022-06-02 10:07:15.201
171.0, 21139.430539540117, 4897.378968880054, -72352.23917391768, -55034.532253090416, -44637.77478191552, -46941.52437943511, -17316.14229871539, -49807.24153605003, 0.014, 0.794, 0.634, 192.0, 0.0, 0.0, 0.0, 0.0, 0.0, 0.0, 0.0, 0.0, 0.0, 1.6541572352010252E9, 0.0, 2022-06-02 10:07:15.201
172.0, 21144.95142042058, 4901.312875904188, -72342.35970286843, -55026.10564543076, -44629.63874693379, -46935.467056687725, -17329.553345388573, -49816.33869604334, 0.014, 0.794, 0.634, 192.0, 0.0, 0.0, 0.0, 0.0, 0.0, 0.0, 0.0, 0.0, 0.0, 1.6541572352010303E9, 0.0, 2022-06-02 10:07:15.201
173.0, 21142.336266319307, 4900.530564848253, -72344.99720871415, -55015.019180180934, -44633.55030221347, -46934.058896787035, -17336.214165236255, -49823.91593741369, 0.014, 0.794, 0.634, 192.0, 0.0, 0.0, 0.0, 0.0, 0.0, 0.0, 0.0, 0.0, 0.0, 1.6541572352010353E9, 0.0, 2022-06-02 10:07:15.201
174.0, 21147.588926266304, 4905.269134672777, -72350.11575819443, -55011.42054932363, -44635.584310958904, -46932.38251595289, -17327.76520583215, -49830.73321947256, 0.014, 0.794, 0.634, 192.0, 0.0, 0.0, 0.0, 0.0, 0.0, 0.0, 0.0, 0.0, 0.0, 1.6541572352010412E9, 0.0, 2022-06-02 10:07:15.201
175.0, 21150.695818745593, 4908.331323663155, -72368.17596771431, -55026.50797683096, -44660.37239555984, -46948.98986208318, -17367.238386540223, -49865.6689960562, 0.014, 0.794, 0.634, 192.0, 0.0, 0.0, 0.0, 0.0, 0.0, 0.0, 0.0, 0.0, 0.0, 1.6541572352010462E9, 0.0, 2022-06-02 10:07:15.201
176.0, 21157.84837697129, 4914.388646410543, -72361.67161007781, -55022.6858285291, -44661.244113593595, -46948.4310684718, -17381.72231694726, -49862.96443497711, 0.012, 0.798, 0.63, 192.0, 0.0, 96.0, 24.0, 240.0, 19.0, 176.0, 0.0, 0.0, 0.0, 1.6541572352010515E9, 0.0, 2022-06-02 10:07:15.201
177.0, 21156.015533925955, 4917.763759823294, -72342.11383367942, -55007.2854765994, -44644.72617444112, -46923.73239084869, -17343.90316532888, -49816.495158254525, 0.012, 0.798, 0.63, 192.0, 0.0, 0.0, 0.0, 0.0, 0.0, 0.0, 0.0, 0.0, 0.0, 1.6541572352010565E9, 0.0, 2022-06-02 10:07:15.201
178.0, 21157.17782463763, 4920.982411024858, -72331.76497599662, -54995.103775871255, -44626.46479922114, -46906.745065062656, -17309.32501665652, -49795.21629753307, 0.012, 0.798, 0.63, 192.0, 0.0, 0.0, 0.0, 0.0, 0.0, 0.0, 0.0, 0.0, 0.0, 1.6541572352010615E9, 0.0, 2022-06-02 10:07:15.201
179.0, 21161.46935957305, 4931.331268707665, -72344.46076684723, -54995.75197646046, -44631.49394172358, -46904.26402142811, -17318.04219699409, -49804.64873369321, 0.012, 0.798, 0.63, 192.0, 0.0, 0.0, 0.0, 0.0, 0.0, 0.0, 0.0, 0.0, 0.0, 1.654157235201067E9, 0.0, 2022-06-02 10:07:15.201
180.0, 21156.66373451516, 4924.513986648797, -72360.39756064386, -55010.25825861195, -44646.31314829745, -46917.51860589011, -17328.011075021157, -49828.49804502702, 0.012, 0.798, 0.63, 192.0, 0.0, 0.0, 0.0, 0.0, 0.0, 0.0, 0.0, 0.0, 0.0, 1.654157235201072E9, 0.0, 2022-06-02 10:07:15.201
181.0, 21161.424656084142, 4929.990164040347, -72344.68428429178, -54996.37782530521, -44636.67954643721, -46902.3194196605, -17312.834240536005, -49799.48548072404, 0.012, 0.798, 0.63, 192.0, 0.0, 0.0, 0.0, 0.0, 0.0, 0.0, 0.0, 0.0, 0.0, 1.6541572352010772E9, 0.0, 2022-06-02 10:07:15.201
182.0, 21148.95238267808, 4924.066951759691, -72339.96806621172, -54989.33702580178, -44630.756334156555, -46890.294181143545, -17304.497039854174, -49776.21731474606, 0.012, 0.798, 0.63, 192.0, 0.0, 0.0, 0.0, 0.0, 0.0, 0.0, 0.0, 0.0, 0.0, 1.6541572352010832E9, 0.0, 2022-06-02 10:07:15.201
183.0, 21142.22450759703, 4917.964925523392, -72344.37135986942, -54985.33606354429, -44622.35207824136, -46887.41080610881, -17295.332824627498, -49782.22993400454, 0.012, 0.798, 0.63, 192.0, 0.0, 0.0, 0.0, 0.0, 0.0, 0.0, 0.0, 0.0, 0.0, 1.6541572352010884E9, 0.0, 2022-06-02 10:07:15.201
184.0, 21142.76094946396, 4916.176785966967, -72351.076883206, -54984.978435633, -44627.73884865509, -46885.265038641104, -17295.71280428324, -49790.276562008454, 0.012, 0.798, 0.63, 192.0, 0.0, 0.0, 0.0, 0.0, 0.0, 0.0, 0.0, 0.0, 0.0, 1.654157235201094E9, 0.0, 2022-06-02 10:07:15.201
185.0, 21141.822176196834, 4910.320628919677, -72361.5822031, -54997.78598520589, -44638.91472088274, -46901.134777204374, -17309.36972014543, -49802.39120750323, 0.012, 0.798, 0.63, 192.0, 0.0, 0.0, 0.0, 0.0, 0.0, 0.0, 0.0, 0.0, 0.0, 1.654157235201099E9, 0.0, 2022-06-02 10:07:15.201
186.0, 21148.95238267808, 4917.204966211912, -72348.48408084919, -54992.80154619236, -44630.555168456456, -46899.883079514875, -17318.779804561116, -49803.28527728144, 0.01, 0.796, 0.63, 192.0, 0.0, 80.0, 24.0, 224.0, 19.0, 176.0, 0.0, 0.0, 0.0, 1.654157235201104E9, 0.0, 2022-06-02 10:07:15.201
187.0, 21144.012647153457, 4911.818195798182, -72340.63861854537, -54993.04741538136, -44623.424961975215, -46898.22905042518, -17320.05385399507, -49794.9033731107, 0.01, 0.796, 0.63, 192.0, 0.0, 0.0, 0.0, 0.0, 0.0, 0.0, 0.0, 0.0, 0.0, 1.6541572352011092E9, 0.0, 2022-06-02 10:07:15.201
188.0, 21139.028208139924, 4906.498480617819, -72336.45884233223, -54993.628560737205, -44614.17133977072, -46890.07066369899, -17296.025728705612, -49771.27757922144, 0.01, 0.796, 0.63, 192.0, 0.0, 0.0, 0.0, 0.0, 0.0, 0.0, 0.0, 0.0, 0.0, 1.6541572352011144E9, 0.0, 2022-06-02 10:07:15.201
189.0, 21143.789129708905, 4899.301218903211, -72351.74743553966, -55009.766520233934, -44620.58629042939, -46908.66731508581, -17307.358063144453, -49803.061759836884, 0.01, 0.796, 0.63, 192.0, 0.0, 0.0, 0.0, 0.0, 0.0, 0.0, 0.0, 0.0, 0.0, 1.6541572352011197E9, 0.0, 2022-06-02 10:07:15.201
190.0, 21138.670580228638, 4893.489765344831, -72370.90288053786, -55031.96180247806, -44646.71547969765, -46931.60020489695, -17339.410464693363, -49817.47863501056, 0.01, 0.796, 0.63, 192.0, 0.0, 0.0, 0.0, 0.0, 0.0, 0.0, 0.0, 0.0, 0.0, 1.6541572352011247E9, 0.0, 2022-06-02 10:07:15.201
191.0, 21141.352789563276, 4905.984390495347, -72356.17308094181, -55029.61486931025, -44642.49099999559, -46933.96948980922, -17339.18694724881, -49814.66231520919, 0.01, 0.796, 0.63, 192.0, 0.0, 0.0, 0.0, 0.0, 0.0, 0.0, 0.0, 0.0, 0.0, 1.65415723520113E9, 0.0, 2022-06-02 10:07:15.201
192.0, 21146.71720823255, 4914.858033044104, -72335.96710395422, -55020.11537791674, -44621.055677062956, -46926.25813797214, -17320.165612717345, -49809.34260002883, 0.01, 0.796, 0.63, 192.0, 0.0, 0.0, 0.0, 0.0, 0.0, 0.0, 0.0, 0.0, 0.0, 1.6541572352011368E9, 0.0, 2022-06-02 10:07:15.201
193.0, 21149.17590012263, 4918.367256923587, -72328.59102828396, -55011.241735367985, -44611.84675834737, -46921.51956814761, -17310.442603879288, -49809.655524451206, 0.01, 0.796, 0.63, 192.0, 0.0, 0.0, 0.0, 0.0, 0.0, 0.0, 0.0, 0.0, 0.0, 1.654157235201142E9, 0.0, 2022-06-02 10:07:15.201
194.0, 21137.932972661612, 4909.4042073970095, -72351.83684251748, -55025.010409952454, -44623.31320325294, -46933.90243457585, -17317.729272571716, -49829.90620492771, 0.01, 0.796, 0.63, 192.0, 0.0, 0.0, 0.0, 0.0, 0.0, 0.0, 0.0, 0.0, 0.0, 1.654157235201147E9, 0.0, 2022-06-02 10:07:15.201
195.0, 21141.57630700783, 4908.353675407609, -72364.66674383482, -55033.41466586765, -44641.373412772824, -46947.64875741587, -17348.82054910905, -49849.75455400402, 0.008, 0.796, 0.632, 192.0, 0.0, 64.0, 24.0, 224.0, 19.0, 192.0, 0.0, 0.0, 0.0, 1.654157235201152E9, 0.0, 2022-06-02 10:07:15.201
196.0, 21152.32749609083, 4914.790977810738, -72353.11089195144, -55024.541023318896, -44636.05369759246, -46950.554484195054, -17355.704886401283, -49862.15977217672, 0.008, 0.796, 0.632, 192.0, 0.0, 0.0, 0.0, 0.0, 0.0, 0.0, 0.0, 0.0, 0.0, 1.654157235201157E9, 0.0, 2022-06-02 10:07:15.201
197.0, 21145.51021403196, 4915.170957466478, -72334.64835103136, -55008.581877777804, -44614.79718861547, -46929.81206534053, -17301.837182263993, -49818.596222233326, 0.008, 0.796, 0.632, 192.0, 0.0, 0.0, 0.0, 0.0, 0.0, 0.0, 0.0, 0.0, 0.0, 1.654157235201162E9, 0.0, 2022-06-02 10:07:15.201
198.0, 21127.293542300886, 4902.318704404677, -72341.73385402368, -55006.59257252128, -44626.68831666569, -46910.9695447647, -17304.586446831996, -49781.80525085989, 0.008, 0.796, 0.632, 192.0, 0.0, 0.0, 0.0, 0.0, 0.0, 0.0, 0.0, 0.0, 0.0, 1.654157235201167E9, 0.0, 2022-06-02 10:07:15.201
199.0, 21129.48401325751, 4902.408111382498, -72355.70369430825, -55010.77234873443, -44626.55420619896, -46912.265945943116, -17322.020807507135, -49801.743006914025, 0.008, 0.796, 0.632, 192.0, 0.0, 0.0, 0.0, 0.0, 0.0, 0.0, 0.0, 0.0, 0.0, 1.6541572352011724E9, 0.0, 2022-06-02 10:07:15.201
200.0, 21127.740577189994, 4896.596657824119, -72371.05934274904, -55029.32429663233, -44639.361755771846, -46933.70126887575, -17327.318170943043, -49831.448475295125, 0.008, 0.796, 0.632, 192.0, 0.0, 0.0, 0.0, 0.0, 0.0, 0.0, 0.0, 0.0, 0.0, 1.6541572352011776E9, 0.0, 2022-06-02 10:07:15.201
201.0, 21135.27311507143, 4902.028131726758, -72363.19152870077, -55024.093988429784, -44645.508485497056, -46931.60020489695, -17343.746703117693, -49832.32019332889, 0.008, 0.796, 0.632, 192.0, 0.0, 0.0, 0.0, 0.0, 0.0, 0.0, 0.0, 0.0, 0.0, 1.6541572352011828E9, 0.0, 2022-06-02 10:07:15.201
202.0, 21125.885382400204, 4905.023265483769, -72351.97095298421, -55011.040569667886, -44637.99829936008, -46908.17557670779, -17341.645639138897, -49798.47965222355, 0.008, 0.796, 0.632, 192.0, 0.0, 0.0, 0.0, 0.0, 0.0, 0.0, 0.0, 0.0, 0.0, 1.654157235201188E9, 0.0, 2022-06-02 10:07:15.201
203.0, 21114.66480668364, 4903.324532905166, -72350.56279308353, -55004.379749820204, -44626.46479922114, -46896.66442831331, -17335.05187452458, -49794.29987601041, 0.008, 0.796, 0.632, 192.0, 0.0, 0.0, 0.0, 0.0, 0.0, 0.0, 0.0, 0.0, 0.0, 1.654157235201193E9, 0.0, 2022-06-02 10:07:15.201
204.0, 21110.75325140396, 4894.339131634132, -72369.74058982618, -55018.90838371615, -44639.562921471945, -46918.23386171268, -17353.022677066645, -49840.746800988534, 0.008, 0.796, 0.632, 192.0, 0.0, 0.0, 0.0, 0.0, 0.0, 0.0, 0.0, 0.0, 0.0, 1.654157235201198E9, 0.0, 2022-06-02 10:07:15.201
205.0, 21106.774640890915, 4882.53741056173, -72390.05832553605, -55046.691602074105, -44658.62895949232, -46950.9344638508, -17350.742799132204, -49867.34537689035, 0.008, 0.796, 0.632, 192.0, 0.0, 64.0, 24.0, 224.0, 19.0, 192.0, 0.0, 0.0, 0.0, 1.654157235201203E9, 0.0, 2022-06-02 10:07:15.201
206.0, 21109.166277547632, 4880.34693960511, -72384.11276151094, -55047.384506152215, -44659.143049614795, -46955.85184763096, -17347.345333974998, -49853.8672749838, 0.008, 0.796, 0.632, 192.0, 0.0, 0.0, 0.0, 0.0, 0.0, 0.0, 0.0, 0.0, 0.0, 1.6541572352012084E9, 0.0, 2022-06-02 10:07:15.201
207.0, 21118.464603241042, 4890.360521121088, -72361.5822031, -55030.62069781074, -44647.20721807566, -46936.74110612168, -17338.069360026046, -49814.729370442554, 0.008, 0.796, 0.632, 192.0, 0.0, 0.0, 0.0, 0.0, 0.0, 0.0, 0.0, 0.0, 0.0, 1.6541572352012134E9, 0.0, 2022-06-02 10:07:15.201
208.0, 21121.549143975873, 4895.166146178978, -72354.96608674123, -55021.74705526198, -44642.06631685094, -46924.84997807145, -17316.499926626675, -49792.310570753885, 0.008, 0.796, 0.632, 192.0, 0.0, 0.0, 0.0, 0.0, 0.0, 0.0, 0.0, 0.0, 0.0, 1.6541572352012184E9, 0.0, 2022-06-02 10:07:15.201
209.0, 21134.736673204505, 4904.308009661199, -72351.09923495045, -55014.393331336185, -44642.423944762224, -46927.75570485064, -17328.994551777192, -49815.69049545414, 0.008, 0.796, 0.632, 192.0, 0.0, 0.0, 0.0, 0.0, 0.0, 0.0, 0.0, 0.0, 0.0, 1.6541572352012236E9, 0.0, 2022-06-02 10:07:15.201
210.0, 21140.23520234051, 4903.279829416255, -72357.24596467566, -55018.729569760515, -44654.113907112354, -46932.78484735308, -17328.48046165472, -49812.11421634129, 0.008, 0.796, 0.632, 192.0, 0.0, 0.0, 0.0, 0.0, 0.0, 0.0, 0.0, 0.0, 0.0, 1.6541572352012289E9, 0.0, 2022-06-02 10:07:15.201
211.0, 21138.223545339533, 4900.463509614887, -72351.56862158401, -55021.1882616506, -44651.02936637752, -46940.89853059036, -17334.984819291214, -49820.8090449344, 0.008, 0.796, 0.632, 192.0, 0.0, 0.0, 0.0, 0.0, 0.0, 0.0, 0.0, 0.0, 0.0, 1.6541572352012339E9, 0.0, 2022-06-02 10:07:15.201
212.0, 21140.861051185257, 4904.73269280585, -72339.16340341132, -55016.18147089261, -44637.59596795988, -46933.96948980922, -17343.81375835106, -49830.889681683744, 0.008, 0.796, 0.632, 192.0, 0.0, 0.0, 0.0, 0.0, 0.0, 0.0, 0.0, 0.0, 0.0, 1.6541572352012389E9, 0.0, 2022-06-02 10:07:15.201
213.0, 21131.808594680857, 4895.054387456702, -72343.00790345763, -55027.84908149828, -44643.09449709589, -46939.19979801176, -17346.652429896883, -49843.02667892298, 0.008, 0.796, 0.632, 192.0, 0.0, 0.0, 0.0, 0.0, 0.0, 0.0, 0.0, 0.0, 0.0, 1.654157235201244E9, 0.0, 2022-06-02 10:07:15.201
214.0, 21127.919391145635, 4891.343997877121, -72357.73770305369, -55031.91709898914, -44644.189732574196, -46946.777039382105, -17340.05866528257, -49855.74482151805, 0.008, 0.796, 0.632, 192.0, 0.0, 0.0, 0.0, 0.0, 0.0, 0.0, 0.0, 0.0, 0.0, 1.6541572352012508E9, 0.0, 2022-06-02 10:07:15.201
215.0, 21137.016551138946, 4895.367311879077, -72366.6336973469, -55036.3874478802, -44642.155723828764, -46948.34166149398, -17336.884717569916, -49851.29682437144, 0.014, 0.8, 0.632, 192.0, 0.0, 112.0, 25.0, 0.0, 19.0, 192.0, 0.0, 0.0, 0.0, 1.654157235201256E9, 0.0, 2022-06-02 10:07:15.201
216.0, 21140.12344361823, 4901.5363933487415, -72359.30232516555, -55033.70523854557, -44632.566825457434, -46940.227978256706, -17318.936266772303, -49829.81679794989, 0.014, 0.8, 0.632, 192.0, 0.0, 0.0, 0.0, 0.0, 0.0, 0.0, 0.0, 0.0, 0.0, 1.6541572352012613E9, 0.0, 2022-06-02 10:07:15.201
217.0, 21136.569516249838, 4904.01743698328, -72342.24794414616, -55021.92586921762, -44624.07316256442, -46917.8762338014, -17309.503830612164, -49796.289181266926, 0.014, 0.8, 0.632, 192.0, 0.0, 0.0, 0.0, 0.0, 0.0, 0.0, 0.0, 0.0, 0.0, 1.6541572352012663E9, 0.0, 2022-06-02 10:07:15.201
218.0, 21137.66475172815, 4904.285657916744, -72339.38692085588, -55011.71112200155, -44622.374429985815, -46905.605126095434, -17310.219086434732, -49787.482593951536, 0.014, 0.8, 0.632, 192.0, 0.0, 0.0, 0.0, 0.0, 0.0, 0.0, 0.0, 0.0, 0.0, 1.6541572352012713E9, 0.0, 2022-06-02 10:07:15.201
219.0, 21132.52385050343, 4897.356617135599, -72362.1857002003, -55024.5857268078, -44634.176151058215, -46920.938422791776, -17331.52029890064, -49829.503873527516, 0.014, 0.8, 0.632, 192.0, 0.0, 0.0, 0.0, 0.0, 0.0, 0.0, 0.0, 0.0, 0.0, 1.6541572352012763E9, 0.0, 2022-06-02 10:07:15.201
220.0, 21114.240123538988, 4883.766756506772, -72381.36349694294, -55045.79753229589, -44651.878732666824, -46940.205626512245, -17347.47944444173, -49846.066516168896, 0.014, 0.8, 0.632, 192.0, 0.0, 0.0, 0.0, 0.0, 0.0, 0.0, 0.0, 0.0, 0.0, 1.6541572352012815E9, 0.0, 2022-06-02 10:07:15.201
221.0, 21107.735765902493, 4878.357634348587, -72381.02822077612, -55049.73143932002, -44665.714462484655, -46949.99569058367, -17376.849636656003, -49851.69915577163, 0.014, 0.8, 0.632, 192.0, 0.0, 0.0, 0.0, 0.0, 0.0, 0.0, 0.0, 0.0, 0.0, 1.6541572352012866E9, 0.0, 2022-06-02 10:07:15.201
222.0, 21098.16921927562, 4872.859105212582, -72378.10014225247, -55045.46225612906, -44669.626017764334, -46943.223112013715, -17378.25779655669, -49836.94700443113, 0.014, 0.8, 0.632, 192.0, 0.0, 0.0, 0.0, 0.0, 0.0, 0.0, 0.0, 0.0, 0.0, 1.6541572352012944E9, 0.0, 2022-06-02 10:07:15.201
223.0, 21093.989443062477, 4866.824134209649, -72375.44028466228, -55037.30386940287, -44656.68435772471, -46936.04820204356, -17342.785578106115, -49821.27843156796, 0.014, 0.8, 0.632, 192.0, 0.0, 0.0, 0.0, 0.0, 0.0, 0.0, 0.0, 0.0, 0.0, 1.6541572352012997E9, 0.0, 2022-06-02 10:07:15.201
224.0, 21092.08954478378, 4867.807610965683, -72382.41402893234, -55031.313601888854, -44657.332558313916, -46937.277547988604, -17342.85263333948, -49835.04710615243, 0.014, 0.8, 0.632, 192.0, 0.0, 0.0, 0.0, 0.0, 0.0, 0.0, 0.0, 0.0, 0.0, 1.654157235201305E9, 0.0, 2022-06-02 10:07:15.201
225.0, 21096.872818097214, 4869.752212733294, -72389.34306971349, -55040.43311362662, -44670.49773579809, -46956.90237962036, -17371.351107519997, -49869.11116470232, 0.012, 0.794, 0.634, 192.0, 0.0, 96.0, 24.0, 208.0, 19.0, 208.0, 0.0, 0.0, 0.0, 1.65415723520131E9, 0.0, 2022-06-02 10:07:15.201
226.0, 21095.576416918804, 4868.276997599244, -72379.86593006444, -55044.65759332867, -44668.53078228603, -46964.2337518017, -17373.139247076422, -49870.20640018063, 0.012, 0.794, 0.634, 192.0, 0.0, 0.0, 0.0, 0.0, 0.0, 0.0, 0.0, 0.0, 0.0, 1.6541572352013152E9, 0.0, 2022-06-02 10:07:15.201
227.0, 21087.015698792424, 4864.834828953127, -72372.80277881656, -55048.367982908254, -44664.529820028525, -46967.63121695891, -17368.95947086328, -49868.664129813216, 0.012, 0.794, 0.634, 192.0, 0.0, 0.0, 0.0, 0.0, 0.0, 0.0, 0.0, 0.0, 0.0, 1.6541572352013204E9, 0.0, 2022-06-02 10:07:15.201
228.0, 21096.60459716375, 4876.167163391968, -72360.68813332179, -55035.67219205764, -44653.10807861186, -46947.15701903785, -17360.845787626004, -49834.734181730055, 0.012, 0.794, 0.634, 192.0, 0.0, 0.0, 0.0, 0.0, 0.0, 0.0, 0.0, 0.0, 0.0, 1.6541572352013257E9, 0.0, 2022-06-02 10:07:15.201
229.0, 21104.450059467563, 4882.6938727729175, -72364.5326333681, -55032.69941004508, -44656.50554376907, -46941.4796759462, -17347.725313630737, -49831.448475295125, 0.012, 0.794, 0.634, 192.0, 0.0, 0.0, 0.0, 0.0, 0.0, 0.0, 0.0, 0.0, 0.0, 1.654157235201331E9, 0.0, 2022-06-02 10:07:15.201
230.0, 21104.94179784558, 4880.5257535607525, -72383.03987777709, -55045.68577357361, -44670.00599742008, -46958.69051917679, -17350.47457819874, -49847.83230398087, 0.012, 0.794, 0.634, 192.0, 0.0, 0.0, 0.0, 0.0, 0.0, 0.0, 0.0, 0.0, 0.0, 1.654157235201336E9, 0.0, 2022-06-02 10:07:15.201
231.0, 21107.869876369226, 4883.923218717959, -72376.51316839614, -55041.75186654948, -44665.043910151, -46956.90237962036, -17348.798197364595, -49831.67199273968, 0.012, 0.794, 0.634, 192.0, 0.0, 0.0, 0.0, 0.0, 0.0, 0.0, 0.0, 0.0, 0.0, 1.6541572352013412E9, 0.0, 2022-06-02 10:07:15.201
232.0, 21115.201248550566, 4897.3119136466885, -72357.76005479814, -55026.12799717522, -44643.49682849608, -46943.11135329144, -17342.42795019483, -49825.18998684764, 0.012, 0.794, 0.634, 192.0, 0.0, 0.0, 0.0, 0.0, 0.0, 0.0, 0.0, 0.0, 0.0, 1.6541572352013462E9, 0.0, 2022-06-02 10:07:15.201
233.0, 21120.56566721984, 4905.7608730507945, -72350.18281342779, -55014.28157261391, -44641.373412772824, -46940.76442012363, -17356.06251431257, -49855.431897095674, 0.012, 0.794, 0.634, 192.0, 0.0, 0.0, 0.0, 0.0, 0.0, 0.0, 0.0, 0.0, 0.0, 1.6541572352013512E9, 0.0, 2022-06-02 10:07:15.201
234.0, 21115.380062506207, 4897.177803179956, -72373.31686893903, -55029.72662803253, -44661.46763103815, -46953.39315574088, -17375.82145641106, -49880.13057471879, 0.012, 0.794, 0.634, 192.0, 0.0, 0.0, 0.0, 0.0, 0.0, 0.0, 0.0, 0.0, 0.0, 1.6541572352013564E9, 0.0, 2022-06-02 10:07:15.201
235.0, 21110.46267872604, 4893.10978568909, -72391.39943020337, -55039.98607873751, -44671.50356429858, -46957.46117323174, -17352.933270088826, -49851.85561798282, 0.01, 0.792, 0.634, 192.0, 0.0, 80.0, 24.0, 192.0, 19.0, 208.0, 0.0, 0.0, 0.0, 1.6541572352013636E9, 0.0, 2022-06-02 10:07:15.201
236.0, 21115.201248550566, 4898.071872958169, -72377.07196200753, -55026.41856985314, -44662.27229383854, -46938.77511486711, -17337.018828036646, -49800.84893713581, 0.01, 0.792, 0.634, 192.0, 0.0, 0.0, 0.0, 0.0, 0.0, 0.0, 0.0, 0.0, 0.0, 1.6541572352013688E9, 0.0, 2022-06-02 10:07:15.201
237.0, 21119.80570790836, 4902.6539805715065, -72357.9835722427, -55012.89576445768, -44644.50265699657, -46919.440855913264, -17318.221010949732, -49786.18619277313, 0.01, 0.792, 0.634, 192.0, 0.0, 0.0, 0.0, 0.0, 0.0, 0.0, 0.0, 0.0, 0.0, 1.6541572352013738E9, 0.0, 2022-06-02 10:07:15.201
238.0, 21118.777527663413, 4900.128233448057, -72357.06715072002, -55009.006560922455, -44631.113962067844, -46912.6235738544, -17302.015996219634, -49788.868402107764, 0.01, 0.792, 0.634, 192.0, 0.0, 0.0, 0.0, 0.0, 0.0, 0.0, 0.0, 0.0, 0.0, 1.6541572352013788E9, 0.0, 2022-06-02 10:07:15.201
239.0, 21098.280977997896, 4882.559762306186, -72387.59963364598, -55031.29125014439, -44654.13625885681, -46932.740143864175, -17346.495967685696, -49826.82166419288, 0.01, 0.792, 0.634, 192.0, 0.0, 0.0, 0.0, 0.0, 0.0, 0.0, 0.0, 0.0, 0.0, 1.654157235201384E9, 0.0, 2022-06-02 10:07:15.201
240.0, 21093.341242473274, 4876.01070118078, -72400.9436250858, -55043.540006105904, -44664.48511653962, -46946.03943181508, -17344.886642084915, -49825.99464964803, 0.01, 0.792, 0.634, 192.0, 0.0, 0.0, 0.0, 0.0, 0.0, 0.0, 0.0, 0.0, 0.0, 1.6541572352013893E9, 0.0, 2022-06-02 10:07:15.201
241.0, 21095.531713429897, 4874.4237273244535, -72390.86298833645, -55043.048267727885, -44665.35683457337, -46954.06370807454, -17351.435703210318, -49834.600071263325, 0.01, 0.792, 0.634, 192.0, 0.0, 0.0, 0.0, 0.0, 0.0, 0.0, 0.0, 0.0, 0.0, 1.6541572356807103E9, 0.0, 2022-06-02 10:07:15.680
242.0, 21086.166332503122, 4868.031128410235, -72382.86106382144, -55040.32135490434, -44661.62409324934, -46956.500048220165, -17356.62130792395, -49844.21132137911, 0.01, 0.792, 0.634, 192.0, 0.0, 0.0, 0.0, 0.0, 0.0, 0.0, 0.0, 0.0, 0.0, 1.6541572356808815E9, 0.0, 2022-06-02 10:07:15.680
243.0, 21082.433591179084, 4864.276035341744, -72375.55204338457, -55032.96763097854, -44654.22566583463, -46947.3805364824, -17351.636868910417, -49837.50579804251, 0.01, 0.792, 0.634, 192.0, 0.0, 0.0, 0.0, 0.0, 0.0, 0.0, 0.0, 0.0, 0.0, 1.654157235680888E9, 0.0, 2022-06-02 10:07:15.680
244.0, 21088.55796915984, 4867.070003398658, -72382.0340492766, -55028.07259894283, -44654.538590257005, -46945.2794725036, -17349.804025865084, -49853.44259183915, 0.01, 0.792, 0.634, 192.0, 0.0, 0.0, 0.0, 0.0, 0.0, 0.0, 0.0, 0.0, 0.0, 1.6541572356808949E9, 0.0, 2022-06-02 10:07:15.680
245.0, 21087.440381937075, 4862.934930674426, -72396.31681398355, -55042.26595667195, -44668.91076194176, -46962.06563258954, -17359.012944580667, -49871.525153103496, 0.008, 0.788, 0.644, 192.0, 0.0, 64.0, 24.0, 160.0, 20.0, 32.0, 0.0, 0.0, 0.0, 1.6541572356809013E9, 0.0, 2022-06-02 10:07:15.680
246.0, 21088.93794881558, 4866.734727231828, -72389.52188366913, -55041.237776427006, -44673.068186410455, -46962.1326878229, -17371.261700542178, -49857.175333163184, 0.008, 0.788, 0.644, 192.0, 0.0, 0.0, 0.0, 0.0, 0.0, 0.0, 0.0, 0.0, 0.0, 1.6541572356809072E9, 0.0, 2022-06-02 10:07:15.680
247.0, 21088.043879037366, 4868.209942365878, -72382.81636033254, -55036.45450311357, -44669.38014857533, -46955.51657146413, -17363.751514405194, -49836.00823116401, 0.008, 0.788, 0.644, 192.0, 0.0, 0.0, 0.0, 0.0, 0.0, 0.0, 0.0, 0.0, 0.0, 1.6541572356809127E9, 0.0, 2022-06-02 10:07:15.680
248.0, 21087.060402281335, 4865.281863842233, -72382.72695335472, -55036.85683451377, -44667.12262238534, -46958.80227789906, -17352.687400899817, -49842.62434752278, 0.008, 0.788, 0.644, 192.0, 0.0, 0.0, 0.0, 0.0, 0.0, 0.0, 0.0, 0.0, 0.0, 1.6541572356809185E9, 0.0, 2022-06-02 10:07:15.680
249.0, 21093.117725028722, 4875.898942458504, -72386.97378480123, -55032.565299578346, -44668.26256135256, -46957.79644939857, -17367.551310962597, -49863.25500765503, 0.008, 0.788, 0.644, 192.0, 0.0, 0.0, 0.0, 0.0, 0.0, 0.0, 0.0, 0.0, 0.0, 1.6541572356809242E9, 0.0, 2022-06-02 10:07:15.680
250.0, 21088.848541837757, 4868.209942365878, -72411.35953800197, -55055.52054113395, -44700.29261115702, -46982.27160957713, -17413.84177372954, -49900.89534531777, 0.008, 0.788, 0.644, 192.0, 0.0, 0.0, 0.0, 0.0, 0.0, 0.0, 0.0, 0.0, 0.0, 1.65415723568093E9, 0.0, 2022-06-02 10:07:15.680
251.0, 21088.289748226376, 4864.9689394198585, -72409.50434321217, -55061.019070269955, -44703.51126235858, -46993.60394401597, -17430.806747771116, -49909.00902855504, 0.008, 0.788, 0.644, 192.0, 0.0, 0.0, 0.0, 0.0, 0.0, 0.0, 0.0, 0.0, 0.0, 1.6541572356809356E9, 0.0, 2022-06-02 10:07:15.680
252.0, 21087.976823804, 4867.382927821031, -72396.47327619472, -55052.771276565945, -44682.075939425944, -46979.94702815379, -17408.231485871256, -49887.08196724438, 0.008, 0.788, 0.644, 192.0, 0.0, 0.0, 0.0, 0.0, 0.0, 0.0, 0.0, 0.0, 0.0, 1.654157235680941E9, 0.0, 2022-06-02 10:07:15.680
253.0, 21085.205207491545, 4865.706546986884, -72393.7910668601, -55043.87528227273, -44667.03321540752, -46957.50587672066, -17342.986743806214, -49841.19383587764, 0.008, 0.788, 0.644, 192.0, 0.0, 0.0, 0.0, 0.0, 0.0, 0.0, 0.0, 0.0, 0.0, 1.6541572356809473E9, 0.0, 2022-06-02 10:07:15.680
254.0, 21092.178951761598, 4868.746384232805, -72393.41108720435, -55038.019125225444, -44668.933113686224, -46937.94810032226, -17336.77295884764, -49825.54761475893, 0.008, 0.788, 0.644, 192.0, 0.0, 0.0, 0.0, 0.0, 0.0, 0.0, 0.0, 0.0, 0.0, 1.6541572356809528E9, 0.0, 2022-06-02 10:07:15.680
255.0, 21087.88741682618, 4861.347956818099, -72410.51017171267, -55051.653689343184, -44687.44035809521, -46960.25514128866, -17357.224805024245, -49850.335699359865, 0.008, 0.788, 0.64, 192.0, 0.0, 64.0, 24.0, 160.0, 20.0, 0.0, 0.0, 0.0, 0.0, 1.6541572356809585E9, 0.0, 2022-06-02 10:07:15.680
0.0, 21080.779562089392, 4857.034070138225, -72412.07479382453, -55059.85677955828, -44700.113797201375, -46974.56025774006, -17379.91182564638, -49865.57958907838, 0.008, 0.788, 0.64, 192.0, 0.0, 0.0, 0.0, 0.0, 0.0, 0.0, 0.0, 0.0, 0.0, 1.654157235680972E9, 0.0, 2022-06-02 10:07:15.680
1.0, 21074.856349808735, 4855.000061392791, -72398.26141575116, -55052.30188993239, -44691.798948264, -46964.21140005725, -17371.30640403109, -49855.990690707054, 0.008, 0.788, 0.64, 192.0, 0.0, 0.0, 0.0, 0.0, 0.0, 0.0, 0.0, 0.0, 0.0, 1.6541572356809778E9, 0.0, 2022-06-02 10:07:15.680
2.0, 21079.25964346643, 4861.794991707206, -72380.53648239809, -55036.11922694674, -44667.54730552999, -46946.642928915375, -17335.364798946954, -49830.66616423919, 0.008, 0.788, 0.64, 192.0, 0.0, 0.0, 0.0, 0.0, 0.0, 0.0, 0.0, 0.0, 0.0, 1.6541572356809833E9, 0.0, 2022-06-02 10:07:15.680
3.0, 21085.31696621382, 4867.0252999097465, -72387.8902063239, -55035.89570950219, -44669.424852064236, -46949.079269061, -17348.552328175585, -49856.39302210725, 0.008, 0.788, 0.64, 192.0, 0.0, 0.0, 0.0, 0.0, 0.0, 0.0, 0.0, 0.0, 0.0, 1.6541572356809888E9, 0.0, 2022-06-02 10:07:15.680
4.0, 21080.10900975573, 4860.118610873057, -72408.11853505594, -55053.687698088615, -44691.106044185886, -46974.113222850945, -17380.425915768854, -49896.760272593536, 0.008, 0.788, 0.64, 192.0, 0.0, 0.0, 0.0, 0.0, 0.0, 0.0, 0.0, 0.0, 0.0, 1.654157235680994E9, 0.0, 2022-06-02 10:07:15.680
5.0, 21067.659088094126, 4848.026317122736, -72412.85710488047, -55064.304776704885, -44699.13032044534, -46980.93050490982, -17383.44340127032, -49882.58926660887, 0.008, 0.788, 0.64, 192.0, 0.0, 0.0, 0.0, 0.0, 0.0, 0.0, 0.0, 0.0, 0.0, 1.6541572356809993E9, 0.0, 2022-06-02 10:07:15.680
6.0, 21065.55802411533, 4847.154599088979, -72401.54712218608, -55053.28536668842, -44686.546288317004, -46963.76436516814, -17369.80883715258, -49848.74872550354, 0.008, 0.788, 0.64, 192.0, 0.0, 0.0, 0.0, 0.0, 0.0, 0.0, 0.0, 0.0, 0.0, 1.6541572356810045E9, 0.0, 2022-06-02 10:07:15.681
7.0, 21069.558986372827, 4849.322718301144, -72392.9864040597, -55039.58374733732, -44671.68237825423, -46947.08996380448, -17351.078075299036, -49829.10154212732, 0.008, 0.788, 0.64, 192.0, 0.0, 0.0, 0.0, 0.0, 0.0, 0.0, 0.0, 0.0, 0.0, 1.65415723568101E9, 0.0, 2022-06-02 10:07:15.681
8.0, 21068.664916594615, 4852.049631124692, -72399.80368611857, -55041.595404338295, -44674.92338120024, -46955.53892320859, -17365.71846791726, -49854.023737194984, 0.008, 0.788, 0.64, 192.0, 0.0, 0.0, 0.0, 0.0, 0.0, 0.0, 0.0, 0.0, 0.0, 1.6541572356810153E9, 0.0, 2022-06-02 10:07:15.681
9.0, 21071.861216051726, 4856.296462571199, -72417.6403781939, -55053.553587621886, -44699.555003589994, -46972.369786783434, -17409.751404494215, -49886.65728409973, 0.01, 0.794, 0.64, 192.0, 0.0, 80.0, 24.0, 208.0, 20.0, 0.0, 0.0, 0.0, 0.0, 1.6541572356810205E9, 0.0, 2022-06-02 10:07:15.681
10.0, 21077.82913182129, 4856.765849204761, -72409.75021240118, -55050.603157353784, -44696.15753843279, -46970.20166757127, -17392.160581607888, -49863.25500765503, 0.01, 0.794, 0.64, 192.0, 0.0, 0.0, 0.0, 0.0, 0.0, 0.0, 0.0, 0.0, 0.0, 1.6541572356810257E9, 0.0, 2022-06-02 10:07:15.681
11.0, 21079.773733588903, 4862.242026596311, -72396.56268317255, -55041.103665960276, -44684.869907482855, -46962.1326878229, -17357.67183991335, -49849.978071448575, 0.01, 0.794, 0.64, 192.0, 0.0, 0.0, 0.0, 0.0, 0.0, 0.0, 0.0, 0.0, 0.0, 1.654157235681031E9, 0.0, 2022-06-02 10:07:15.681
12.0, 21069.46957939501, 4857.39169804951, -72406.35274724397, -55049.23970094201, -44698.05743671148, -46969.374653026425, -17382.549331492108, -49875.39200489426, 0.01, 0.794, 0.64, 192.0, 0.0, 0.0, 0.0, 0.0, 0.0, 0.0, 0.0, 0.0, 0.0, 1.6541572356810365E9, 0.0, 2022-06-02 10:07:15.681
13.0, 21074.856349808735, 4858.799857950194, -72419.92025612835, -55053.37477366624, -44702.70659955819, -46976.39310078539, -17395.334529320542, -49886.545525377456, 0.01, 0.794, 0.64, 192.0, 0.0, 0.0, 0.0, 0.0, 0.0, 0.0, 0.0, 0.0, 0.0, 1.6541572356810417E9, 0.0, 2022-06-02 10:07:15.681
14.0, 21085.27226272491, 4866.421802809454, -72423.80945966356, -55056.45931440107, -44707.71339031618, -46984.193859600295, -17407.24800911522, -49892.692255102666, 0.01, 0.794, 0.64, 192.0, 0.0, 0.0, 0.0, 0.0, 0.0, 0.0, 0.0, 0.0, 0.0, 1.6541572356810467E9, 0.0, 2022-06-02 10:07:15.681
15.0, 21079.281995210888, 4864.879532442037, -72419.56262821706, -55056.1463899787, -44706.30523041549, -46981.19872584328, -17400.63189275645, -49883.460984642625, 0.01, 0.794, 0.64, 192.0, 0.0, 0.0, 0.0, 0.0, 0.0, 0.0, 0.0, 0.0, 0.0, 1.654157235681052E9, 0.0, 2022-06-02 10:07:15.681
16.0, 21066.83207354928, 4856.609386993574, -72414.75700315917, -55052.52540737694, -44698.05743671148, -46958.26583603214, -17379.956529135292, -49855.81187675141, 0.01, 0.794, 0.64, 192.0, 0.0, 0.0, 0.0, 0.0, 0.0, 0.0, 0.0, 0.0, 0.0, 1.6541572356810572E9, 0.0, 2022-06-02 10:07:15.681
17.0, 21056.50556761093, 4848.898035156493, -72415.58401770402, -55052.88303528822, -44698.504471600594, -46954.22017028573, -17384.337471048533, -49859.72343203109, 0.01, 0.794, 0.64, 192.0, 0.0, 0.0, 0.0, 0.0, 0.0, 0.0, 0.0, 0.0, 0.0, 1.6541572356810625E9, 0.0, 2022-06-02 10:07:15.681
18.0, 21059.34423915675, 4848.495703756297, -72418.86972413895, -55054.447657400095, -44702.19250943572, -46961.328025022514, -17408.142078893434, -49887.05961549993, 0.012, 0.794, 0.636, 192.0, 0.0, 96.0, 24.0, 208.0, 19.0, 224.0, 0.0, 0.0, 0.0, 1.6541572356810677E9, 0.0, 2022-06-02 10:07:15.681
19.0, 21058.271355422898, 4844.114761843057, -72429.4420992663, -55064.48359066053, -44703.73477980313, -46969.665225704346, -17405.884552703446, -49886.03143525499, 0.012, 0.794, 0.636, 192.0, 0.0, 0.0, 0.0, 0.0, 0.0, 0.0, 0.0, 0.0, 0.0, 1.654157235681073E9, 0.0, 2022-06-02 10:07:15.681
20.0, 21055.365628643707, 4840.694944941395, -72425.32937828654, -55066.472895917046, -44709.61328859488, -46977.73420545271, -17407.292712604132, -49880.39879565225, 0.012, 0.794, 0.636, 192.0, 0.0, 0.0, 0.0, 0.0, 0.0, 0.0, 0.0, 0.0, 0.0, 1.6541572356810784E9, 0.0, 2022-06-02 10:07:15.681
21.0, 21048.727160540482, 4834.5035117272755, -72416.43338399332, -55063.120134248755, -44708.13807346083, -46976.95189439677, -17390.52890426265, -49875.32494966089, 0.012, 0.794, 0.636, 192.0, 0.0, 0.0, 0.0, 0.0, 0.0, 0.0, 0.0, 0.0, 0.0, 1.6541572356810837E9, 0.0, 2022-06-02 10:07:15.681
22.0, 21044.457977349517, 4832.8047791486715, -72415.42755549283, -55062.42723017064, -44705.47821587065, -46978.36005429746, -17386.840866427527, -49880.68936833017, 0.012, 0.794, 0.636, 192.0, 0.0, 0.0, 0.0, 0.0, 0.0, 0.0, 0.0, 0.0, 0.0, 1.6541572356810906E9, 0.0, 2022-06-02 10:07:15.681
23.0, 21043.474500593486, 4831.620136692541, -72425.77641317564, -55061.75667783698, -44710.596765350914, -46977.93537115281, -17397.72616597726, -49887.797223066955, 0.012, 0.794, 0.636, 192.0, 0.0, 0.0, 0.0, 0.0, 0.0, 0.0, 0.0, 0.0, 0.0, 1.6541572356810958E9, 0.0, 2022-06-02 10:07:15.681
24.0, 21039.674704036082, 4823.975840088826, -72446.96586691927, -55081.38150946874, -44728.075829514964, -46999.97419118574, -17425.68819829085, -49914.39579896877, 0.012, 0.794, 0.636, 192.0, 0.0, 0.0, 0.0, 0.0, 0.0, 0.0, 0.0, 0.0, 0.0, 1.654157235681101E9, 0.0, 2022-06-02 10:07:15.681
25.0, 21039.317076124797, 4820.019581320236, -72447.07762564154, -55086.63416941574, -44728.500512659615, -47004.466891821256, -17426.82813725807, -49906.90796457625, 0.012, 0.794, 0.636, 192.0, 0.0, 0.0, 0.0, 0.0, 0.0, 0.0, 0.0, 0.0, 0.0, 1.6541572356811063E9, 0.0, 2022-06-02 10:07:15.681
26.0, 21048.54834658484, 4829.675534924929, -72431.2525905672, -55071.32322446385, -44704.40533213679, -46981.84692643248, -17386.572645494063, -49866.5183623455, 0.012, 0.794, 0.636, 192.0, 0.0, 0.0, 0.0, 0.0, 0.0, 0.0, 0.0, 0.0, 0.0, 1.6541572356811116E9, 0.0, 2022-06-02 10:07:15.681
27.0, 21046.044951205844, 4830.882529125515, -72421.28371254013, -55066.07056451686, -44695.151709932295, -46974.02381587313, -17374.59211046602, -49865.981920478574, 0.012, 0.794, 0.636, 192.0, 0.0, 0.0, 0.0, 0.0, 0.0, 0.0, 0.0, 0.0, 0.0, 1.6541572356811168E9, 0.0, 2022-06-02 10:07:15.681
28.0, 21038.981799957968, 4835.397581505487, -72426.75988993167, -55067.81400058437, -44703.04187572502, -46974.85083041797, -17398.709642733294, -49891.52996439099, 0.016, 0.798, 0.638, 192.0, 0.0, 128.0, 24.0, 240.0, 19.0, 240.0, 0.0, 0.0, 0.0, 1.654157235681122E9, 0.0, 2022-06-02 10:07:15.681
29.0, 21039.361779613708, 4837.9680321178475, -72444.35071281799, -55076.73234662203, -44720.96797477818, -46988.798318958085, -17426.60461981352, -49915.15575828025, 0.016, 0.798, 0.638, 192.0, 0.0, 0.0, 0.0, 0.0, 0.0, 0.0, 0.0, 0.0, 0.0, 1.6541572356811273E9, 0.0, 2022-06-02 10:07:15.681
30.0, 21043.653314549127, 4835.308174527666, -72443.12136687296, -55076.84410534431, -44737.597672652926, -46990.31823758104, -17440.97679149828, -49910.663057644735, 0.016, 0.798, 0.638, 192.0, 0.0, 0.0, 0.0, 0.0, 0.0, 0.0, 0.0, 0.0, 0.0, 1.6541572356811326E9, 0.0, 2022-06-02 10:07:15.681
31.0, 21039.07120693579, 4827.842691879594, -72438.27103832616, -55078.16285826718, -44733.462599928695, -46993.73805448271, -17427.476337847274, -49906.326819220405, 0.016, 0.798, 0.638, 192.0, 0.0, 0.0, 0.0, 0.0, 0.0, 0.0, 0.0, 0.0, 0.0, 1.654157235681138E9, 0.0, 2022-06-02 10:07:15.681
32.0, 21018.954636926013, 4815.996267318281, -72451.36916057697, -55088.28819850543, -44740.52575117657, -46997.314333595554, -17420.524945321675, -49896.02266502651, 0.016, 0.798, 0.638, 192.0, 0.0, 0.0, 0.0, 0.0, 0.0, 0.0, 0.0, 0.0, 0.0, 1.6541572356811433E9, 0.0, 2022-06-02 10:07:15.681
33.0, 21022.240343360943, 4818.8349388641045, -72452.77732047765, -55083.19200076962, -44733.21673073968, -46981.01991188764, -17413.908828962903, -49873.313292659914, 0.016, 0.798, 0.638, 192.0, 0.0, 0.0, 0.0, 0.0, 0.0, 0.0, 0.0, 0.0, 0.0, 1.6541572356811483E9, 0.0, 2022-06-02 10:07:15.681
34.0, 21043.899183738136, 4832.693020426395, -72451.19034662133, -55082.16382052468, -44733.23908248414, -46981.466946776745, -17432.952515238823, -49893.116938247316, 0.016, 0.798, 0.638, 192.0, 0.0, 0.0, 0.0, 0.0, 0.0, 0.0, 0.0, 0.0, 0.0, 1.6541572356811535E9, 0.0, 2022-06-02 10:07:15.681
35.0, 21048.83891926276, 4833.318869271144, -72451.52562278815, -55086.14243103772, -44744.929044834265, -46993.40277831588, -17446.94470726785, -49918.50851994855, 0.016, 0.798, 0.638, 192.0, 0.0, 0.0, 0.0, 0.0, 0.0, 0.0, 0.0, 0.0, 0.0, 1.6541572356811588E9, 0.0, 2022-06-02 10:07:15.681
36.0, 21051.766997786402, 4837.09631408409, -72439.23216333773, -55073.35723320928, -44734.87075982938, -46978.248295575184, -17422.424843600376, -49891.82053706891, 0.016, 0.798, 0.638, 192.0, 0.0, 0.0, 0.0, 0.0, 0.0, 0.0, 0.0, 0.0, 0.0, 1.654157235681164E9, 0.0, 2022-06-02 10:07:15.681
37.0, 21056.21499493301, 4844.67355545444, -72417.3945090049, -55058.11334349077, -44706.953431004695, -46963.80906865705, -17381.29763380261, -49870.944007747654, 0.016, 0.798, 0.638, 192.0, 0.0, 0.0, 0.0, 0.0, 0.0, 0.0, 0.0, 0.0, 0.0, 1.6541572356811693E9, 0.0, 2022-06-02 10:07:15.681
38.0, 21050.604707074726, 4843.041878109202, -72423.56359047456, -55054.246491699996, -44700.672590812756, -46961.21626630024, -17378.3025000456, -49868.73118504658, 0.01, 0.8, 0.638, 192.0, 0.0, 80.0, 25.0, 0.0, 19.0, 240.0, 0.0, 0.0, 0.0, 1.6541572356811745E9, 0.0, 2022-06-02 10:07:15.681
39.0, 21034.086767922257, 4828.826168635627, -72453.4031693224, -55073.80426809839, -44729.685155115745, -46987.881897435414, -17423.788300012147, -49904.56103140843, 0.01, 0.8, 0.638, 192.0, 0.0, 0.0, 0.0, 0.0, 0.0, 0.0, 0.0, 0.0, 0.0, 1.6541572356811798E9, 0.0, 2022-06-02 10:07:15.681
40.0, 21040.568773814295, 4836.649279194985, -72444.93185817383, -55069.71389886307, -44732.345012705926, -46986.7419584682, -17418.98267495426, -49893.42986266969, 0.01, 0.8, 0.638, 192.0, 0.0, 0.0, 0.0, 0.0, 0.0, 0.0, 0.0, 0.0, 0.0, 1.654157235681185E9, 0.0, 2022-06-02 10:07:15.681
41.0, 21034.958485956013, 4830.144921558491, -72443.25547733968, -55073.044308786906, -44737.95530056421, -46991.949914926285, -17424.12357617898, -49898.5260604055, 0.01, 0.8, 0.638, 192.0, 0.0, 0.0, 0.0, 0.0, 0.0, 0.0, 0.0, 0.0, 0.0, 1.6541572356811905E9, 0.0, 2022-06-02 10:07:15.681
42.0, 21029.057625419813, 4818.522014441731, -72437.42167203686, -55070.40680294119, -44736.16716100778, -46982.07044387704, -17419.675579032373, -49889.29478994546, 0.01, 0.8, 0.638, 192.0, 0.0, 0.0, 0.0, 0.0, 0.0, 0.0, 0.0, 0.0, 0.0, 1.6541572356811955E9, 0.0, 2022-06-02 10:07:15.681
43.0, 21026.531878296362, 4811.011828304748, -72443.68016048433, -55072.28434947543, -44735.340146462935, -46983.568010755545, -17428.16924192539, -49905.18688025318, 0.01, 0.8, 0.638, 192.0, 0.0, 0.0, 0.0, 0.0, 0.0, 0.0, 0.0, 0.0, 0.0, 1.6541572356812055E9, 0.0, 2022-06-02 10:07:15.681
44.0, 21032.052759176822, 4812.3752847165215, -72461.67331477086, -55090.36691073977, -44745.554893679015, -47008.98194420123, -17450.431579402873, -49942.87192140483, 0.01, 0.8, 0.638, 192.0, 0.0, 0.0, 0.0, 0.0, 0.0, 0.0, 0.0, 0.0, 0.0, 1.654157235681211E9, 0.0, 2022-06-02 10:07:15.681
45.0, 21024.40846257311, 4803.792214845684, -72465.607221795, -55103.06270159039, -44753.95914959421, -47022.571804830055, -17452.59969861504, -49948.415154029746, 0.01, 0.8, 0.638, 192.0, 0.0, 0.0, 0.0, 0.0, 0.0, 0.0, 0.0, 0.0, 0.0, 1.6541572356812162E9, 0.0, 2022-06-02 10:07:15.681
46.0, 21021.703901494016, 4806.206203246857, -72451.19034662133, -55098.32413176586, -44745.04080355654, -47012.91585122536, -17445.134215966966, -49937.66396494675, 0.01, 0.8, 0.638, 192.0, 0.0, 0.0, 0.0, 0.0, 0.0, 0.0, 0.0, 0.0, 0.0, 1.6541572356812215E9, 0.0, 2022-06-02 10:07:15.681
47.0, 21032.58920104375, 4819.438435964398, -72439.03099763763, -55084.95778858159, -44729.99807953812, -46992.084025393015, -17432.25961116071, -49909.29960123296, 0.01, 0.8, 0.638, 192.0, 0.0, 0.0, 0.0, 0.0, 0.0, 0.0, 0.0, 0.0, 0.0, 1.6541572356812265E9, 0.0, 2022-06-02 10:07:15.681
48.0, 21035.3161138673, 4822.500624954775, -72443.38958780642, -55081.73913738003, -44731.4062394388, -46977.57774324152, -17430.49382334874, -49883.41628115372, 0.01, 0.794, 0.634, 192.0, 0.0, 80.0, 24.0, 208.0, 19.0, 208.0, 0.0, 0.0, 0.0, 1.6541572356812317E9, 0.0, 2022-06-02 10:07:15.681
49.0, 21033.751491755425, 4812.889374838994, -72468.110617174, -55101.83335564534, -44747.47714370217, -46996.2414498617, -17423.20715465631, -49888.6242376118, 0.01, 0.794, 0.634, 192.0, 0.0, 0.0, 0.0, 0.0, 0.0, 0.0, 0.0, 0.0, 0.0, 1.6541572356812372E9, 0.0, 2022-06-02 10:07:15.681
50.0, 21038.64652379114, 4818.47731095282, -72462.16505314887, -55100.022864344464, -44748.281806502564, -47001.4941098087, -17413.461794073795, -49892.15581323574, 0.01, 0.794, 0.634, 192.0, 0.0, 0.0, 0.0, 0.0, 0.0, 0.0, 0.0, 0.0, 0.0, 1.6541572356812425E9, 0.0, 2022-06-02 10:07:15.681
51.0, 21038.713579024505, 4826.613345934552, -72446.18355586333, -55091.41744272917, -44739.408163953805, -46998.029589418125, -17416.568686553084, -49904.96336280863, 0.01, 0.794, 0.634, 192.0, 0.0, 0.0, 0.0, 0.0, 0.0, 0.0, 0.0, 0.0, 0.0, 1.654157235681248E9, 0.0, 2022-06-02 10:07:15.681
52.0, 21033.97500919998, 4821.114816798547, -72443.47899478424, -55088.13173629424, -44731.58505339445, -46991.72639748173, -17420.54729706613, -49905.835080842386, 0.01, 0.794, 0.634, 192.0, 0.0, 0.0, 0.0, 0.0, 0.0, 0.0, 0.0, 0.0, 0.0, 1.6541572356812532E9, 0.0, 2022-06-02 10:07:15.681
53.0, 21017.702939236515, 4806.697941624873, -72462.18740489334, -55097.54182070993, -44744.88434134535, -46990.742920725694, -17431.030265215668, -49900.96240055113, 0.01, 0.794, 0.634, 192.0, 0.0, 0.0, 0.0, 0.0, 0.0, 0.0, 0.0, 0.0, 0.0, 1.6541572356812584E9, 0.0, 2022-06-02 10:07:15.681
54.0, 21017.904104936613, 4810.6765521379175, -72469.87640498596, -55103.107405079296, -44748.8629518584, -46997.71666499575, -17427.476337847274, -49905.209231997644, 0.01, 0.794, 0.634, 192.0, 0.0, 0.0, 0.0, 0.0, 0.0, 0.0, 0.0, 0.0, 0.0, 1.6541572356812637E9, 0.0, 2022-06-02 10:07:15.681
55.0, 21021.72625323847, 4813.582278917108, -72462.34386710452, -55103.97912311305, -44747.4100884688, -47008.221984889744, -17433.824233272582, -49908.137310521284, 0.01, 0.794, 0.634, 192.0, 0.0, 0.0, 0.0, 0.0, 0.0, 0.0, 0.0, 0.0, 0.0, 1.654157235681269E9, 0.0, 2022-06-02 10:07:15.681
56.0, 21021.16745962709, 4814.923383584426, -72452.48674779973, -55102.07922483436, -44748.39356522484, -47004.533947054624, -17454.07491374909, -49906.68444713169, 0.01, 0.794, 0.634, 192.0, 0.0, 0.0, 0.0, 0.0, 0.0, 0.0, 0.0, 0.0, 0.0, 1.6541572356812744E9, 0.0, 2022-06-02 10:07:15.681
57.0, 21019.93811368205, 4815.52688068472, -72442.56257326157, -55090.590428184325, -44731.67446037227, -46997.135519639916, -17427.141061680446, -49906.12565352031, 0.01, 0.794, 0.634, 192.0, 0.0, 0.0, 0.0, 0.0, 0.0, 0.0, 0.0, 0.0, 0.0, 1.6541572356812816E9, 0.0, 2022-06-02 10:07:15.681
58.0, 21018.999340414925, 4812.017656805237, -72450.87742219894, -55092.199753785106, -44730.13219000485, -46996.8896504509, -17420.368483110487, -49919.1343687933, 0.012, 0.792, 0.634, 192.0, 0.0, 96.0, 24.0, 192.0, 19.0, 208.0, 0.0, 0.0, 0.0, 1.654157235681287E9, 0.0, 2022-06-02 10:07:15.681
59.0, 21024.699035251026, 4812.8446713500825, -72461.98623919324, -55099.531125966445, -44740.34693722093, -47003.1928423873, -17436.506442607217, -49929.662040431744, 0.012, 0.792, 0.634, 192.0, 0.0, 0.0, 0.0, 0.0, 0.0, 0.0, 0.0, 0.0, 0.0, 1.6541572356812928E9, 0.0, 2022-06-02 10:07:15.681
60.0, 21027.269485863388, 4809.357799215055, -72461.76272174869, -55102.123928323264, -44738.37998370886, -47013.005258203186, -17434.226564672776, -49919.93903159369, 0.012, 0.792, 0.634, 192.0, 0.0, 0.0, 0.0, 0.0, 0.0, 0.0, 0.0, 0.0, 0.0, 1.6541572356812987E9, 0.0, 2022-06-02 10:07:15.681
61.0, 21023.894372450635, 4804.798043346173, -72458.00762868019, -55100.76047191149, -44744.794934367535, -47013.04996169209, -17453.94080328236, -49930.19848229867, 0.012, 0.792, 0.634, 192.0, 0.0, 0.0, 0.0, 0.0, 0.0, 0.0, 0.0, 0.0, 0.0, 1.6541572356813045E9, 0.0, 2022-06-02 10:07:15.681
62.0, 21022.77678522787, 4808.821357348127, -72448.28461984213, -55090.54572469542, -44743.47618144467, -46995.995580672694, -17444.30720142212, -49909.14313902178, 0.012, 0.792, 0.634, 192.0, 0.0, 0.0, 0.0, 0.0, 0.0, 0.0, 0.0, 0.0, 0.0, 1.6541572356813097E9, 0.0, 2022-06-02 10:07:15.681
63.0, 21014.931322924058, 4802.920496811927, -72464.44493108332, -55097.63122768775, -44752.416879226796, -47003.01402843166, -17444.754236311226, -49921.83892987239, 0.012, 0.792, 0.634, 192.0, 0.0, 0.0, 0.0, 0.0, 0.0, 0.0, 0.0, 0.0, 0.0, 1.6541572356813147E9, 0.0, 2022-06-02 10:07:15.681
64.0, 21017.412366558598, 4797.9360577983925, -72476.06783820008, -55106.37075976977, -44752.6627484158, -47012.62527854744, -17428.0127797142, -49923.64942117327, 0.012, 0.792, 0.634, 192.0, 0.0, 0.0, 0.0, 0.0, 0.0, 0.0, 0.0, 0.0, 0.0, 1.6541572356813228E9, 0.0, 2022-06-02 10:07:15.681
65.0, 21026.911857952102, 4798.897182809971, -72474.70438178831, -55110.39407377173, -44762.43046074277, -47023.53292984163, -17464.848454576546, -49950.04683137499, 0.012, 0.792, 0.634, 192.0, 0.0, 0.0, 0.0, 0.0, 0.0, 0.0, 0.0, 0.0, 0.0, 1.654157235681328E9, 0.0, 2022-06-02 10:07:15.681
66.0, 21021.033349160356, 4798.47249966532, -72465.27194562816, -55106.728387681054, -44753.445059471735, -47022.50474959669, -17452.08560849257, -49945.46472376165, 0.012, 0.792, 0.634, 192.0, 0.0, 0.0, 0.0, 0.0, 0.0, 0.0, 0.0, 0.0, 0.0, 1.6541572356813333E9, 0.0, 2022-06-02 10:07:15.681
67.0, 21018.82052645928, 4803.658104378951, -72451.86089895498, -55092.22210552957, -44735.340146462935, -47001.40470283088, -17407.784450982148, -49902.83994708538, 0.012, 0.792, 0.634, 192.0, 0.0, 0.0, 0.0, 0.0, 0.0, 0.0, 0.0, 0.0, 0.0, 1.6541572356813395E9, 0.0, 2022-06-02 10:07:15.681
68.0, 21025.92838119607, 4812.196470760879, -72448.06110239758, -55081.33680597983, -44728.344050448424, -46981.13167060992, -17391.802953696606, -49878.94593226266, 0.008, 0.786, 0.636, 192.0, 0.0, 64.0, 24.0, 144.0, 19.0, 224.0, 0.0, 0.0, 0.0, 1.6541572356813445E9, 0.0, 2022-06-02 10:07:15.681
69.0, 21016.63005550266, 4798.159575242946, -72477.56540507858, -55105.074358591366, -44750.82990537047, -47004.19867088779, -17431.812576271604, -49916.675676903214, 0.008, 0.786, 0.636, 192.0, 0.0, 0.0, 0.0, 0.0, 0.0, 0.0, 0.0, 0.0, 0.0, 1.65415723568135E9, 0.0, 2022-06-02 10:07:15.681
70.0, 21013.12083162318, 4790.492926894775, -72479.42059986838, -55115.46791976308, -44765.42559449978, -47023.64468856391, -17454.566652127105, -49939.809732414455, 0.008, 0.786, 0.636, 192.0, 0.0, 0.0, 0.0, 0.0, 0.0, 0.0, 0.0, 0.0, 0.0, 1.6541572356813557E9, 0.0, 2022-06-02 10:07:15.681
71.0, 21017.524125280874, 4798.494851409776, -72460.01928568116, -55101.207506800594, -44754.74146065015, -47006.411493588865, -17421.329608122065, -49897.63199062729, 0.008, 0.786, 0.636, 192.0, 0.0, 0.0, 0.0, 0.0, 0.0, 0.0, 0.0, 0.0, 0.0, 1.6541572356813607E9, 0.0, 2022-06-02 10:07:15.681
72.0, 21019.602837515216, 4804.3957119459765, -72448.61989600897, -55088.6011229278, -44738.491742431135, -46987.92660092433, -17403.001177668713, -49876.35312990584, 0.008, 0.786, 0.636, 192.0, 0.0, 0.0, 0.0, 0.0, 0.0, 0.0, 0.0, 0.0, 0.0, 1.654157235681366E9, 0.0, 2022-06-02 10:07:15.681
73.0, 21016.093613635734, 4801.445281677876, -72461.22627988175, -55094.07730031935, -44741.41982095478, -46988.68656023581, -17406.242180614732, -49887.506650389034, 0.008, 0.786, 0.636, 192.0, 0.0, 0.0, 0.0, 0.0, 0.0, 0.0, 0.0, 0.0, 0.0, 1.6541572356813712E9, 0.0, 2022-06-02 10:07:15.681
74.0, 21022.59797127223, 4803.300476467666, -72475.79961726662, -55105.11906208027, -44754.71910890569, -47000.77885398613, -17429.2644774037, -49907.75733086555, 0.008, 0.786, 0.636, 192.0, 0.0, 0.0, 0.0, 0.0, 0.0, 0.0, 0.0, 0.0, 0.0, 1.6541572356813767E9, 0.0, 2022-06-02 10:07:15.681
75.0, 21024.296703850832, 4805.960334057848, -72469.47407358576, -55102.79448065692, -44758.407146740814, -47009.563089557065, -17447.615259601505, -49918.977906582106, 0.008, 0.786, 0.636, 192.0, 0.0, 0.0, 0.0, 0.0, 0.0, 0.0, 0.0, 0.0, 0.0, 1.654157235681382E9, 0.0, 2022-06-02 10:07:15.681
76.0, 21022.419157316584, 4807.815528847638, -72452.5538030331, -55090.456317717595, -44742.73857387764, -46998.96836268525, -17423.25185814522, -49897.90021156076, 0.008, 0.786, 0.636, 192.0, 0.0, 0.0, 0.0, 0.0, 0.0, 0.0, 0.0, 0.0, 0.0, 1.6541572356813872E9, 0.0, 2022-06-02 10:07:15.681
77.0, 21011.779726955858, 4801.802909589161, -72452.48674779973, -55091.082166562344, -44737.172989508275, -47000.95766794177, -17423.274209889678, -49909.25489774405, 0.008, 0.786, 0.636, 192.0, 0.0, 0.0, 0.0, 0.0, 0.0, 0.0, 0.0, 0.0, 0.0, 1.6541572356813924E9, 0.0, 2022-06-02 10:07:15.681
78.0, 21000.82737217276, 4792.526935640209, -72473.05035269861, -55103.57679171286, -44756.14962055083, -47016.82740650504, -17455.25955620522, -49947.141104595794, 0.012, 0.792, 0.64, 192.0, 0.0, 96.0, 24.0, 192.0, 20.0, 0.0, 0.0, 0.0, 0.0, 1.654157235681398E9, 0.0, 2022-06-02 10:07:15.681
79.0, 21015.512468279896, 4800.394749688477, -72474.63732655493, -55109.03061735995, -44760.06117583051, -47019.911947239874, -17460.2216434743, -49942.0896103489, 0.012, 0.792, 0.64, 192.0, 0.0, 0.0, 0.0, 0.0, 0.0, 0.0, 0.0, 0.0, 0.0, 1.6541572356814032E9, 0.0, 2022-06-02 10:07:15.681
80.0, 21026.129546896165, 4804.596877646074, -72462.74619850471, -55102.548611467915, -44750.47227745918, -47020.98483097373, -17446.67648633438, -49937.283985291004, 0.012, 0.792, 0.64, 192.0, 0.0, 0.0, 0.0, 0.0, 0.0, 0.0, 0.0, 0.0, 0.0, 1.6541572356814091E9, 0.0, 2022-06-02 10:07:15.681
81.0, 21015.266599090886, 4801.624095633519, -72456.17478563485, -55095.5078119645, -44754.920274605785, -47010.14423491291, -17441.60264034303, -49912.80882511244, 0.012, 0.792, 0.64, 192.0, 0.0, 0.0, 0.0, 0.0, 0.0, 0.0, 0.0, 0.0, 0.0, 1.6541572356814146E9, 0.0, 2022-06-02 10:07:15.681
82.0, 21008.62813098766, 4794.829165319105, -72450.54214603212, -55093.47380321906, -44743.29736748902, -47000.51063305267, -17407.046843415123, -49895.66503711522, 0.012, 0.792, 0.64, 192.0, 0.0, 0.0, 0.0, 0.0, 0.0, 0.0, 0.0, 0.0, 0.0, 1.6541572356814198E9, 0.0, 2022-06-02 10:07:15.681
83.0, 21019.222857859477, 4806.787348602695, -72447.05527389709, -55083.66138740318, -44728.925195804266, -46996.576726028536, -17409.907866705402, -49906.34917096486, 0.012, 0.792, 0.64, 192.0, 0.0, 0.0, 0.0, 0.0, 0.0, 0.0, 0.0, 0.0, 0.0, 1.654157235681425E9, 0.0, 2022-06-02 10:07:15.681
84.0, 21022.17328812758, 4804.708636368351, -72467.5071200737, -55093.22793403005, -44748.482972202655, -47013.02760994764, -17443.435483388363, -49923.872938617824, 0.012, 0.792, 0.64, 192.0, 0.0, 0.0, 0.0, 0.0, 0.0, 0.0, 0.0, 0.0, 0.0, 1.65415723568143E9, 0.0, 2022-06-02 10:07:15.681
85.0, 21022.799136972328, 4802.004075289259, -72466.74716076221, -55098.30178002141, -44756.08256531746, -47022.39299087441, -17444.575422355585, -49922.01774382803, 0.012, 0.792, 0.64, 192.0, 0.0, 0.0, 0.0, 0.0, 0.0, 0.0, 0.0, 0.0, 0.0, 1.6541572356814356E9, 0.0, 2022-06-02 10:07:15.681
86.0, 21022.419157316584, 4803.367531701032, -72449.02222740915, -55088.42230897216, -44741.39746921033, -47003.77398774314, -17416.233410386256, -49890.05474925694, 0.012, 0.792, 0.64, 192.0, 0.0, 0.0, 0.0, 0.0, 0.0, 0.0, 0.0, 0.0, 0.0, 1.6541572356814427E9, 0.0, 2022-06-02 10:07:15.681
87.0, 21017.2112008585, 4802.786386345195, -72444.03778839562, -55087.39412872722, -44738.692908131234, -46996.576726028536, -17423.63183780096, -49897.6766941162, 0.012, 0.792, 0.64, 192.0, 0.0, 0.0, 0.0, 0.0, 0.0, 0.0, 0.0, 0.0, 0.0, 1.654157235681448E9, 0.0, 2022-06-02 10:07:15.681
88.0, 21013.992549656934, 4804.798043346173, -72456.01832342366, -55093.83143113035, -44749.108821047404, -47002.857566220475, -17449.448102646842, -49931.27136603253, 0.01, 0.79, 0.634, 192.0, 0.0, 80.0, 24.0, 176.0, 19.0, 208.0, 0.0, 0.0, 0.0, 1.6541572356814532E9, 0.0, 2022-06-02 10:07:15.681
89.0, 21015.087785135245, 4806.317961969133, -72469.92110847487, -55104.04617834642, -44755.65788217281, -47008.82548199004, -17436.908774007414, -49931.785456155, 0.01, 0.79, 0.634, 192.0, 0.0, 0.0, 0.0, 0.0, 0.0, 0.0, 0.0, 0.0, 0.0, 1.6541572356814587E9, 0.0, 2022-06-02 10:07:15.681
90.0, 21016.83122120276, 4803.166366000934, -72472.82683525406, -55108.71769293758, -44765.827925899976, -47015.53100532663, -17444.195442699845, -49923.3364967509, 0.01, 0.79, 0.634, 192.0, 0.0, 0.0, 0.0, 0.0, 0.0, 0.0, 0.0, 0.0, 0.0, 1.6541572356814637E9, 0.0, 2022-06-02 10:07:15.681
91.0, 21018.462898547998, 4803.971028801326, -72465.1601869059, -55101.207506800594, -44763.4139374988, -47010.412455846366, -17447.414093901407, -49919.29083100448, 0.01, 0.79, 0.634, 192.0, 0.0, 0.0, 0.0, 0.0, 0.0, 0.0, 0.0, 0.0, 0.0, 1.6541572356814697E9, 0.0, 2022-06-02 10:07:15.681
92.0, 21016.741814224937, 4808.3296189701105, -72452.53145128864, -55086.410651971186, -44746.78423962405, -46991.27936259263, -17418.870916231983, -49893.83219406989, 0.01, 0.79, 0.634, 192.0, 0.0, 0.0, 0.0, 0.0, 0.0, 0.0, 0.0, 0.0, 0.0, 1.6541572356814747E9, 0.0, 2022-06-02 10:07:15.681
93.0, 21008.672834476572, 4800.126528755013, -72465.49546307272, -55093.49615496352, -44748.907655347306, -47001.06942666405, -17440.753274053728, -49927.31510726394, 0.01, 0.79, 0.634, 192.0, 0.0, 0.0, 0.0, 0.0, 0.0, 0.0, 0.0, 0.0, 0.0, 1.65415723568148E9, 0.0, 2022-06-02 10:07:15.681
94.0, 21006.59412224223, 4791.789328073183, -72485.47792261576, -55108.31536153738, -44762.65397818732, -47020.02370596215, -17452.867919548502, -49952.48317152062, 0.01, 0.79, 0.634, 192.0, 0.0, 0.0, 0.0, 0.0, 0.0, 0.0, 0.0, 0.0, 0.0, 1.6541572356814876E9, 0.0, 2022-06-02 10:07:15.681
95.0, 20997.34050003773, 4780.99343550127, -72485.81319878259, -55113.165690084184, -44770.1194608354, -47024.20348217529, -17448.17405321289, -49940.368526025835, 0.01, 0.79, 0.634, 192.0, 0.0, 0.0, 0.0, 0.0, 0.0, 0.0, 0.0, 0.0, 0.0, 1.654157235681493E9, 0.0, 2022-06-02 10:07:15.681
96.0, 20993.741869180427, 4780.836973290083, -72469.4070183524, -55101.54278296742, -44755.94845485073, -47004.08691216551, -17418.9603232098, -49901.6776563737, 0.01, 0.79, 0.634, 192.0, 0.0, 0.0, 0.0, 0.0, 0.0, 0.0, 0.0, 0.0, 0.0, 1.6541572356814983E9, 0.0, 2022-06-02 10:07:15.681
97.0, 20990.657328445595, 4782.401595401954, -72464.37787584995, -55100.313437022385, -44748.99706232513, -46996.710836495266, -17413.372387095977, -49896.55910689344, 0.014, 0.794, 0.638, 192.0, 0.0, 112.0, 24.0, 208.0, 19.0, 240.0, 0.0, 0.0, 0.0, 1.6541572356815033E9, 0.0, 2022-06-02 10:07:15.681
98.0, 20997.072279104268, 4790.291761194678, -72468.06591368507, -55097.8547451323, -44744.70552738971, -46997.71666499575, -17419.563820310097, -49913.74759837957, 0.014, 0.794, 0.638, 192.0, 0.0, 0.0, 0.0, 0.0, 0.0, 0.0, 0.0, 0.0, 0.0, 1.6541572356815085E9, 0.0, 2022-06-02 10:07:15.681
99.0, 21001.475572761963, 4795.611476375041, -72483.48861735924, -55112.51748949498, -44759.86001013041, -47015.26278439317, -17449.135178224467, -49944.078915605416, 0.014, 0.794, 0.638, 192.0, 0.0, 0.0, 0.0, 0.0, 0.0, 0.0, 0.0, 0.0, 0.0, 1.6541572356815138E9, 0.0, 2022-06-02 10:07:15.681
100.0, 21003.084898362744, 4791.409348417443, -72480.96287023579, -55120.27354482097, -44767.77252766759, -47025.74575254271, -17460.042829518658, -49949.73390695261, 0.014, 0.794, 0.638, 192.0, 0.0, 0.0, 0.0, 0.0, 0.0, 0.0, 0.0, 0.0, 0.0, 1.6541572356815193E9, 0.0, 2022-06-02 10:07:15.681
101.0, 21000.559151239297, 4781.909857023938, -72473.54209107663, -55123.40278904472, -44766.09614683344, -47028.56207234407, -17449.805730558128, -49943.31895629394, 0.014, 0.794, 0.638, 192.0, 0.0, 0.0, 0.0, 0.0, 0.0, 0.0, 0.0, 0.0, 0.0, 1.6541572356815245E9, 0.0, 2022-06-02 10:07:15.681
102.0, 21005.074203619268, 4789.397691416466, -72459.3040298586, -55110.12585283826, -44758.831829885465, -47018.50378733919, -17445.93887876736, -49929.59498519838, 0.014, 0.794, 0.638, 192.0, 0.0, 0.0, 0.0, 0.0, 0.0, 0.0, 0.0, 0.0, 0.0, 1.6541572356815295E9, 0.0, 2022-06-02 10:07:15.681
103.0, 21001.83320067325, 4791.811679817639, -72463.37204734946, -55108.47182374857, -44756.529600206566, -47020.82836876254, -17461.11571325251, -49954.293662821496, 0.014, 0.794, 0.638, 192.0, 0.0, 0.0, 0.0, 0.0, 0.0, 0.0, 0.0, 0.0, 0.0, 1.654157235681535E9, 0.0, 2022-06-02 10:07:15.681
104.0, 21006.34825305322, 4795.164441485935, -72473.89971898792, -55113.83624241785, -44765.9173328778, -47024.47170310876, -17470.50344592374, -49964.32959608193, 0.014, 0.794, 0.638, 192.0, 0.0, 0.0, 0.0, 0.0, 0.0, 0.0, 0.0, 0.0, 0.0, 1.6541572356815403E9, 0.0, 2022-06-02 10:07:15.681
105.0, 21007.01880538688, 4793.7115780963395, -72471.23986139773, -55115.62438197427, -44772.734614936664, -47030.66313632287, -17463.328535953588, -49941.19554057068, 0.014, 0.794, 0.638, 192.0, 0.0, 0.0, 0.0, 0.0, 0.0, 0.0, 0.0, 0.0, 0.0, 1.654157236160199E9, 0.0, 2022-06-02 10:07:16.160
106.0, 21007.15291585361, 4797.913706053938, -72458.11938740246, -55104.62732370226, -44757.66953917379, -47012.33470586952, -17447.905832279426, -49911.31125823394, 0.014, 0.794, 0.638, 192.0, 0.0, 0.0, 0.0, 0.0, 0.0, 0.0, 0.0, 0.0, 0.0, 1.6541572361603885E9, 0.0, 2022-06-02 10:07:16.160
107.0, 21001.743793695427, 4794.493889152275, -72460.42161708136, -55098.65940793269, -44761.15641130882, -47006.09856916649, -17447.07881773458, -49905.4774529311, 0.018000000000000002, 0.788, 0.642, 192.0, 0.0, 144.0, 24.0, 160.0, 20.0, 16.0, 0.0, 0.0, 0.0, 1.6541572361604033E9, 0.0, 2022-06-02 10:07:16.160
108.0, 20999.866247161182, 4791.051720506158, -72471.73159977575, -55095.57486719786, -44763.99508285464, -47005.74094125521, -17429.4656431038, -49905.4774529311, 0.018000000000000002, 0.788, 0.642, 192.0, 0.0, 0.0, 0.0, 0.0, 0.0, 0.0, 0.0, 0.0, 0.0, 1.6541572361604092E9, 0.0, 2022-06-02 10:07:16.160
109.0, 21009.924532166067, 4795.343255441578, -72483.06393421459, -55097.83239338784, -44768.28661779006, -47008.04317093411, -17441.267364176198, -49920.31901124943, 0.018000000000000002, 0.788, 0.642, 192.0, 0.0, 0.0, 0.0, 0.0, 0.0, 0.0, 0.0, 0.0, 0.0, 1.6541572361604145E9, 0.0, 2022-06-02 10:07:16.160
110.0, 21012.629093245163, 4798.628961876508, -72478.86180625699, -55096.84891663181, -44764.6656351883, -47012.37940935844, -17431.54435533814, -49925.07993281841, 0.018000000000000002, 0.788, 0.642, 192.0, 0.0, 0.0, 0.0, 0.0, 0.0, 0.0, 0.0, 0.0, 0.0, 1.6541572361604197E9, 0.0, 2022-06-02 10:07:16.160
111.0, 21001.87790416216, 4798.360740943043, -72471.99982070921, -55095.61957068677, -44766.65494044482, -47010.25599363518, -17442.496710121242, -49933.30537477796, 0.018000000000000002, 0.788, 0.642, 192.0, 0.0, 0.0, 0.0, 0.0, 0.0, 0.0, 0.0, 0.0, 0.0, 1.6541572361604247E9, 0.0, 2022-06-02 10:07:16.160
112.0, 20999.843895416725, 4801.937020055892, -72463.03677118264, -55090.27750376195, -44754.920274605785, -46998.25310686268, -17432.68429430536, -49903.89047907478, 0.018000000000000002, 0.788, 0.642, 192.0, 0.0, 0.0, 0.0, 0.0, 0.0, 0.0, 0.0, 0.0, 0.0, 1.65415723616043E9, 0.0, 2022-06-02 10:07:16.160
113.0, 21006.191790842033, 4802.227592733811, -72470.77047476417, -55092.44562297412, -44749.66761465879, -46995.63795276141, -17422.82717500057, -49893.318103947415, 0.018000000000000002, 0.788, 0.642, 192.0, 0.0, 0.0, 0.0, 0.0, 0.0, 0.0, 0.0, 0.0, 0.0, 1.6541572361604352E9, 0.0, 2022-06-02 10:07:16.160
114.0, 21008.02463388737, 4796.304380453155, -72487.5119313612, -55115.758492441004, -44770.90177189133, -47015.866281493465, -17456.17597772789, -49916.6309734143, 0.018000000000000002, 0.788, 0.642, 192.0, 0.0, 0.0, 0.0, 0.0, 0.0, 0.0, 0.0, 0.0, 0.0, 1.6541572361604407E9, 0.0, 2022-06-02 10:07:16.160
115.0, 21016.115965380188, 4807.971991058826, -72474.77143702167, -55116.09376860783, -44763.90567587682, -47022.61650831896, -17448.64343984645, -49914.82048211342, 0.018000000000000002, 0.788, 0.642, 192.0, 0.0, 0.0, 0.0, 0.0, 0.0, 0.0, 0.0, 0.0, 0.0, 1.654157236160446E9, 0.0, 2022-06-02 10:07:16.160
116.0, 21011.936189167045, 4807.56965965863, -72466.54599506212, -55115.51262325199, -44759.457678730214, -47023.37646763044, -17450.36452416951, -49916.69802864767, 0.018000000000000002, 0.788, 0.642, 192.0, 0.0, 0.0, 0.0, 0.0, 0.0, 0.0, 0.0, 0.0, 0.0, 1.6541572361604512E9, 0.0, 2022-06-02 10:07:16.160
117.0, 21001.45322101751, 4800.841784577583, -72460.82394848156, -55116.71961745258, -44756.261379273106, -47024.98579323123, -17428.124538436477, -49912.205328012154, 0.018000000000000002, 0.78, 0.638, 192.0, 0.0, 144.0, 24.0, 96.0, 19.0, 240.0, 0.0, 0.0, 0.0, 1.6541572361604564E9, 0.0, 2022-06-02 10:07:16.160
118.0, 21003.509581507395, 4801.959371800348, -72461.76272174869, -55116.33963779684, -44756.730765906665, -47024.382296130934, -17433.53366059466, -49927.1362933083, 0.018000000000000002, 0.78, 0.638, 192.0, 0.0, 0.0, 0.0, 0.0, 0.0, 0.0, 0.0, 0.0, 0.0, 1.6541572361604617E9, 0.0, 2022-06-02 10:07:16.160
119.0, 21010.952712411014, 4801.668799122429, -72473.65384979891, -55125.79442570143, -44769.068928846, -47037.34630791501, -17470.79401860166, -49958.31697682345, 0.018000000000000002, 0.78, 0.638, 192.0, 0.0, 0.0, 0.0, 0.0, 0.0, 0.0, 0.0, 0.0, 0.0, 1.6541572361604671E9, 0.0, 2022-06-02 10:07:16.160
120.0, 21016.518296780385, 4800.551211899664, -72470.4575503418, -55129.8624431923, -44772.24287655865, -47047.69516559782, -17480.82995186209, -49959.5910262574, 0.018000000000000002, 0.78, 0.638, 192.0, 0.0, 0.0, 0.0, 0.0, 0.0, 0.0, 0.0, 0.0, 0.0, 1.6541572361604729E9, 0.0, 2022-06-02 10:07:16.160
121.0, 21002.39199428463, 4787.833069304594, -72468.9599834633, -55135.91976593969, -44764.75504216612, -47051.96434878878, -17455.50542539423, -49940.994374870585, 0.018000000000000002, 0.78, 0.638, 192.0, 0.0, 0.0, 0.0, 0.0, 0.0, 0.0, 0.0, 0.0, 0.0, 1.654157236160478E9, 0.0, 2022-06-02 10:07:16.160
122.0, 21004.358947796696, 4793.756281585251, -72449.51396578718, -55119.67004772068, -44752.841562371446, -47030.84195027852, -17444.82129154459, -49902.59407789637, 0.018000000000000002, 0.78, 0.638, 192.0, 0.0, 0.0, 0.0, 0.0, 0.0, 0.0, 0.0, 0.0, 0.0, 1.6541572361604831E9, 0.0, 2022-06-02 10:07:16.160
123.0, 21023.22382011698, 4808.1508050144685, -72437.57813424803, -55100.49225097803, -44740.883379087856, -47014.3463628705, -17440.865032776004, -49900.85064182885, 0.018000000000000002, 0.78, 0.638, 192.0, 0.0, 0.0, 0.0, 0.0, 0.0, 0.0, 0.0, 0.0, 0.0, 1.6541572361604886E9, 0.0, 2022-06-02 10:07:16.160
124.0, 21009.38809029914, 4793.309246696144, -72470.27873638616, -55125.4591495346, -44762.63162644287, -47041.83900855053, -17471.017536046213, -49949.13040985232, 0.018000000000000002, 0.78, 0.638, 192.0, 0.0, 0.0, 0.0, 0.0, 0.0, 0.0, 0.0, 0.0, 0.0, 1.6541572361604939E9, 0.0, 2022-06-02 10:07:16.160
125.0, 21001.2073518285, 4784.972046014314, -72480.94051849133, -55141.59710903134, -44782.03294063007, -47063.65431113891, -17505.12629808501, -49969.20227637319, 0.018000000000000002, 0.78, 0.638, 192.0, 0.0, 0.0, 0.0, 0.0, 0.0, 0.0, 0.0, 0.0, 0.0, 1.654157236160499E9, 0.0, 2022-06-02 10:07:16.160
126.0, 21016.45124154702, 4802.272296222723, -72445.49065178522, -55118.708922709106, -44750.04759431453, -47040.743773072216, -17443.435483388363, -49922.464778717134, 0.018000000000000002, 0.78, 0.638, 192.0, 0.0, 0.0, 0.0, 0.0, 0.0, 0.0, 0.0, 0.0, 0.0, 1.6541572361605043E9, 0.0, 2022-06-02 10:07:16.160
127.0, 21023.58144802826, 4818.007924319259, -72424.23414280821, -55099.37466375526, -44741.17395176577, -47018.19086291682, -17437.601678085528, -49909.25489774405, 0.018000000000000002, 0.79, 0.64, 192.0, 0.0, 144.0, 24.0, 176.0, 20.0, 0.0, 0.0, 0.0, 0.0, 1.65415723616051E9, 0.0, 2022-06-02 10:07:16.160
128.0, 21031.02457893188, 4821.830072621116, -72431.0514248671, -55100.53695446694, -44748.974710580675, -47021.45421760729, -17458.925242295893, -49937.97688936912, 0.018000000000000002, 0.79, 0.64, 192.0, 0.0, 0.0, 0.0, 0.0, 0.0, 0.0, 0.0, 0.0, 0.0, 1.6541572361605196E9, 0.0, 2022-06-02 10:07:16.160
129.0, 21031.78453824336, 4823.931136599915, -72443.88132618443, -55111.26579180548, -44754.7638123946, -47032.11599971247, -17452.44323640385, -49947.90106390728, 0.018000000000000002, 0.79, 0.64, 192.0, 0.0, 0.0, 0.0, 0.0, 0.0, 0.0, 0.0, 0.0, 0.0, 1.6541572361605248E9, 0.0, 2022-06-02 10:07:16.160
130.0, 21028.655294019616, 4820.399560975977, -72440.77443370516, -55112.1598615837, -44751.634568170855, -47027.22096767676, -17434.852413517525, -49906.058598286945, 0.018000000000000002, 0.79, 0.64, 192.0, 0.0, 0.0, 0.0, 0.0, 0.0, 0.0, 0.0, 0.0, 0.0, 1.65415723616053E9, 0.0, 2022-06-02 10:07:16.160
131.0, 21033.997360944435, 4829.586127947107, -72419.6967386838, -55094.61374218628, -44730.89214931633, -47009.92071746835, -17412.143041150935, -49877.85069678434, 0.018000000000000002, 0.79, 0.64, 192.0, 0.0, 0.0, 0.0, 0.0, 0.0, 0.0, 0.0, 0.0, 0.0, 1.6541572361605365E9, 0.0, 2022-06-02 10:07:16.160
132.0, 21023.916724195093, 4820.332505742611, -72422.80363116309, -55091.26098051798, -44730.311003960494, -47009.20546164578, -17408.87968646046, -49890.01004576803, 0.018000000000000002, 0.79, 0.64, 192.0, 0.0, 0.0, 0.0, 0.0, 0.0, 0.0, 0.0, 0.0, 0.0, 1.654157236160542E9, 0.0, 2022-06-02 10:07:16.160
133.0, 21009.768069954884, 4804.3957119459765, -72438.13692785942, -55099.888753877734, -44742.47035294418, -47019.33080188403, -17426.1128814355, -49917.525043192516, 0.018000000000000002, 0.79, 0.64, 192.0, 0.0, 0.0, 0.0, 0.0, 0.0, 0.0, 0.0, 0.0, 0.0, 1.6541572361605473E9, 0.0, 2022-06-02 10:07:16.160
134.0, 21003.755450696404, 4794.6503513634625, -72464.33317236105, -55117.68074246416, -44767.28078928957, -47035.64757533641, -17458.768780084705, -49934.3335550229, 0.018000000000000002, 0.79, 0.64, 192.0, 0.0, 0.0, 0.0, 0.0, 0.0, 0.0, 0.0, 0.0, 0.0, 1.6541572361605527E9, 0.0, 2022-06-02 10:07:16.160
135.0, 21015.57952351326, 4808.240211992289, -72454.52075654516, -55106.01313185849, -44761.24581828664, -47037.055735237096, -17455.773646327692, -49930.869034632335, 0.018000000000000002, 0.79, 0.64, 192.0, 0.0, 0.0, 0.0, 0.0, 0.0, 0.0, 0.0, 0.0, 0.0, 1.6541572361605582E9, 0.0, 2022-06-02 10:07:16.160
136.0, 21012.24911358942, 4805.692113124384, -72447.61406750848, -55098.771166654966, -44753.35565249391, -47030.57372934505, -17460.73573359677, -49933.61829920034, 0.018000000000000002, 0.79, 0.64, 192.0, 0.0, 0.0, 0.0, 0.0, 0.0, 0.0, 0.0, 0.0, 0.0, 1.6541572361605637E9, 0.0, 2022-06-02 10:07:16.160
137.0, 20999.933302394547, 4794.985627530293, -72452.06206465508, -55104.00147485751, -44756.104917061915, -47037.256900937195, -17458.858187062524, -49944.12361909433, 0.012, 0.792, 0.634, 192.0, 0.0, 96.0, 24.0, 192.0, 19.0, 208.0, 0.0, 0.0, 0.0, 1.654157236160569E9, 0.0, 2022-06-02 10:07:16.160
138.0, 21005.29772106382, 4799.880659566004, -72452.30793384409, -55104.56026846889, -44751.58986468195, -47034.59704334701, -17445.849471789537, -49946.515255751045, 0.012, 0.792, 0.634, 192.0, 0.0, 0.0, 0.0, 0.0, 0.0, 0.0, 0.0, 0.0, 0.0, 1.6541572361605744E9, 0.0, 2022-06-02 10:07:16.160
139.0, 21016.25007584692, 4807.323790469622, -72463.7073235163, -55114.66325696269, -44760.88819037536, -47041.81665680608, -17467.374201699997, -49966.34125308291, 0.012, 0.792, 0.634, 192.0, 0.0, 0.0, 0.0, 0.0, 0.0, 0.0, 0.0, 0.0, 0.0, 1.654157236160581E9, 0.0, 2022-06-02 10:07:16.160
140.0, 21021.279218349366, 4812.710560883351, -72452.17382337735, -55115.93730639664, -44761.31287352001, -47033.5018078687, -17462.389762686464, -49928.96913635363, 0.012, 0.792, 0.634, 192.0, 0.0, 0.0, 0.0, 0.0, 0.0, 0.0, 0.0, 0.0, 0.0, 1.6541572361605864E9, 0.0, 2022-06-02 10:07:16.160
141.0, 21031.896296965635, 4820.62307842053, -72428.68213995482, -55105.23082080255, -44743.18560876675, -47014.59223205951, -17437.35580889652, -49899.59894413936, 0.012, 0.792, 0.634, 192.0, 0.0, 0.0, 0.0, 0.0, 0.0, 0.0, 0.0, 0.0, 0.0, 1.6541572361605916E9, 0.0, 2022-06-02 10:07:16.160
142.0, 21033.617381288695, 4825.853386623071, -72418.6462066944, -55101.72159692307, -44737.32945171946, -47012.89349948091, -17429.68916054835, -49909.52311867751, 0.012, 0.792, 0.634, 192.0, 0.0, 0.0, 0.0, 0.0, 0.0, 0.0, 0.0, 0.0, 0.0, 1.654157236160597E9, 0.0, 2022-06-02 10:07:16.160
143.0, 21015.691282235537, 4816.890337096494, -72434.15831734637, -55113.456262762105, -44743.96791982269, -47021.83419726303, -17444.083683977566, -49924.27527001802, 0.012, 0.792, 0.634, 192.0, 0.0, 0.0, 0.0, 0.0, 0.0, 0.0, 0.0, 0.0, 0.0, 1.6541572361606023E9, 0.0, 2022-06-02 10:07:16.160
144.0, 21008.426965287563, 4806.899107324971, -72453.49257630022, -55126.12970186827, -44751.90278910432, -47031.71366831227, -17448.12934972398, -49928.29858401997, 0.012, 0.792, 0.634, 192.0, 0.0, 0.0, 0.0, 0.0, 0.0, 0.0, 0.0, 0.0, 0.0, 1.6541572361606076E9, 0.0, 2022-06-02 10:07:16.160
145.0, 21023.58144802826, 4814.7222178843285, -72442.58492500603, -55123.179271600166, -44747.43244021326, -47033.92649101335, -17440.909736264915, -49923.314145006436, 0.012, 0.792, 0.634, 192.0, 0.0, 0.0, 0.0, 0.0, 0.0, 0.0, 0.0, 0.0, 0.0, 1.6541572361606128E9, 0.0, 2022-06-02 10:07:16.160
146.0, 21030.622247531683, 4820.801892376172, -72425.59759922, -55112.33867553934, -44736.16716100778, -47026.751581043194, -17453.40436141543, -49926.55514795246, 0.012, 0.792, 0.634, 192.0, 0.0, 0.0, 0.0, 0.0, 0.0, 0.0, 0.0, 0.0, 0.0, 1.6541572361606183E9, 0.0, 2022-06-02 10:07:16.160
147.0, 21020.474555548975, 4811.52591842722, -72428.41391902136, -55111.01992261648, -44744.929044834265, -47033.88178752444, -17491.044699078167, -49962.02736640303, 0.012, 0.794, 0.63, 192.0, 0.0, 96.0, 24.0, 208.0, 19.0, 176.0, 0.0, 0.0, 0.0, 1.6541572361606233E9, 0.0, 2022-06-02 10:07:16.160
148.0, 21018.597009014728, 4809.134281770502, -72435.41001503587, -55108.985913871045, -44743.878512844865, -47032.630089834944, -17480.159399528435, -49960.35098556888, 0.012, 0.794, 0.63, 192.0, 0.0, 0.0, 0.0, 0.0, 0.0, 0.0, 0.0, 0.0, 0.0, 1.6541572361606286E9, 0.0, 2022-06-02 10:07:16.160
149.0, 21022.39680557213, 4810.005999804259, -72450.58684952103, -55113.61272497329, -44747.655957657815, -47032.6524415794, -17449.202233457832, -49941.016726615046, 0.012, 0.794, 0.63, 192.0, 0.0, 0.0, 0.0, 0.0, 0.0, 0.0, 0.0, 0.0, 0.0, 1.654157236160634E9, 0.0, 2022-06-02 10:07:16.160
150.0, 21024.8107939733, 4806.697941624873, -72452.352637333, -55116.741969197035, -44751.27694025957, -47036.139313714426, -17418.848564487525, -49912.18297626769, 0.012, 0.794, 0.63, 192.0, 0.0, 0.0, 0.0, 0.0, 0.0, 0.0, 0.0, 0.0, 0.0, 1.654157236160641E9, 0.0, 2022-06-02 10:07:16.160
151.0, 21023.693206750537, 4808.933116070404, -72447.099977386, -55109.83528016035, -44748.0135855691, -47027.28802291012, -17422.558954067106, -49898.7272261056, 0.012, 0.794, 0.63, 192.0, 0.0, 0.0, 0.0, 0.0, 0.0, 0.0, 0.0, 0.0, 0.0, 1.6541572361606472E9, 0.0, 2022-06-02 10:07:16.160
152.0, 21012.897314178626, 4805.04391253518, -72439.43332903783, -55097.318303265376, -44743.63264365586, -47016.08979893802, -17433.712474550306, -49906.952668065154, 0.012, 0.794, 0.63, 192.0, 0.0, 0.0, 0.0, 0.0, 0.0, 0.0, 0.0, 0.0, 0.0, 1.6541572361606524E9, 0.0, 2022-06-02 10:07:16.160
153.0, 21006.080032119757, 4793.912743796438, -72454.4537013118, -55104.31439927989, -44749.57820768097, -47014.3463628705, -17440.440349631353, -49915.66984840272, 0.012, 0.794, 0.63, 192.0, 0.0, 0.0, 0.0, 0.0, 0.0, 0.0, 0.0, 0.0, 0.0, 1.654157236160658E9, 0.0, 2022-06-02 10:07:16.160
