%OpenBCI Raw EEG Data
%Number of channels = 8
%Sample Rate = 250 Hz
%Board = OpenBCI_GUI$BoardCytonSerial
Sample Index, EXG Channel 0, EXG Channel 1, EXG Channel 2, EXG Channel 3, EXG Channel 4, EXG Channel 5, EXG Channel 6, EXG Channel 7, Accel Channel 0, Accel Channel 1, Accel Channel 2, Other, Other, Other, Other, Other, Other, Other, Analog Channel 0, Analog Channel 1, Analog Channel 2, Timestamp, Other, Timestamp (Formatted)
0.0, 0.0, 0.0, 0.0, 0.0, 0.0, 0.0, 0.0, 0.0, 0.0, 0.0, 0.0, 192.0, 0.0, 0.0, 0.0, 0.0, 0.0, 0.0, 0.0, 0.0, 0.0, 1.6527782865432763E9, 0.0, 2022-05-17 11:04:46.543
1.0, 4910.477091130864, 16774.067792185284, -39220.829513171855, -23909.01284325276, -12068.355032009487, -2831.6530980650305, 233.75454351360125, -2545.7742864816532, -0.012, 0.976, 0.352, 192.0, 255.0, 160.0, 30.0, 128.0, 11.0, 0.0, 0.0, 0.0, 0.0, 1.6527782870228248E9, 0.0, 2022-05-17 11:04:47.022
2.0, 4861.593826007107, 16789.22227492598, -39134.26120689645, -23819.829382876087, -11997.835278252993, -2757.1100303065814, 356.2868066175946, -2609.029723290172, -0.012, 0.976, 0.352, 192.0, 0.0, 0.0, 0.0, 0.0, 0.0, 0.0, 0.0, 0.0, 0.0, 1.6527782870230863E9, 0.0, 2022-05-17 11:04:47.023
3.0, 4924.089303504146, 16876.930520168607, -39103.0805233813, -23793.163751740904, -11958.295042311554, -2690.7253492743193, 407.15937699787344, -2478.808460093553, -0.012, 0.976, 0.352, 192.0, 0.0, 0.0, 0.0, 0.0, 0.0, 0.0, 0.0, 0.0, 0.0, 1.652778287023094E9, 0.0, 2022-05-17 11:04:47.023
4.0, 5017.966630216436, 16928.495994627, -39149.661558826156, -23844.326894799102, -11989.90040897136, -2706.6621430709533, 344.015698911631, -2325.341382663415, -0.012, 0.976, 0.352, 192.0, 0.0, 0.0, 0.0, 0.0, 0.0, 0.0, 0.0, 0.0, 0.0, 1.6527782870230994E9, 0.0, 2022-05-17 11:04:47.023
5.0, 5025.7450372868825, 16883.591340016286, -39193.04629481391, -23898.060488469662, -12030.111197246457, -2770.0963938351147, 297.32290474449456, -2350.598853897912, -0.012, 0.976, 0.352, 192.0, 0.0, 0.0, 0.0, 0.0, 0.0, 0.0, 0.0, 0.0, 0.0, 1.652778287023105E9, 0.0, 2022-05-17 11:04:47.023
6.0, 4917.87551854557, 16788.70818480351, -39187.99480056701, -23909.25871244177, -12043.589299153007, -2811.536528055254, 296.89822159984374, -2541.996841668706, -0.012, 0.976, 0.352, 192.0, 0.0, 0.0, 0.0, 0.0, 0.0, 0.0, 0.0, 0.0, 0.0, 1.65277828702311E9, 0.0, 2022-05-17 11:04:47.023
7.0, 4858.643395739007, 16789.155219692617, -39114.2340438645, -23838.15781332944, -11987.41936533682, -2753.645509916009, 367.1050509339632, -2630.487397967267, -0.012, 0.976, 0.352, 192.0, 0.0, 0.0, 0.0, 0.0, 0.0, 0.0, 0.0, 0.0, 0.0, 1.6527782870231156E9, 0.0, 2022-05-17 11:04:47.023
8.0, 4912.376989409565, 16867.09575260827, -39088.59659297426, -23797.924673309884, -11951.678925952785, -2696.380340621512, 409.68512412132316, -2489.269076498637, -0.012, 0.978, 0.358, 192.0, 255.0, 160.0, 30.0, 144.0, 11.0, 48.0, 0.0, 0.0, 0.0, 1.6527782870231209E9, 0.0, 2022-05-17 11:04:47.023
9.0, 5001.605153275151, 16914.16852643115, -39139.55857033236, -23852.15000535846, -11988.55930430404, -2720.386114166512, 348.6872135027902, -2329.208234454183, -0.012, 0.978, 0.358, 192.0, 0.0, 0.0, 0.0, 0.0, 0.0, 0.0, 0.0, 0.0, 0.0, 1.652778287023126E9, 0.0, 2022-05-17 11:04:47.023
10.0, 4990.451632791953, 16854.802293157853, -39202.36697225177, -23927.34127370611, -12048.461979444264, -2801.5900017726426, 262.9682735166876, -2382.6065519579115, -0.012, 0.978, 0.358, 192.0, 0.0, 0.0, 0.0, 0.0, 0.0, 0.0, 0.0, 0.0, 0.0, 1.6527782870231311E9, 0.0, 2022-05-17 11:04:47.023
11.0, 4898.250686913811, 16769.910367716595, -39195.884966359736, -23926.894238817007, -12061.29188076161, -2830.222586419891, 233.88865398033312, -2583.1687549553817, -0.012, 0.978, 0.358, 192.0, 0.0, 0.0, 0.0, 0.0, 0.0, 0.0, 0.0, 0.0, 0.0, 1.6527782870231364E9, 0.0, 2022-05-17 11:04:47.023
12.0, 4843.935947887415, 16785.89186500214, -39115.70925899855, -23851.032418135695, -12004.429042867308, -2761.6027309420983, 293.9477913317432, -2672.4639740543334, -0.012, 0.978, 0.358, 192.0, 0.0, 0.0, 0.0, 0.0, 0.0, 0.0, 0.0, 0.0, 0.0, 1.6527782870231416E9, 0.0, 2022-05-17 11:04:47.023
13.0, 4898.697721802917, 16857.95388912605, -39091.34585754226, -23826.132574812484, -11967.571016260508, -2698.257887155758, 391.5578593680691, -2524.383667037924, -0.012, 0.978, 0.358, 192.0, 0.0, 0.0, 0.0, 0.0, 0.0, 0.0, 0.0, 0.0, 0.0, 1.6527782870231469E9, 0.0, 2022-05-17 11:04:47.023
14.0, 4980.706272209439, 16885.267720850436, -39155.02597749543, -23886.61639530854, -12006.172478934823, -2716.0498757421824, 366.03216720010846, -2334.1256182343504, -0.012, 0.978, 0.358, 192.0, 0.0, 0.0, 0.0, 0.0, 0.0, 0.0, 0.0, 0.0, 0.0, 1.652778287023152E9, 0.0, 2022-05-17 11:04:47.023
15.0, 4978.292283808266, 16831.4223684576, -39217.90143464821, -23971.240099816336, -12063.638813929418, -2802.0370366617485, 276.22285797868466, -2400.6667614778, -0.012, 0.978, 0.358, 192.0, 0.0, 0.0, 0.0, 0.0, 0.0, 0.0, 0.0, 0.0, 0.0, 1.6527782870231576E9, 0.0, 2022-05-17 11:04:47.023
16.0, 4890.472279843364, 16754.755884975897, -39200.64588792872, -23963.528747979253, -12071.752497166694, -2828.188577674458, 253.535837356548, -2608.2474122342364, -0.012, 0.978, 0.358, 192.0, 0.0, 0.0, 0.0, 0.0, 0.0, 0.0, 0.0, 0.0, 0.0, 1.6527782870231628E9, 0.0, 2022-05-17 11:04:47.023
17.0, 4841.186683319412, 16768.74807700492, -39113.1835118751, -23861.023647907215, -12004.540801589585, -2756.64064367302, 350.56476003703597, -2641.1715318169036, -0.012, 0.978, 0.358, 192.0, 0.0, 0.0, 0.0, 0.0, 0.0, 0.0, 0.0, 0.0, 0.0, 1.652778287023168E9, 0.0, 2022-05-17 11:04:47.023
18.0, 4907.97369575187, 16861.552519983354, -39071.54221195486, -23809.882856593475, -11950.024896863091, -2683.282218370702, 432.9756418437531, -2482.8317740955085, -0.016, 0.976, 0.364, 192.0, 255.0, 128.0, 30.0, 128.0, 11.0, 96.0, 0.0, 0.0, 0.0, 1.6527782870231736E9, 0.0, 2022-05-17 11:04:47.023
19.0, 4984.41666178902, 16894.521343054934, -39147.71695705855, -23891.86905525554, -11998.796403264572, -2730.422047426945, 371.9553794807648, -2352.9010835768086, -0.016, 0.976, 0.364, 192.0, 0.0, 0.0, 0.0, 0.0, 0.0, 0.0, 0.0, 0.0, 0.0, 1.6527782870231786E9, 0.0, 2022-05-17 11:04:47.023
20.0, 4974.112507595123, 16829.500118434444, -39219.98014688255, -23969.809588171196, -12065.471656974752, -2821.1477781710364, 287.309323228517, -2402.6113632454117, -0.016, 0.976, 0.364, 192.0, 0.0, 0.0, 0.0, 0.0, 0.0, 0.0, 0.0, 0.0, 0.0, 1.652778287023184E9, 0.0, 2022-05-17 11:04:47.023
21.0, 4890.807556010193, 16745.234041837935, -39204.64685018621, -23945.870869859562, -12071.193703555311, -2837.7998277902398, 283.12954701537456, -2555.966681953273, -0.016, 0.976, 0.364, 192.0, 0.0, 0.0, 0.0, 0.0, 0.0, 0.0, 0.0, 0.0, 0.0, 1.6527782870231893E9, 0.0, 2022-05-17 11:04:47.023
22.0, 4835.039953594202, 16751.64899249661, -39129.23206439401, -23873.49592131328, -12016.074301728524, -2766.900094378006, 348.2625303581393, -2649.732249943286, -0.016, 0.976, 0.364, 192.0, 0.0, 0.0, 0.0, 0.0, 0.0, 0.0, 0.0, 0.0, 0.0, 1.652778287023206E9, 0.0, 2022-05-17 11:04:47.023
23.0, 4888.237105397833, 16832.405845213634, -39095.145654099666, -23840.303580797146, -11976.444658809265, -2689.473651584822, 376.8951150053877, -2521.813216425564, -0.016, 0.976, 0.364, 192.0, 0.0, 0.0, 0.0, 0.0, 0.0, 0.0, 0.0, 0.0, 0.0, 1.6527782870232112E9, 0.0, 2022-05-17 11:04:47.023
24.0, 4976.079461107191, 16877.936348669096, -39149.34863440378, -23891.131447688516, -12006.865383012937, -2716.9886490093054, 332.370440050416, -2344.563882894979, -0.016, 0.976, 0.364, 192.0, 0.0, 0.0, 0.0, 0.0, 0.0, 0.0, 0.0, 0.0, 0.0, 1.6527782870232165E9, 0.0, 2022-05-17 11:04:47.023
25.0, 4980.125126853601, 16833.38932196967, -39210.61476595578, -23962.4558642454, -12057.134456292923, -2805.3003913522234, 294.3277709874834, -2387.926267138275, -0.016, 0.976, 0.364, 192.0, 0.0, 0.0, 0.0, 0.0, 0.0, 0.0, 0.0, 0.0, 0.0, 1.6527782870232215E9, 0.0, 2022-05-17 11:04:47.023
26.0, 4886.940704219425, 16738.617925479168, -39212.71582993458, -23957.806701398695, -12072.311290778076, -2850.696784340952, 294.10425354293034, -2584.2192869447813, -0.016, 0.976, 0.364, 192.0, 0.0, 0.0, 0.0, 0.0, 0.0, 0.0, 0.0, 0.0, 0.0, 1.6527782870232267E9, 0.0, 2022-05-17 11:04:47.023
27.0, 4835.1517123164795, 16744.11645461517, -39130.21554115004, -23883.10717142906, -12016.946019762281, -2769.448193245911, 355.1245159059186, -2658.4270785364006, -0.01, 0.9540000000000001, 0.366, 192.0, 255.0, 176.0, 29.0, 208.0, 11.0, 112.0, 0.0, 0.0, 0.0, 1.652778287023232E9, 0.0, 2022-05-17 11:04:47.023
28.0, 4883.453832084398, 16824.13569976517, -39102.27586058091, -23860.084874640095, -11982.949016445758, -2695.5086225877553, 385.7687575541446, -2524.2048530822817, -0.01, 0.9540000000000001, 0.366, 192.0, 0.0, 0.0, 0.0, 0.0, 0.0, 0.0, 0.0, 0.0, 0.0, 1.652778287023238E9, 0.0, 2022-05-17 11:04:47.023
29.0, 4973.464307005919, 16874.06949687833, -39155.65182634018, -23891.377316877522, -12013.95088600527, -2720.3414106776013, 345.06623090103045, -2369.4860779626465, -0.01, 0.9540000000000001, 0.366, 192.0, 0.0, 0.0, 0.0, 0.0, 0.0, 0.0, 0.0, 0.0, 0.0, 1.6527782870232432E9, 0.0, 2022-05-17 11:04:47.023
30.0, 4974.60424597314, 16820.782938096876, -39219.913091649185, -23951.54821295121, -12074.43470650133, -2803.5569552847096, 271.5960468764361, -2411.730874983177, -0.01, 0.9540000000000001, 0.366, 192.0, 0.0, 0.0, 0.0, 0.0, 0.0, 0.0, 0.0, 0.0, 0.0, 1.6527782870232484E9, 0.0, 2022-05-17 11:04:47.023
31.0, 4879.542276804719, 16723.150518316095, -39225.590434740836, -23962.165291567482, -12093.456041032798, -2849.7803628182846, 257.2238751916737, -2596.8033190731194, -0.01, 0.9540000000000001, 0.366, 192.0, 0.0, 0.0, 0.0, 0.0, 0.0, 0.0, 0.0, 0.0, 0.0, 1.652778287023254E9, 0.0, 2022-05-17 11:04:47.023
32.0, 4824.154654044468, 16734.30403879929, -39145.70530005757, -23888.851569754075, -12030.155900735368, -2784.6920829644305, 343.6804227448014, -2690.5241835742218, -0.01, 0.9540000000000001, 0.366, 192.0, 0.0, 0.0, 0.0, 0.0, 0.0, 0.0, 0.0, 0.0, 0.0, 1.65277828702326E9, 0.0, 2022-05-17 11:04:47.023
33.0, 4890.248762398811, 16822.548725908844, -39115.59750027627, -23857.737941472285, -11988.179324648301, -2712.227727440325, 394.6871035918121, -2546.511894048678, -0.01, 0.9540000000000001, 0.366, 192.0, 0.0, 0.0, 0.0, 0.0, 0.0, 0.0, 0.0, 0.0, 0.0, 1.6527782870232651E9, 0.0, 2022-05-17 11:04:47.023
34.0, 4985.064862378224, 16866.313441552335, -39171.119233503254, -23897.456991369367, -12027.09371174499, -2734.5347684067215, 328.7047539597457, -2361.953540081208, -0.01, 0.9540000000000001, 0.366, 192.0, 0.0, 0.0, 0.0, 0.0, 0.0, 0.0, 0.0, 0.0, 0.0, 1.6527782870232704E9, 0.0, 2022-05-17 11:04:47.023
35.0, 4972.637292461073, 16815.127946749682, -39235.33579532335, -23971.821245172174, -12085.945854895814, -2817.9738304583825, 241.28708139503973, -2407.6405057478555, -0.01, 0.9540000000000001, 0.366, 192.0, 0.0, 0.0, 0.0, 0.0, 0.0, 0.0, 0.0, 0.0, 0.0, 1.6527782870232956E9, 0.0, 2022-05-17 11:04:47.023
36.0, 4882.179782650445, 16725.966838117463, -39230.23959758754, -23974.391695784536, -12091.91377066538, -2853.311938442223, 267.729195085668, -2608.2697639786916, -0.01, 0.9540000000000001, 0.366, 192.0, 0.0, 0.0, 0.0, 0.0, 0.0, 0.0, 0.0, 0.0, 0.0, 1.6527782870233011E9, 0.0, 2022-05-17 11:04:47.023
37.0, 4821.3606859875545, 16723.5975532052, -39152.50023037198, -23882.883653984507, -12031.966392036247, -2786.0555393762043, 356.6444345288795, -2682.0528724256606, -0.004, 0.9540000000000001, 0.368, 192.0, 255.0, 224.0, 29.0, 208.0, 11.0, 128.0, 0.0, 0.0, 0.0, 1.6527782870233216E9, 0.0, 2022-05-17 11:04:47.023
38.0, 4887.164221663978, 16821.43113868608, -39104.35457281525, -23839.81184241913, -11983.351347845954, -2700.4036546234674, 384.11472846445184, -2529.010478140173, -0.004, 0.9540000000000001, 0.368, 192.0, 0.0, 0.0, 0.0, 0.0, 0.0, 0.0, 0.0, 0.0, 0.0, 1.6527782870233269E9, 0.0, 2022-05-17 11:04:47.023
39.0, 4974.961873884425, 16870.53792125439, -39157.86464904126, -23885.409401107958, -12020.410540152854, -2714.6864193304086, 326.46957951421496, -2347.9613480521857, -0.004, 0.9540000000000001, 0.368, 192.0, 0.0, 0.0, 0.0, 0.0, 0.0, 0.0, 0.0, 0.0, 0.0, 1.652778287023332E9, 0.0, 2022-05-17 11:04:47.023
40.0, 4974.380728528587, 16816.51375490591, -39228.96554815359, -23960.287745033234, -12078.592130970017, -2799.891269194039, 262.6553490943133, -2403.6842469792664, -0.004, 0.9540000000000001, 0.368, 192.0, 0.0, 0.0, 0.0, 0.0, 0.0, 0.0, 0.0, 0.0, 0.0, 1.6527782870233371E9, 0.0, 2022-05-17 11:04:47.023
41.0, 4902.609277082596, 16748.78796920633, -39214.414562513186, -23958.03021884325, -12078.122744336457, -2829.932013741972, 259.213180448196, -2625.547662442644, -0.004, 0.9540000000000001, 0.368, 192.0, 0.0, 0.0, 0.0, 0.0, 0.0, 0.0, 0.0, 0.0, 0.0, 1.6527782870233424E9, 0.0, 2022-05-17 11:04:47.023
42.0, 4839.57735771863, 16741.88128016964, -39140.162067432655, -23881.386087106002, -12026.132586733413, -2771.8174781581733, 328.0342016260864, -2676.9790264343055, -0.004, 0.9540000000000001, 0.368, 192.0, 0.0, 0.0, 0.0, 0.0, 0.0, 0.0, 0.0, 0.0, 0.0, 1.6527782870233476E9, 0.0, 2022-05-17 11:04:47.023
43.0, 4884.72788151835, 16815.440871172057, -39111.06009615184, -23831.452289992845, -11986.592350791974, -2717.9497740208835, 380.00200748467535, -2514.9959343666956, -0.004, 0.9540000000000001, 0.368, 192.0, 0.0, 0.0, 0.0, 0.0, 0.0, 0.0, 0.0, 0.0, 0.0, 1.6527782870233552E9, 0.0, 2022-05-17 11:04:47.023
44.0, 4980.236885575877, 16873.778924200407, -39161.686797343114, -23877.698049270875, -12016.767205806638, -2728.6786113594308, 328.6600504708351, -2346.3967259403144, -0.004, 0.9540000000000001, 0.368, 192.0, 0.0, 0.0, 0.0, 0.0, 0.0, 0.0, 0.0, 0.0, 0.0, 1.6527782870233605E9, 0.0, 2022-05-17 11:04:47.023
45.0, 4987.612961246128, 16830.818871357307, -39224.1599230957, -23952.241117029324, -12070.746668666205, -2795.21975460288, 249.87015126587767, -2374.3587582539035, -0.004, 0.9540000000000001, 0.368, 192.0, 0.0, 0.0, 0.0, 0.0, 0.0, 0.0, 0.0, 0.0, 0.0, 1.6527782870233655E9, 0.0, 2022-05-17 11:04:47.023
46.0, 4890.651093799007, 16734.996942877406, -39228.25029233102, -23959.013695599282, -12083.733032194737, -2846.89698778355, 258.11794496988597, -2566.1590774248934, -0.004, 0.9540000000000001, 0.368, 192.0, 0.0, 0.0, 0.0, 0.0, 0.0, 0.0, 0.0, 0.0, 0.0, 1.6527782870233705E9, 0.0, 2022-05-17 11:04:47.023
47.0, 4826.747456401284, 16732.091216098215, -39149.79566929289, -23875.753447503263, -12024.500909388174, -2798.192536615436, 331.18579759428474, -2691.038273696694, -0.002, 0.9580000000000001, 0.364, 192.0, 255.0, 240.0, 29.0, 240.0, 11.0, 96.0, 0.0, 0.0, 0.0, 1.6527782870233757E9, 0.0, 2022-05-17 11:04:47.023
48.0, 4887.834773997638, 16824.04629278735, -39105.04747689336, -23819.09177530906, -11971.41551630682, -2724.990573524305, 374.4140713708486, -2596.646856861932, -0.002, 0.9580000000000001, 0.364, 192.0, 0.0, 0.0, 0.0, 0.0, 0.0, 0.0, 0.0, 0.0, 0.0, 1.6527782870233808E9, 0.0, 2022-05-17 11:04:47.023
49.0, 4987.344740312665, 16880.61855800373, -39152.85785828327, -23862.632973508, -11993.56609506203, -2729.572681137643, 348.7095652472455, -2417.3635145859143, -0.002, 0.9580000000000001, 0.364, 192.0, 0.0, 0.0, 0.0, 0.0, 0.0, 0.0, 0.0, 0.0, 0.0, 1.652778287023386E9, 0.0, 2022-05-17 11:04:47.023
50.0, 4986.5400775122735, 16822.347560208746, -39229.59139699834, -23946.74258789332, -12061.247177272699, -2800.0477314052264, 273.27242771058417, -2386.8086799155094, -0.002, 0.9580000000000001, 0.364, 192.0, 0.0, 0.0, 0.0, 0.0, 0.0, 0.0, 0.0, 0.0, 0.0, 1.6527782870233912E9, 0.0, 2022-05-17 11:04:47.023
51.0, 4901.871669515571, 16737.857966167685, -39228.76438245349, -23940.48409944583, -12072.445401244808, -2845.064144738215, 282.6825121262684, -2527.6023182394883, -0.002, 0.9580000000000001, 0.364, 192.0, 0.0, 0.0, 0.0, 0.0, 0.0, 0.0, 0.0, 0.0, 0.0, 1.6527782870233965E9, 0.0, 2022-05-17 11:04:47.023
52.0, 4832.3353925151105, 16731.487718997923, -39154.64599783969, -23869.182034633403, -12020.701112830773, -2789.542411511232, 342.56283552203604, -2636.075334081094, -0.002, 0.9580000000000001, 0.364, 192.0, 0.0, 0.0, 0.0, 0.0, 0.0, 0.0, 0.0, 0.0, 0.0, 1.6527782870234015E9, 0.0, 2022-05-17 11:04:47.023
53.0, 4889.935837976437, 16827.220240500003, -39110.83657870729, -23824.679711422887, -11971.236702351178, -2700.24719241228, 369.2061149127621, -2511.911393631863, -0.002, 0.9580000000000001, 0.364, 192.0, 0.0, 0.0, 0.0, 0.0, 0.0, 0.0, 0.0, 0.0, 0.0, 1.6527782870234067E9, 0.0, 2022-05-17 11:04:47.023
54.0, 4985.668359478517, 16886.094735395283, -39161.44092815411, -23861.470682796324, -11998.61758930893, -2699.286067400702, 329.1294371043965, -2332.896272289309, -0.002, 0.9580000000000001, 0.364, 192.0, 0.0, 0.0, 0.0, 0.0, 0.0, 0.0, 0.0, 0.0, 0.0, 1.652778287023412E9, 0.0, 2022-05-17 11:04:47.023
55.0, 4991.0551298922455, 16842.106502307237, -39224.09286786233, -23915.517200889255, -12051.591223668007, -2781.540486996232, 296.63000066638006, -2367.9214558507747, -0.002, 0.9580000000000001, 0.364, 192.0, 0.0, 0.0, 0.0, 0.0, 0.0, 0.0, 0.0, 0.0, 0.0, 1.652778287023417E9, 0.0, 2022-05-17 11:04:47.023
56.0, 4907.280791673755, 16758.7568472334, -39220.62834747176, -23927.92241906195, -12060.24134877221, -2831.0048974758265, 287.6893028842572, -2566.092022191527, -0.002, 0.9580000000000001, 0.364, 192.0, 0.0, 0.0, 0.0, 0.0, 0.0, 0.0, 0.0, 0.0, 0.0, 1.652778287023422E9, 0.0, 2022-05-17 11:04:47.023
57.0, 4838.213901306856, 16752.341896574726, -39148.3875093922, -23857.62618275001, -12007.915915002337, -2770.7892979132293, 347.6366815133907, -2664.752622217253, 0.008, 0.96, 0.37, 192.0, 0.0, 64.0, 30.0, 0.0, 11.0, 144.0, 0.0, 0.0, 0.0, 1.6527782870234272E9, 0.0, 2022-05-17 11:04:47.023
58.0, 4882.336244861633, 16825.856784088228, -39114.52461654242, -23814.04028106216, -11968.778010461094, -2704.5387273476995, 382.2595336746614, -2541.8180277130637, 0.008, 0.96, 0.37, 192.0, 0.0, 0.0, 0.0, 0.0, 0.0, 0.0, 0.0, 0.0, 0.0, 1.6527782870234325E9, 0.0, 2022-05-17 11:04:47.023
59.0, 4973.821934917204, 16873.354241055757, -39168.70524510208, -23863.01295316374, -12004.361987633943, -2727.896300303495, 320.0322771110865, -2359.18192376875, 0.008, 0.96, 0.37, 192.0, 0.0, 0.0, 0.0, 0.0, 0.0, 0.0, 0.0, 0.0, 0.0, 1.6527782870234375E9, 0.0, 2022-05-17 11:04:47.023
60.0, 4985.869525178615, 16831.064740546317, -39234.531132522956, -23944.082730303136, -12059.973127838746, -2799.488937793844, 261.0907269824418, -2359.651310402311, 0.008, 0.96, 0.37, 192.0, 0.0, 0.0, 0.0, 0.0, 0.0, 0.0, 0.0, 0.0, 0.0, 1.6527782870234427E9, 0.0, 2022-05-17 11:04:47.023
61.0, 4902.274000915766, 16750.08437038474, -39235.00051915652, -23951.101178062105, -12076.066383846568, -2846.2711389388014, 280.84966908093327, -2552.658623773888, 0.008, 0.96, 0.37, 192.0, 0.0, 0.0, 0.0, 0.0, 0.0, 0.0, 0.0, 0.0, 0.0, 1.652778287023448E9, 0.0, 2022-05-17 11:04:47.023
62.0, 4838.325660029132, 16752.766579719377, -39152.41082339416, -23855.949801915864, -12015.403749394865, -2771.6163124580758, 352.2634926156393, -2668.060680396638, 0.008, 0.96, 0.37, 192.0, 0.0, 0.0, 0.0, 0.0, 0.0, 0.0, 0.0, 0.0, 0.0, 1.6527782870234532E9, 0.0, 2022-05-17 11:04:47.023
63.0, 4879.475221571353, 16824.56038290982, -39122.28067186841, -23818.6223886755, -11974.075373897002, -2698.3025906446687, 387.8251180440328, -2523.3107833040694, 0.008, 0.96, 0.37, 192.0, 0.0, 0.0, 0.0, 0.0, 0.0, 0.0, 0.0, 0.0, 0.0, 1.6527782870234585E9, 0.0, 2022-05-17 11:04:47.023
64.0, 4971.407946516031, 16878.15986611365, -39170.96277129206, -23865.270479353727, -12008.56411559154, -2720.8555008000735, 351.16825713732925, -2343.8486270724093, 0.008, 0.96, 0.37, 192.0, 0.0, 0.0, 0.0, 0.0, 0.0, 0.0, 0.0, 0.0, 0.0, 1.6527782870234654E9, 0.0, 2022-05-17 11:04:47.023
65.0, 4978.515801252818, 16831.310609735323, -39238.733260480556, -23938.4500907004, -12070.143171565911, -2798.8183854601843, 266.7680700740898, -2369.396670984825, 0.008, 0.96, 0.37, 192.0, 0.0, 0.0, 0.0, 0.0, 0.0, 0.0, 0.0, 0.0, 0.0, 1.6527782870234704E9, 0.0, 2022-05-17 11:04:47.023
66.0, 4897.624838069062, 16750.710219229488, -39235.224036601074, -23948.038989071727, -12083.733032194737, -2833.0165544768042, 235.87795923685545, -2559.4088505993905, 0.008, 0.96, 0.37, 192.0, 0.0, 0.0, 0.0, 0.0, 0.0, 0.0, 0.0, 0.0, 0.0, 1.6527782870234756E9, 0.0, 2022-05-17 11:04:47.023
67.0, 4829.988459347303, 16744.049399381805, -39158.87047754174, -23869.71847650033, -12028.412464667854, -2770.901056635506, 313.14793981885197, -2670.0723373976157, 0.008, 0.962, 0.368, 192.0, 0.0, 64.0, 30.0, 16.0, 11.0, 128.0, 0.0, 0.0, 0.0, 1.652778287023481E9, 0.0, 2022-05-17 11:04:47.023
68.0, 4880.145773905012, 16826.639095144164, -39111.50713104095, -23816.677786907887, -11976.623472764906, -2709.701980316875, 381.6560365743681, -2553.016251685173, 0.008, 0.962, 0.368, 192.0, 0.0, 0.0, 0.0, 0.0, 0.0, 0.0, 0.0, 0.0, 0.0, 1.652778287023486E9, 0.0, 2022-05-17 11:04:47.023
69.0, 4981.309769309732, 16893.3367005988, -39147.24757042499, -23844.86333666603, -11995.75656601865, -2707.779730293719, 351.2800158596058, -2337.6571938582892, 0.008, 0.962, 0.368, 192.0, 0.0, 0.0, 0.0, 0.0, 0.0, 0.0, 0.0, 0.0, 0.0, 1.6527782870234911E9, 0.0, 2022-05-17 11:04:47.023
70.0, 4985.847173434159, 16841.99474358496, -39229.636100487245, -23934.605590654086, -12069.494970976708, -2793.2304493463575, 262.0742037384753, -2351.3588132093923, 0.008, 0.962, 0.368, 192.0, 0.0, 0.0, 0.0, 0.0, 0.0, 0.0, 0.0, 0.0, 0.0, 1.6527782870234962E9, 0.0, 2022-05-17 11:04:47.023
71.0, 4896.619009568573, 16759.829730967253, -39230.552522009915, -23953.045779829718, -12079.620311214961, -2847.321670928201, 278.92741905777683, -2563.767440768175, 0.008, 0.962, 0.368, 192.0, 0.0, 0.0, 0.0, 0.0, 0.0, 0.0, 0.0, 0.0, 0.0, 1.6527782870235014E9, 0.0, 2022-05-17 11:04:47.023
72.0, 4816.018619062736, 16750.017315151374, -39159.04929149739, -23881.430790594914, -12024.545612877086, -2788.134251610548, 366.4792020892146, -2665.9149129289285, 0.008, 0.962, 0.368, 192.0, 0.0, 0.0, 0.0, 0.0, 0.0, 0.0, 0.0, 0.0, 0.0, 1.6527782870235066E9, 0.0, 2022-05-17 11:04:47.023
73.0, 4860.230369595333, 16823.442795687057, -39122.526541057414, -23821.14813579895, -11984.446583324265, -2708.8302622831184, 399.31391469406066, -2539.4487428008015, 0.008, 0.962, 0.368, 192.0, 0.0, 0.0, 0.0, 0.0, 0.0, 0.0, 0.0, 0.0, 0.0, 1.652778287023512E9, 0.0, 2022-05-17 11:04:47.023
74.0, 4971.340891282665, 16897.829401234318, -39156.791765307404, -23851.90413616945, -12003.087938199991, -2700.805986023663, 353.7387077496896, -2346.4414294292246, 0.008, 0.962, 0.368, 192.0, 0.0, 0.0, 0.0, 0.0, 0.0, 0.0, 0.0, 0.0, 0.0, 1.6527782870235171E9, 0.0, 2022-05-17 11:04:47.023
75.0, 4976.951179140947, 16845.079284319792, -39237.36980406878, -23939.321808734156, -12075.932273379836, -2781.4063765295004, 253.1558577008078, -2332.896272289309, 0.008, 0.962, 0.368, 192.0, 0.0, 0.0, 0.0, 0.0, 0.0, 0.0, 0.0, 0.0, 0.0, 1.6527782870235224E9, 0.0, 2022-05-17 11:04:47.023
76.0, 4897.401320624509, 16759.472103055967, -39236.65454824621, -23946.049683815203, -12089.700947964306, -2837.7998277902398, 252.12767745586368, -2508.5586319635668, 0.008, 0.962, 0.368, 192.0, 0.0, 0.0, 0.0, 0.0, 0.0, 0.0, 0.0, 0.0, 0.0, 1.6527782870235276E9, 0.0, 2022-05-17 11:04:47.023
77.0, 4829.496720969287, 16753.727704730954, -39148.36515764775, -23866.231604365305, -12030.066493757546, -2780.020568373271, 340.4841232876925, -2624.295964753147, 0.002, 0.962, 0.368, 192.0, 0.0, 16.0, 30.0, 16.0, 11.0, 128.0, 0.0, 0.0, 0.0, 1.6527782870235326E9, 0.0, 2022-05-17 11:04:47.023
78.0, 4875.295445358211, 16836.451510960043, -39099.59365124627, -23820.254066020738, -11973.695394241262, -2695.709788287853, 410.28862122161644, -2514.25832679967, 0.002, 0.962, 0.368, 192.0, 0.0, 0.0, 0.0, 0.0, 0.0, 0.0, 0.0, 0.0, 0.0, 1.652778287023538E9, 0.0, 2022-05-17 11:04:47.023
79.0, 4977.353510541143, 16900.10927916876, -39146.46525936905, -23860.978944418308, -11998.125850930912, -2698.4143493669453, 366.63566430040174, -2338.3500979364035, 0.002, 0.962, 0.368, 192.0, 0.0, 0.0, 0.0, 0.0, 0.0, 0.0, 0.0, 0.0, 0.0, 1.6527782870235431E9, 0.0, 2022-05-17 11:04:47.023
80.0, 4982.114432110123, 16851.561290211834, -39225.88100741876, -23933.622113898055, -12066.142209308411, -2781.7640044407854, 278.1451080018411, -2362.0205953145737, 0.002, 0.962, 0.368, 192.0, 0.0, 0.0, 0.0, 0.0, 0.0, 0.0, 0.0, 0.0, 0.0, 1.6527782870235484E9, 0.0, 2022-05-17 11:04:47.023
81.0, 4894.652056056507, 16758.913309444586, -39233.50295227802, -23947.815471627175, -12083.733032194737, -2836.5034266118323, 265.4046136623161, -2540.9910131682177, 0.002, 0.962, 0.368, 192.0, 0.0, 0.0, 0.0, 0.0, 0.0, 0.0, 0.0, 0.0, 0.0, 1.652778287023561E9, 0.0, 2022-05-17 11:04:47.023
82.0, 4808.396674203476, 16733.477024254444, -39171.745082348, -23887.979851720316, -12046.495025932196, -2797.767853470785, 325.1955300802625, -2655.677813968398, 0.002, 0.962, 0.368, 192.0, 0.0, 0.0, 0.0, 0.0, 0.0, 0.0, 0.0, 0.0, 0.0, 1.6527782870235662E9, 0.0, 2022-05-17 11:04:47.023
83.0, 4856.899959671493, 16814.83737407176, -39117.87737821071, -23833.486298738277, -11991.152106660857, -2716.2733931867356, 396.31878093704955, -2533.816103198064, 0.002, 0.962, 0.368, 192.0, 0.0, 0.0, 0.0, 0.0, 0.0, 0.0, 0.0, 0.0, 0.0, 1.6527782870235713E9, 0.0, 2022-05-17 11:04:47.023
84.0, 4959.382707999076, 16881.44557254858, -39157.43996589661, -23877.854511482063, -12008.295894658077, -2716.0498757421824, 364.62400729942414, -2343.8262753279537, 0.002, 0.962, 0.368, 192.0, 0.0, 0.0, 0.0, 0.0, 0.0, 0.0, 0.0, 0.0, 0.0, 1.6527782870235765E9, 0.0, 2022-05-17 11:04:47.023
85.0, 4974.693652950961, 16849.460226233034, -39219.53311199345, -23946.11673904857, -12065.695174419305, -2786.256705076302, 288.71748312920136, -2349.6600806307893, 0.002, 0.962, 0.368, 192.0, 0.0, 0.0, 0.0, 0.0, 0.0, 0.0, 0.0, 0.0, 0.0, 1.6527782870235815E9, 0.0, 2022-05-17 11:04:47.023
86.0, 4883.923218717959, 16753.504187286402, -39230.53017026546, -23957.270259531768, -12089.745651453215, -2847.5451883727537, 260.68839558224624, -2543.919091691863, 0.002, 0.962, 0.368, 192.0, 0.0, 0.0, 0.0, 0.0, 0.0, 0.0, 0.0, 0.0, 0.0, 1.6527782870235925E9, 0.0, 2022-05-17 11:04:47.023
87.0, 4816.867985352038, 16744.652896482097, -39148.9910064925, -23882.928357473418, -12032.86046181446, -2788.760100455296, 318.3111927880279, -2652.056831366638, 0.002, 0.962, 0.366, 192.0, 0.0, 16.0, 30.0, 16.0, 11.0, 112.0, 0.0, 0.0, 0.0, 1.652778287023598E9, 0.0, 2022-05-17 11:04:47.023
88.0, 4867.427631309943, 16825.633266643676, -39096.330296555796, -23820.566990443112, -11972.577807018497, -2695.933305732406, 390.2167547007507, -2521.746161192198, 0.002, 0.962, 0.366, 192.0, 0.0, 0.0, 0.0, 0.0, 0.0, 0.0, 0.0, 0.0, 0.0, 1.6527782870236032E9, 0.0, 2022-05-17 11:04:47.023
89.0, 4955.582911441674, 16871.454342777055, -39152.92491351663, -23869.96434568934, -12004.227877167212, -2707.667971571442, 351.950568193265, -2347.2907957185266, 0.002, 0.962, 0.366, 192.0, 0.0, 0.0, 0.0, 0.0, 0.0, 0.0, 0.0, 0.0, 0.0, 1.6527782870236084E9, 0.0, 2022-05-17 11:04:47.023
90.0, 4965.618844702107, 16827.354350966736, -39232.34066156634, -23957.761997909787, -12071.126648321944, -2802.8864029510505, 287.91282032881026, -2394.788252686054, 0.002, 0.962, 0.366, 192.0, 0.0, 0.0, 0.0, 0.0, 0.0, 0.0, 0.0, 0.0, 0.0, 1.6527782870236137E9, 0.0, 2022-05-17 11:04:47.023
91.0, 4888.862954242582, 16746.5527947608, -39240.18612387015, -23969.02727711526, -12093.724261966261, -2858.3410809446673, 272.4901166546484, -2586.521516623678, 0.002, 0.962, 0.366, 192.0, 0.0, 0.0, 0.0, 0.0, 0.0, 0.0, 0.0, 0.0, 0.0, 1.6527782870236187E9, 0.0, 2022-05-17 11:04:47.023
92.0, 4823.171177288435, 16742.998867392405, -39154.10955597276, -23878.21213939335, -12037.28610721661, -2797.03024590376, 335.0973528739635, -2693.094634186582, 0.002, 0.962, 0.366, 192.0, 0.0, 0.0, 0.0, 0.0, 0.0, 0.0, 0.0, 0.0, 0.0, 1.6527782870236237E9, 0.0, 2022-05-17 11:04:47.023
93.0, 4865.952416175892, 16826.14735676615, -39106.63445074969, -23829.5747434586, -11982.122001900912, -2706.036294226205, 374.16820218184023, -2537.9511759222955, 0.002, 0.962, 0.366, 192.0, 0.0, 0.0, 0.0, 0.0, 0.0, 0.0, 0.0, 0.0, 0.0, 1.6527782870236287E9, 0.0, 2022-05-17 11:04:47.023
94.0, 4963.808353401227, 16890.408622075156, -39146.66642506915, -23866.52217704322, -11993.521391573118, -2699.4648813563444, 353.7387077496896, -2325.6990105747, 0.002, 0.962, 0.366, 192.0, 0.0, 0.0, 0.0, 0.0, 0.0, 0.0, 0.0, 0.0, 0.0, 1.652778287023634E9, 0.0, 2022-05-17 11:04:47.023
95.0, 4981.019196631813, 16845.459263975532, -39218.035545114944, -23942.808680869184, -12052.753514379683, -2771.1469258245143, 297.0323320665756, -2336.6737171022555, 0.002, 0.962, 0.366, 192.0, 0.0, 0.0, 0.0, 0.0, 0.0, 0.0, 0.0, 0.0, 0.0, 1.6527782870236392E9, 0.0, 2022-05-17 11:04:47.023
96.0, 4892.327474633154, 16760.96966993447, -39224.65166147371, -23961.27122178927, -12068.489142476219, -2814.5540135567207, 280.2238202361846, -2521.5449954921005, 0.002, 0.962, 0.366, 192.0, 0.0, 0.0, 0.0, 0.0, 0.0, 0.0, 0.0, 0.0, 0.0, 1.6527782870236444E9, 0.0, 2022-05-17 11:04:47.023
97.0, 4822.14299704349, 16749.12324537316, -39150.13094545972, -23869.20438637786, -12012.699188315772, -2765.2684170327684, 343.94864367826506, -2651.587444733077, 0.004, 0.964, 0.368, 192.0, 0.0, 32.0, 30.0, 32.0, 11.0, 128.0, 0.0, 0.0, 0.0, 1.6527782870236497E9, 0.0, 2022-05-17 11:04:47.023
98.0, 4858.844561439105, 16817.854859573228, -39110.993040918474, -23820.946970098852, -11971.616682006917, -2704.1140442030483, 388.1827459553178, -2547.852998715997, 0.004, 0.964, 0.368, 192.0, 0.0, 0.0, 0.0, 0.0, 0.0, 0.0, 0.0, 0.0, 0.0, 1.6527782870236547E9, 0.0, 2022-05-17 11:04:47.023
99.0, 4949.547940438741, 16872.124895110715, -39156.34473041829, -23874.837025980596, -12003.266752155632, -2713.166500707448, 359.46075433024816, -2348.6989556192107, 0.004, 0.964, 0.368, 192.0, 0.0, 0.0, 0.0, 0.0, 0.0, 0.0, 0.0, 0.0, 0.0, 1.6527782870236597E9, 0.0, 2022-05-17 11:04:47.023
100.0, 4974.64894946205, 16849.124950066205, -39212.46996074557, -23935.186736009924, -12048.95371782228, -2775.192591570925, 317.7971026655558, -2319.529929105035, 0.004, 0.964, 0.368, 192.0, 0.0, 0.0, 0.0, 0.0, 0.0, 0.0, 0.0, 0.0, 0.0, 1.6527782870236647E9, 0.0, 2022-05-17 11:04:47.023
101.0, 4891.522811832763, 16756.096989643214, -39232.228902844065, -23959.997172355317, -12076.066383846568, -2848.8639412956168, 288.71748312920136, -2505.6082016954665, 0.004, 0.964, 0.368, 192.0, 0.0, 0.0, 0.0, 0.0, 0.0, 0.0, 0.0, 0.0, 0.0, 1.65277828702367E9, 0.0, 2022-05-17 11:04:47.023
102.0, 4815.8398051070935, 16735.823957422253, -39161.44092815411, -23880.357906861056, -12027.853671056471, -2808.384932087056, 356.5103240621477, -2641.685621939376, 0.004, 0.964, 0.368, 192.0, 0.0, 0.0, 0.0, 0.0, 0.0, 0.0, 0.0, 0.0, 0.0, 1.6527782870236752E9, 0.0, 2022-05-17 11:04:47.023
103.0, 4869.729860988839, 16831.265906246415, -39096.86673842272, -23797.61174888751, -11961.960728402226, -2704.2481546697804, 410.2215659882505, -2528.1834635953264, 0.004, 0.964, 0.368, 192.0, 0.0, 0.0, 0.0, 0.0, 0.0, 0.0, 0.0, 0.0, 0.0, 1.6527782870236807E9, 0.0, 2022-05-17 11:04:47.023
104.0, 4962.020213844802, 16888.709889496553, -39147.60519833627, -23844.7292261993, -11990.861533982938, -2697.229706910814, 362.27707413161687, -2330.616394354867, 0.004, 0.964, 0.368, 192.0, 0.0, 0.0, 0.0, 0.0, 0.0, 0.0, 0.0, 0.0, 0.0, 1.6527782870236857E9, 0.0, 2022-05-17 11:04:47.023
105.0, 4987.992940901869, 16866.268738063423, -39223.89170216223, -23923.228552726338, -12052.105313790478, -2773.4268037589554, 299.55807919002524, -2340.719382848666, 0.004, 0.964, 0.368, 192.0, 0.0, 0.0, 0.0, 0.0, 0.0, 0.0, 0.0, 0.0, 0.0, 1.6527782870236907E9, 0.0, 2022-05-17 11:04:47.023
106.0, 4907.280791673755, 16779.633376554655, -39243.60594077181, -23965.071018346673, -12085.655282217895, -2847.3663744171113, 270.81373582050037, -2523.2884315596143, 0.004, 0.964, 0.368, 192.0, 0.0, 0.0, 0.0, 0.0, 0.0, 0.0, 0.0, 0.0, 0.0, 1.652778287023696E9, 0.0, 2022-05-17 11:04:47.023
107.0, 4817.337371985599, 16737.857966167685, -39168.951114291085, -23890.52795058822, -12038.895432817393, -2802.84169946214, 318.0429718545642, -2646.848874908552, 0.006, 0.962, 0.368, 192.0, 0.0, 48.0, 30.0, 16.0, 11.0, 128.0, 0.0, 0.0, 0.0, 1.6527782870237043E9, 0.0, 2022-05-17 11:04:47.023
108.0, 4854.418916036954, 16806.522525134387, -39103.63931699268, -23816.923656096897, -11971.437868051276, -2704.9187070034395, 367.03799570059726, -2547.0036324266953, 0.006, 0.962, 0.368, 192.0, 0.0, 0.0, 0.0, 0.0, 0.0, 0.0, 0.0, 0.0, 0.0, 1.6527782870237095E9, 0.0, 2022-05-17 11:04:47.023
109.0, 4945.6810886479725, 16871.119066610227, -39149.30393091487, -23863.14706363047, -11998.863458497937, -2706.2598116707577, 313.8408438969665, -2370.111926807395, 0.006, 0.962, 0.368, 192.0, 0.0, 0.0, 0.0, 0.0, 0.0, 0.0, 0.0, 0.0, 0.0, 1.6527782870237148E9, 0.0, 2022-05-17 11:04:47.023
110.0, 4966.624673202596, 16845.503967464443, -39229.18906559814, -23956.286782775736, -12060.397810983397, -2790.4588330338997, 270.09847999793055, -2360.1654005247833, 0.006, 0.962, 0.368, 192.0, 0.0, 0.0, 0.0, 0.0, 0.0, 0.0, 0.0, 0.0, 0.0, 1.6527782870237205E9, 0.0, 2022-05-17 11:04:47.023
111.0, 4879.050538426703, 16738.237945823425, -39248.90330420772, -23975.531634751755, -12088.091622363523, -2857.6258251220975, 282.9954365486427, -2514.034809355117, 0.006, 0.962, 0.368, 192.0, 0.0, 0.0, 0.0, 0.0, 0.0, 0.0, 0.0, 0.0, 0.0, 1.6527782870237255E9, 0.0, 2022-05-17 11:04:47.023
112.0, 4804.082787523602, 16711.147631543594, -39170.18046023613, -23898.418116380944, -12036.392037438398, -2804.182804129458, 350.49770480367005, -2628.8333688775742, 0.006, 0.962, 0.368, 192.0, 0.0, 0.0, 0.0, 0.0, 0.0, 0.0, 0.0, 0.0, 0.0, 1.652778287023758E9, 0.0, 2022-05-17 11:04:47.023
113.0, 4844.092410098602, 16789.42344062608, -39112.7811804749, -23829.172412058404, -11979.059812910535, -2705.1422244479927, 408.4557781762813, -2514.3700855219467, 0.006, 0.962, 0.368, 192.0, 0.0, 0.0, 0.0, 0.0, 0.0, 0.0, 0.0, 0.0, 0.0, 1.652778287023766E9, 0.0, 2022-05-17 11:04:47.023
114.0, 4951.425486972987, 16858.42327575961, -39151.91908501615, -23865.695162498378, -11993.968426462225, -2701.2977244016797, 379.37615863992676, -2340.495865404113, 0.006, 0.962, 0.368, 192.0, 0.0, 0.0, 0.0, 0.0, 0.0, 0.0, 0.0, 0.0, 0.0, 1.652778287023774E9, 0.0, 2022-05-17 11:04:47.023
115.0, 4965.149458068545, 16820.13473750767, -39231.64775748822, -23954.856271130597, -12061.090715061513, -2785.0497108757154, 285.94586681674326, -2347.9613480521857, 0.006, 0.962, 0.368, 192.0, 0.0, 0.0, 0.0, 0.0, 0.0, 0.0, 0.0, 0.0, 0.0, 1.6527782870237818E9, 0.0, 2022-05-17 11:04:47.023
116.0, 4880.458698327387, 16736.49450975591, -39252.993673443045, -23976.02337312977, -12094.506573022196, -2857.5811216331867, 228.88186322234432, -2561.420507600368, 0.008, 0.964, 0.364, 192.0, 0.0, 64.0, 30.0, 32.0, 11.0, 96.0, 0.0, 0.0, 0.0, 1.6527782870237875E9, 0.0, 2022-05-17 11:04:47.023
117.0, 4814.074017295125, 16732.806471920787, -39163.027902010435, -23878.86033998255, -12030.178252479822, -2791.777585956763, 304.90014611484366, -2686.098538172071, 0.008, 0.964, 0.364, 192.0, 0.0, 0.0, 0.0, 0.0, 0.0, 0.0, 0.0, 0.0, 0.0, 1.6527782870237935E9, 0.0, 2022-05-17 11:04:47.023
118.0, 4857.77167770525, 16812.37868218168, -39098.632526234695, -23819.941141598363, -11965.60406274844, -2696.7603202772525, 407.22643223123936, -2537.9511759222955, 0.008, 0.964, 0.364, 192.0, 0.0, 0.0, 0.0, 0.0, 0.0, 0.0, 0.0, 0.0, 0.0, 1.6527782870237992E9, 0.0, 2022-05-17 11:04:47.023
119.0, 4956.901664364536, 16878.651604491664, -39138.30687264286, -23865.00225842026, -11983.172533890312, -2693.720483031331, 404.9912577857087, -2327.733019320133, 0.008, 0.964, 0.364, 192.0, 0.0, 0.0, 0.0, 0.0, 0.0, 0.0, 0.0, 0.0, 0.0, 1.6527782870238197E9, 0.0, 2022-05-17 11:04:47.023
120.0, 4969.150420326045, 16842.173557540602, -39220.94127189413, -23957.4043699985, -12055.078095803035, -2777.964207883383, 317.0594950985307, -2300.285077129016, 0.008, 0.964, 0.364, 192.0, 0.0, 0.0, 0.0, 0.0, 0.0, 0.0, 0.0, 0.0, 0.0, 1.652778287023825E9, 0.0, 2022-05-17 11:04:47.023
121.0, 4899.569439836674, 16756.678134999052, -39235.04522264543, -23968.69200094843, -12083.844790917015, -2834.067086466204, 274.21120097770705, -2494.2535155121705, 0.008, 0.964, 0.364, 192.0, 0.0, 0.0, 0.0, 0.0, 0.0, 0.0, 0.0, 0.0, 0.0, 1.6527782875037353E9, 0.0, 2022-05-17 11:04:47.503
122.0, 4820.5336714427085, 16726.21270730647, -39164.86074505577, -23888.136313931504, -12043.321078219544, -2796.0691208921817, 330.93992840527636, -2640.8362556500742, 0.008, 0.964, 0.364, 192.0, 0.0, 0.0, 0.0, 0.0, 0.0, 0.0, 0.0, 0.0, 0.0, 1.6527782875039291E9, 0.0, 2022-05-17 11:04:47.503
123.0, 4850.507360757275, 16797.537123863356, -39114.301099097866, -23824.031510833684, -11992.180286905801, -2701.968276735339, 387.400434899382, -2521.0532571140834, 0.008, 0.964, 0.364, 192.0, 0.0, 0.0, 0.0, 0.0, 0.0, 0.0, 0.0, 0.0, 0.0, 1.6527782875039415E9, 0.0, 2022-05-17 11:04:47.503
124.0, 4954.465324218908, 16877.042278890884, -39143.715994801045, -23854.742807715276, -11997.365891619433, -2693.1393376754927, 368.84848700147717, -2322.480359373136, 0.008, 0.964, 0.364, 192.0, 0.0, 0.0, 0.0, 0.0, 0.0, 0.0, 0.0, 0.0, 0.0, 1.6527782875039487E9, 0.0, 2022-05-17 11:04:47.503
125.0, 4979.275760564299, 16850.44370298907, -39213.31932703487, -23932.035140041728, -12054.832226614026, -2771.906885135995, 287.3763784618829, -2309.136367933317, 0.008, 0.964, 0.364, 192.0, 0.0, 0.0, 0.0, 0.0, 0.0, 0.0, 0.0, 0.0, 0.0, 1.6527782875039575E9, 0.0, 2022-05-17 11:04:47.503
126.0, 4901.089358459635, 16760.924966445564, -39231.71481272159, -23959.5054339773, -12083.285997305633, -2839.4985603688433, 254.67577632376867, -2496.108710301961, 0.006, 0.966, 0.366, 192.0, 0.0, 48.0, 30.0, 48.0, 11.0, 112.0, 0.0, 0.0, 0.0, 1.6527782875039647E9, 0.0, 2022-05-17 11:04:47.503
127.0, 4823.372342988532, 16739.288477812825, -39159.49632638649, -23888.359831376056, -12035.050932771079, -2793.901001680017, 326.2684138141172, -2638.37756375999, 0.006, 0.966, 0.366, 192.0, 0.0, 0.0, 0.0, 0.0, 0.0, 0.0, 0.0, 0.0, 0.0, 1.6527782875039728E9, 0.0, 2022-05-17 11:04:47.503
128.0, 4848.026317122736, 16807.148373979137, -39109.69663974007, -23832.86044989353, -11982.233760623189, -2724.1412072350035, 380.6055045849687, -2558.4477255878123, 0.006, 0.966, 0.366, 192.0, 0.0, 0.0, 0.0, 0.0, 0.0, 0.0, 0.0, 0.0, 0.0, 1.6527782875040088E9, 0.0, 2022-05-17 11:04:47.504
129.0, 4945.457571203419, 16879.18804635859, -39145.16885819064, -23869.047924166673, -11996.874153241415, -2719.1791199659256, 344.4850855451925, -2371.8777146193643, 0.006, 0.966, 0.366, 192.0, 0.0, 0.0, 0.0, 0.0, 0.0, 0.0, 0.0, 0.0, 0.0, 1.6527782875040157E9, 0.0, 2022-05-17 11:04:47.504
130.0, 4976.057109362735, 16850.019019844418, -39217.6555654592, -23939.098291289603, -12056.24038651471, -2786.0778911206594, 269.42792766427135, -2347.760182352088, 0.006, 0.966, 0.366, 192.0, 0.0, 0.0, 0.0, 0.0, 0.0, 0.0, 0.0, 0.0, 0.0, 1.6527782875040228E9, 0.0, 2022-05-17 11:04:47.504
131.0, 4912.891079532037, 16771.139713661636, -39222.640004472734, -23953.001076340806, -12075.440535001819, -2836.1905021894577, 248.0820117094531, -2523.489597259712, 0.006, 0.966, 0.366, 192.0, 0.0, 0.0, 0.0, 0.0, 0.0, 0.0, 0.0, 0.0, 0.0, 1.65277828750403E9, 0.0, 2022-05-17 11:04:47.504
132.0, 4824.244061022289, 16736.293344055815, -39163.13966073271, -23896.58527333561, -12032.994572281192, -2811.0447896772375, 332.951585406254, -2658.4047267919454, 0.006, 0.966, 0.366, 192.0, 0.0, 0.0, 0.0, 0.0, 0.0, 0.0, 0.0, 0.0, 0.0, 1.6527782875040367E9, 0.0, 2022-05-17 11:04:47.504
133.0, 4859.224541094844, 16815.195001983047, -39104.68984898208, -23817.214228774814, -11972.533103529586, -2703.5552505916658, 422.73854288322246, -2539.7616672231757, 0.006, 0.966, 0.366, 192.0, 0.0, 0.0, 0.0, 0.0, 0.0, 0.0, 0.0, 0.0, 0.0, 1.652778287504043E9, 0.0, 2022-05-17 11:04:47.504
134.0, 4961.595530700151, 16883.501933038468, -39141.88315175571, -23846.495014011267, -11989.699243271261, -2690.457128340856, 372.24595215868385, -2326.9060047752864, 0.006, 0.966, 0.366, 192.0, 0.0, 0.0, 0.0, 0.0, 0.0, 0.0, 0.0, 0.0, 0.0, 1.6527782875040493E9, 0.0, 2022-05-17 11:04:47.504
135.0, 4986.495374023363, 16858.356220526246, -39211.19591131162, -23930.49286967431, -12052.820569613048, -2773.806783414696, 295.11008204341914, -2300.4191875957476, 0.006, 0.966, 0.366, 192.0, 0.0, 0.0, 0.0, 0.0, 0.0, 0.0, 0.0, 0.0, 0.0, 1.6527782875040555E9, 0.0, 2022-05-17 11:04:47.504
136.0, 4909.471262630375, 16767.071696170773, -39220.896568405224, -23955.12449206406, -12078.078040847546, -2832.189539931958, 263.2588461946066, -2482.720015373232, 0.004, 0.964, 0.372, 192.0, 0.0, 32.0, 30.0, 32.0, 11.0, 160.0, 0.0, 0.0, 0.0, 1.6527782875040617E9, 0.0, 2022-05-17 11:04:47.504
137.0, 4831.2401570368, 16743.93764065953, -39147.02405298043, -23880.804941750164, -12025.260868699655, -2785.899077165017, 314.39963750834914, -2647.4076685199343, 0.004, 0.964, 0.372, 192.0, 0.0, 0.0, 0.0, 0.0, 0.0, 0.0, 0.0, 0.0, 0.0, 1.6527782875040684E9, 0.0, 2022-05-17 11:04:47.504
138.0, 4851.6472997244955, 16807.32718793478, -39101.426494291605, -23833.62040920501, -11973.762449474627, -2707.1762331934256, 366.65801604485705, -2559.9676442107734, 0.004, 0.964, 0.372, 192.0, 0.0, 0.0, 0.0, 0.0, 0.0, 0.0, 0.0, 0.0, 0.0, 1.6527782875040743E9, 0.0, 2022-05-17 11:04:47.504
139.0, 4953.213626529411, 16873.24248233348, -39133.165971418144, -23855.838043193584, -11983.37369959041, -2702.214145924347, 360.176010152818, -2360.791249369532, 0.004, 0.964, 0.372, 192.0, 0.0, 0.0, 0.0, 0.0, 0.0, 0.0, 0.0, 0.0, 0.0, 1.6527782875040805E9, 0.0, 2022-05-17 11:04:47.504
140.0, 4984.550772255751, 16853.170615812614, -39206.12206532026, -23933.040968542216, -12045.399790453886, -2780.2440858178243, 287.4657854397041, -2348.877769574853, 0.004, 0.964, 0.372, 192.0, 0.0, 0.0, 0.0, 0.0, 0.0, 0.0, 0.0, 0.0, 0.0, 1.6527782875040872E9, 0.0, 2022-05-17 11:04:47.504
141.0, 4903.168070693979, 16759.4050478226, -39237.43685930215, -23969.139035837536, -12084.671805461861, -2838.1127522126144, 252.15002920031898, -2505.6529051843772, 0.004, 0.964, 0.372, 192.0, 0.0, 0.0, 0.0, 0.0, 0.0, 0.0, 0.0, 0.0, 0.0, 1.6527782875040965E9, 0.0, 2022-05-17 11:04:47.504
142.0, 4828.848520380083, 16737.321524300758, -39161.57503862084, -23895.06535471265, -12033.821586826038, -2786.212001587391, 329.9788033936982, -2643.2725957957027, 0.004, 0.964, 0.372, 192.0, 0.0, 0.0, 0.0, 0.0, 0.0, 0.0, 0.0, 0.0, 0.0, 1.6527782875041049E9, 0.0, 2022-05-17 11:04:47.504
143.0, 4862.443192296409, 16810.70230134753, -39103.527558270405, -23838.046054607163, -11974.410650063832, -2701.0295034682163, 385.7911092985999, -2550.691670261821, 0.004, 0.964, 0.372, 192.0, 0.0, 0.0, 0.0, 0.0, 0.0, 0.0, 0.0, 0.0, 0.0, 1.6527782875041115E9, 0.0, 2022-05-17 11:04:47.504
144.0, 4959.807391143727, 16879.81389520334, -39138.21746566504, -23860.308392084647, -11987.642882781372, -2692.3123231306463, 366.143925922385, -2368.703766906711, 0.004, 0.964, 0.372, 192.0, 0.0, 0.0, 0.0, 0.0, 0.0, 0.0, 0.0, 0.0, 0.0, 1.6527782875041196E9, 0.0, 2022-05-17 11:04:47.504
145.0, 5000.241696863377, 16865.844054918773, -39204.266870530475, -23930.6493318855, -12043.76811310865, -2753.5337511937323, 290.2150500077069, -2333.924452534253, 0.004, 0.964, 0.372, 192.0, 0.0, 0.0, 0.0, 0.0, 0.0, 0.0, 0.0, 0.0, 0.0, 1.65277828750413E9, 0.0, 2022-05-17 11:04:47.504
146.0, 4930.727771607372, 16772.480818328957, -39225.791600440934, -23959.326620021657, -12078.14509608091, -2814.799882745729, 257.08976472494186, -2486.609218908455, 0.006, 0.962, 0.372, 192.0, 0.0, 48.0, 30.0, 16.0, 11.0, 160.0, 0.0, 0.0, 0.0, 1.6527782875041492E9, 0.0, 2022-05-17 11:04:47.504
147.0, 4844.7182589433505, 16730.750111430898, -39164.43606191112, -23900.139200704005, -12043.924575319836, -2786.569629498676, 315.74074217566755, -2635.6953544253533, 0.006, 0.962, 0.372, 192.0, 0.0, 0.0, 0.0, 0.0, 0.0, 0.0, 0.0, 0.0, 0.0, 1.65277828750416E9, 0.0, 2022-05-17 11:04:47.504
148.0, 4871.093317400613, 16798.5653041083, -39102.901709425656, -23841.532926742188, -11984.983025191192, -2705.2763349147244, 390.44027214530377, -2538.3088038335804, 0.006, 0.962, 0.372, 192.0, 0.0, 0.0, 0.0, 0.0, 0.0, 0.0, 0.0, 0.0, 0.0, 1.6527782875041716E9, 0.0, 2022-05-17 11:04:47.504
149.0, 4968.435164503475, 16874.762400956442, -39136.65284355317, -23875.35111610307, -11995.734214274195, -2694.2122214093474, 366.2109811557509, -2352.074069031962, 0.006, 0.962, 0.372, 192.0, 0.0, 0.0, 0.0, 0.0, 0.0, 0.0, 0.0, 0.0, 0.0, 1.6527782875041797E9, 0.0, 2022-05-17 11:04:47.504
150.0, 5020.961763973447, 16869.599147987265, -39189.22414651205, -23926.961294050372, -12035.989706038203, -2748.2363877578246, 319.16055907732954, -2325.341382663415, 0.006, 0.962, 0.372, 192.0, 0.0, 0.0, 0.0, 0.0, 0.0, 0.0, 0.0, 0.0, 0.0, 1.6527782875042012E9, 0.0, 2022-05-17 11:04:47.504
151.0, 4950.5537689392295, 16776.101800930715, -39217.52145499247, -23961.114759578082, -12069.919654121359, -2815.515138568299, 278.99447429114275, -2497.8074428805644, 0.006, 0.962, 0.372, 192.0, 0.0, 0.0, 0.0, 0.0, 0.0, 0.0, 0.0, 0.0, 0.0, 1.6527782875042121E9, 0.0, 2022-05-17 11:04:47.504
152.0, 4867.897017943504, 16740.853099924698, -39159.54102987541, -23901.972043749338, -12035.453264171276, -2777.1818968274474, 293.85838435392196, -2654.515523256722, 0.006, 0.962, 0.372, 192.0, 0.0, 0.0, 0.0, 0.0, 0.0, 0.0, 0.0, 0.0, 0.0, 1.652778287504228E9, 0.0, 2022-05-17 11:04:47.504
153.0, 4898.92123924747, 16804.242647199946, -39106.96972691652, -23839.297752296658, -11980.93735944478, -2693.072282442127, 331.94575690576517, -2568.550714081611, 0.006, 0.962, 0.372, 192.0, 0.0, 0.0, 0.0, 0.0, 0.0, 0.0, 0.0, 0.0, 0.0, 1.6527782875042367E9, 0.0, 2022-05-17 11:04:47.504
154.0, 4991.546868270262, 16880.283281836902, -39130.50611382796, -23860.688371740387, -11980.266807111122, -2672.57573277661, 378.99617898418654, -2352.3199382209705, 0.006, 0.962, 0.372, 192.0, 0.0, 0.0, 0.0, 0.0, 0.0, 0.0, 0.0, 0.0, 0.0, 1.6527782875042489E9, 0.0, 2022-05-17 11:04:47.504
155.0, 5020.917060484536, 16860.032601360395, -39203.41750424117, -23944.39565472551, -12037.777845594626, -2746.738820879319, 351.43647807079293, -2338.9312432922416, 0.006, 0.962, 0.372, 192.0, 0.0, 0.0, 0.0, 0.0, 0.0, 0.0, 0.0, 0.0, 0.0, 1.65277828750426E9, 0.0, 2022-05-17 11:04:47.504
156.0, 4947.804504371226, 16772.190245651036, -39228.89849292022, -23963.841672401628, -12069.62908144344, -2809.904850710017, 315.2266520531955, -2505.451739484279, 0.01, 0.9540000000000001, 0.37, 192.0, 0.0, 80.0, 29.0, 208.0, 11.0, 144.0, 0.0, 0.0, 0.0, 1.652778287504273E9, 0.0, 2022-05-17 11:04:47.504
157.0, 4869.282826099733, 16741.702466214, -39159.49632638649, -23887.376354620024, -12026.445511155785, -2764.776678654752, 357.11382116244096, -2625.1900345313593, 0.01, 0.9540000000000001, 0.37, 192.0, 0.0, 0.0, 0.0, 0.0, 0.0, 0.0, 0.0, 0.0, 0.0, 1.6527782875042877E9, 0.0, 2022-05-17 11:04:47.504
158.0, 4893.7356345338385, 16803.102708232727, -39112.91529094163, -23836.28026679519, -11984.603045535452, -2690.904163229962, 373.4752981037257, -2544.567292281067, 0.01, 0.9540000000000001, 0.37, 192.0, 0.0, 0.0, 0.0, 0.0, 0.0, 0.0, 0.0, 0.0, 0.0, 1.6527782875042992E9, 0.0, 2022-05-17 11:04:47.504
159.0, 5000.219345118921, 16876.14820911267, -39148.208695436566, -23867.460950310346, -11998.841106753482, -2686.0091311942497, 322.06628585651947, -2358.4890196906354, 0.01, 0.9540000000000001, 0.37, 192.0, 0.0, 0.0, 0.0, 0.0, 0.0, 0.0, 0.0, 0.0, 0.0, 1.652778287504312E9, 0.0, 2022-05-17 11:04:47.504
160.0, 5038.373772904131, 16849.035543088383, -39224.71871670708, -23948.016637327273, -12057.20151152629, -2760.9768820973495, 280.5367446585589, -2341.054659015496, 0.01, 0.9540000000000001, 0.37, 192.0, 0.0, 0.0, 0.0, 0.0, 0.0, 0.0, 0.0, 0.0, 0.0, 1.6527782875043204E9, 0.0, 2022-05-17 11:04:47.504
161.0, 4988.350568813154, 16774.403068352112, -39226.81978068588, -23958.678419432454, -12069.517322721164, -2810.798920488229, 304.07313156999726, -2498.7909196365977, 0.01, 0.9540000000000001, 0.37, 192.0, 0.0, 0.0, 0.0, 0.0, 0.0, 0.0, 0.0, 0.0, 0.0, 1.6527782875043297E9, 0.0, 2022-05-17 11:04:47.504
162.0, 4914.433349899453, 16749.570280262265, -39159.116346730756, -23890.684412799408, -12027.563098378552, -2784.3791585420563, 352.241140871184, -2669.267674597225, 0.01, 0.9540000000000001, 0.37, 192.0, 0.0, 0.0, 0.0, 0.0, 0.0, 0.0, 0.0, 0.0, 0.0, 1.6527782875043447E9, 0.0, 2022-05-17 11:04:47.504
163.0, 4933.5887948976515, 16810.858763558717, -39106.00860190494, -23839.99065637477, -11973.360118074432, -2707.8244337826295, 399.1574524828735, -2615.869357093496, 0.01, 0.9540000000000001, 0.37, 192.0, 0.0, 0.0, 0.0, 0.0, 0.0, 0.0, 0.0, 0.0, 0.0, 1.6527782875043533E9, 0.0, 2022-05-17 11:04:47.504
164.0, 5028.807226277259, 16883.636043505197, -39133.70241328507, -23861.515386285235, -11979.126868143901, -2686.5902765500878, 377.67742606132344, -2402.1866801007604, 0.01, 0.9540000000000001, 0.37, 192.0, 0.0, 0.0, 0.0, 0.0, 0.0, 0.0, 0.0, 0.0, 0.0, 1.652778287504361E9, 0.0, 2022-05-17 11:04:47.504
165.0, 5062.871284827147, 16867.140456097182, -39205.96560310908, -23936.661951143975, -12041.912918318858, -2751.5667976816653, 291.37734071938286, -2314.9031180027864, 0.01, 0.9540000000000001, 0.37, 192.0, 0.0, 0.0, 0.0, 0.0, 0.0, 0.0, 0.0, 0.0, 0.0, 1.652778287504368E9, 0.0, 2022-05-17 11:04:47.504
166.0, 4977.264103563321, 16768.189283393538, -39245.371728583785, -23962.142939823025, -12083.509514750185, -2826.9145282405057, 239.2530726496068, -2464.7715645756202, 0.008, 0.9560000000000001, 0.372, 192.0, 0.0, 64.0, 29.0, 224.0, 11.0, 160.0, 0.0, 0.0, 0.0, 1.652778287504374E9, 0.0, 2022-05-17 11:04:47.504
167.0, 4887.7453670198165, 16731.64418120911, -39183.83737609832, -23901.07797397113, -12046.517377676651, -2794.280981335757, 296.65235241083536, -2645.708935941331, 0.008, 0.9560000000000001, 0.372, 192.0, 0.0, 0.0, 0.0, 0.0, 0.0, 0.0, 0.0, 0.0, 0.0, 1.65277828750438E9, 0.0, 2022-05-17 11:04:47.504
168.0, 4900.687027059439, 16792.619740083188, -39121.498360812475, -23839.789490674673, -11989.319263615522, -2713.613535596554, 369.2284666572174, -2583.1464032109266, 0.008, 0.9560000000000001, 0.372, 192.0, 0.0, 0.0, 0.0, 0.0, 0.0, 0.0, 0.0, 0.0, 0.0, 1.6527782875043898E9, 0.0, 2022-05-17 11:04:47.504
169.0, 4998.542964284774, 16874.404773045157, -39138.977424976525, -23856.262726338235, -11985.720632758217, -2689.3395411180904, 367.8873619898989, -2383.1206420803837, 0.008, 0.9560000000000001, 0.372, 192.0, 0.0, 0.0, 0.0, 0.0, 0.0, 0.0, 0.0, 0.0, 0.0, 1.6527782875043976E9, 0.0, 2022-05-17 11:04:47.504
170.0, 5033.031705979312, 16857.126874581205, -39214.61572821328, -23939.321808734156, -12048.260813744166, -2760.127515808048, 298.4628437117152, -2352.5881591544344, 0.008, 0.9560000000000001, 0.372, 192.0, 0.0, 0.0, 0.0, 0.0, 0.0, 0.0, 0.0, 0.0, 0.0, 1.6527782875044043E9, 0.0, 2022-05-17 11:04:47.504
171.0, 4965.350623768642, 16766.468199070478, -39240.02966165896, -23965.205128813403, -12085.051785117601, -2822.2653653938014, 254.4522588792156, -2526.5070827611785, 0.008, 0.9560000000000001, 0.372, 192.0, 0.0, 0.0, 0.0, 0.0, 0.0, 0.0, 0.0, 0.0, 0.0, 1.6527782875044224E9, 0.0, 2022-05-17 11:04:47.504
172.0, 4884.996102451814, 16734.88518415513, -39170.918067803155, -23888.560997076154, -12039.47657817323, -2793.4986702798215, 321.73100968968987, -2656.3707180465126, 0.008, 0.9560000000000001, 0.372, 192.0, 0.0, 0.0, 0.0, 0.0, 0.0, 0.0, 0.0, 0.0, 0.0, 1.6527782875044286E9, 0.0, 2022-05-17 11:04:47.504
173.0, 4916.892041789537, 16806.746042578943, -39101.292383824875, -23822.221019532804, -11969.247397094656, -2707.4891576157997, 415.9436125688091, -2566.2261326582593, 0.008, 0.9560000000000001, 0.372, 192.0, 0.0, 0.0, 0.0, 0.0, 0.0, 0.0, 0.0, 0.0, 0.0, 1.652778287504436E9, 0.0, 2022-05-17 11:04:47.504
174.0, 5006.7237027554165, 16881.222055104026, -39135.62466330823, -23853.692275725876, -11980.959711189236, -2697.252058655269, 386.59577209899095, -2392.9554096407187, 0.008, 0.9560000000000001, 0.372, 192.0, 0.0, 0.0, 0.0, 0.0, 0.0, 0.0, 0.0, 0.0, 0.0, 1.6527782875044448E9, 0.0, 2022-05-17 11:04:47.504
175.0, 5045.772200318837, 16883.993671416483, -39206.12206532026, -23937.153689521994, -12048.305517233077, -2755.7242221503525, 296.92057334429904, -2365.75333663861, 0.008, 0.9560000000000001, 0.372, 192.0, 0.0, 0.0, 0.0, 0.0, 0.0, 0.0, 0.0, 0.0, 0.0, 1.6527782875044515E9, 0.0, 2022-05-17 11:04:47.504
176.0, 4983.857868177637, 16795.838391284753, -39234.66524298969, -23985.232291845357, -12086.996386885214, -2828.1438741855472, 258.5202763700815, -2506.3458092624915, 0.01, 0.9580000000000001, 0.37, 192.0, 0.0, 80.0, 29.0, 240.0, 11.0, 144.0, 0.0, 0.0, 0.0, 1.6527782875044584E9, 0.0, 2022-05-17 11:04:47.504
177.0, 4893.333303133643, 16744.898765671107, -39163.63139911072, -23908.141125219005, -12041.644697385394, -2799.511289538299, 305.23542228167327, -2661.779840204697, 0.01, 0.9580000000000001, 0.37, 192.0, 0.0, 0.0, 0.0, 0.0, 0.0, 0.0, 0.0, 0.0, 0.0, 1.6527782875044644E9, 0.0, 2022-05-17 11:04:47.504
178.0, 4902.810442782694, 16803.214466955003, -39099.884223924186, -23822.869220122007, -11981.384394333887, -2718.0168292542494, 368.6696730458347, -2587.4379381463455, 0.01, 0.9580000000000001, 0.37, 192.0, 0.0, 0.0, 0.0, 0.0, 0.0, 0.0, 0.0, 0.0, 0.0, 1.6527782875044723E9, 0.0, 2022-05-17 11:04:47.504
179.0, 5000.46521430793, 16886.13943888419, -39116.35745958775, -23839.81184241913, -11978.165743132324, -2683.5280875597105, 382.6842168193122, -2356.9020458343084, 0.01, 0.9580000000000001, 0.37, 192.0, 0.0, 0.0, 0.0, 0.0, 0.0, 0.0, 0.0, 0.0, 0.0, 1.6527782875044787E9, 0.0, 2022-05-17 11:04:47.504
180.0, 5026.8626245096475, 16852.6788774346, -39199.72946640605, -23926.894238817007, -12050.920671334348, -2749.1751610249476, 312.4550357407374, -2313.4949581021024, 0.01, 0.9580000000000001, 0.37, 192.0, 0.0, 0.0, 0.0, 0.0, 0.0, 0.0, 0.0, 0.0, 0.0, 1.6527782875044887E9, 0.0, 2022-05-17 11:04:47.504
181.0, 4969.440993003964, 16765.350611847713, -39219.19783582662, -23953.761035652285, -12081.497857749207, -2810.1283681545697, 265.0916892399418, -2468.4372506662908, 0.01, 0.9580000000000001, 0.37, 192.0, 0.0, 0.0, 0.0, 0.0, 0.0, 0.0, 0.0, 0.0, 0.0, 1.6527782875044963E9, 0.0, 2022-05-17 11:04:47.504
182.0, 4875.58601803613, 16718.88133512513, -39170.2475154695, -23904.87777052853, -12056.463903959264, -2796.583211014654, 295.0430268100532, -2632.3649445015126, 0.01, 0.9580000000000001, 0.37, 192.0, 0.0, 0.0, 0.0, 0.0, 0.0, 0.0, 0.0, 0.0, 0.0, 1.6527782875045063E9, 0.0, 2022-05-17 11:04:47.504
183.0, 4885.040805940725, 16783.388469623147, -39118.95026194456, -23841.465871508823, -12001.99270272168, -2718.4638641433557, 362.56764680953586, -2588.555525369111, 0.01, 0.9580000000000001, 0.37, 192.0, 0.0, 0.0, 0.0, 0.0, 0.0, 0.0, 0.0, 0.0, 0.0, 1.652778287504515E9, 0.0, 2022-05-17 11:04:47.504
184.0, 4978.26993206381, 16862.178368828103, -39140.83261976631, -23863.974078175317, -12010.687531314796, -2696.290933643691, 336.9078441748434, -2413.0943313949506, 0.01, 0.9580000000000001, 0.37, 192.0, 0.0, 0.0, 0.0, 0.0, 0.0, 0.0, 0.0, 0.0, 0.0, 1.652778287504523E9, 0.0, 2022-05-17 11:04:47.504
185.0, 5036.004487991869, 16868.392153786677, -39193.24746051401, -23926.11192776107, -12051.188892267812, -2748.6163674135646, 279.5756196469807, -2364.4122319712915, 0.01, 0.9580000000000001, 0.37, 192.0, 0.0, 0.0, 0.0, 0.0, 0.0, 0.0, 0.0, 0.0, 0.0, 1.6527782875045311E9, 0.0, 2022-05-17 11:04:47.504
186.0, 4965.015347601813, 16769.865664227684, -39222.48354226155, -23963.68521019044, -12083.554218239096, -2819.829025248173, 261.7389275716457, -2501.4507772267793, 0.012, 0.962, 0.37, 192.0, 0.0, 96.0, 30.0, 16.0, 11.0, 144.0, 0.0, 0.0, 0.0, 1.6527782875045407E9, 0.0, 2022-05-17 11:04:47.504
187.0, 4866.242988853811, 16718.657817680578, -39166.447718912095, -23907.96231126336, -12051.993555068202, -2802.484071550855, 334.29269007357243, -2659.611720992532, 0.012, 0.962, 0.37, 192.0, 0.0, 0.0, 0.0, 0.0, 0.0, 0.0, 0.0, 0.0, 0.0, 1.652778287504547E9, 0.0, 2022-05-17 11:04:47.504
188.0, 4883.386776851032, 16792.060946471804, -39099.21367159053, -23838.71660694082, -11986.65940602534, -2718.9332507769172, 415.9436125688091, -2591.9976940152283, 0.012, 0.962, 0.37, 192.0, 0.0, 0.0, 0.0, 0.0, 0.0, 0.0, 0.0, 0.0, 0.0, 1.6527782875045533E9, 0.0, 2022-05-17 11:04:47.504
189.0, 4980.259237320332, 16874.71769746753, -39116.75979098795, -23848.551374501156, -11990.459202582742, -2697.0732446996267, 404.90185080788746, -2388.574467727479, 0.012, 0.962, 0.37, 192.0, 0.0, 0.0, 0.0, 0.0, 0.0, 0.0, 0.0, 0.0, 0.0, 1.6527782875045652E9, 0.0, 2022-05-17 11:04:47.504
190.0, 5017.921926727525, 16854.75758966894, -39196.354352993294, -23935.276142987746, -12054.094619047, -2769.0682135901707, 319.7193526887122, -2350.2635777310825, 0.012, 0.962, 0.37, 192.0, 0.0, 0.0, 0.0, 0.0, 0.0, 0.0, 0.0, 0.0, 0.0, 1.6527782875045724E9, 0.0, 2022-05-17 11:04:47.504
191.0, 4949.6149956721065, 16754.487664042434, -39240.14142038124, -23994.620024516586, -12102.508497537196, -2851.5014471413433, 253.73700305664576, -2533.749047964698, 0.012, 0.962, 0.37, 192.0, 0.0, 0.0, 0.0, 0.0, 0.0, 0.0, 0.0, 0.0, 0.0, 1.6527782875045836E9, 0.0, 2022-05-17 11:04:47.504
192.0, 4857.39169804951, 16720.088329325717, -39172.728559104035, -23917.908837545972, -12063.81762788506, -2815.3586763571116, 298.86517511191073, -2689.7195207738305, 0.012, 0.962, 0.37, 192.0, 0.0, 0.0, 0.0, 0.0, 0.0, 0.0, 0.0, 0.0, 0.0, 1.652778287504606E9, 0.0, 2022-05-17 11:04:47.504
193.0, 4884.392605351521, 16796.240722684946, -39094.095122110266, -23821.259894521227, -11994.773089262617, -2715.781654808719, 363.9981584546755, -2582.609961343999, 0.012, 0.962, 0.37, 192.0, 0.0, 0.0, 0.0, 0.0, 0.0, 0.0, 0.0, 0.0, 0.0, 1.652778287504613E9, 0.0, 2022-05-17 11:04:47.504
194.0, 4968.569274970207, 16861.798389172363, -39131.04255569489, -23852.664095480934, -12008.497060358175, -2702.415311624445, 325.2849370580837, -2379.812583900998, 0.012, 0.962, 0.37, 192.0, 0.0, 0.0, 0.0, 0.0, 0.0, 0.0, 0.0, 0.0, 0.0, 1.652778287504622E9, 0.0, 2022-05-17 11:04:47.504
195.0, 5022.347572129675, 16862.53599673939, -39193.38157098074, -23928.034177784226, -12053.446418457797, -2768.4423647454223, 294.6406954098577, -2337.9254147917527, 0.008, 0.97, 0.366, 192.0, 0.0, 64.0, 30.0, 80.0, 11.0, 112.0, 0.0, 0.0, 0.0, 1.6527782875046327E9, 0.0, 2022-05-17 11:04:47.504
196.0, 4963.093097578657, 16775.945338719528, -39211.55353922291, -23966.568585225177, -12084.381232783942, -2838.537435357265, 293.2548872536287, -2504.825890639531, 0.008, 0.97, 0.366, 192.0, 0.0, 0.0, 0.0, 0.0, 0.0, 0.0, 0.0, 0.0, 0.0, 1.6527782875046468E9, 0.0, 2022-05-17 11:04:47.504
197.0, 4857.726974216339, 16716.802622890787, -39166.53712588992, -23925.50843066078, -12060.040183072113, -2820.5889845596535, 335.65614648534614, -2680.1753258914146, 0.008, 0.97, 0.366, 192.0, 0.0, 0.0, 0.0, 0.0, 0.0, 0.0, 0.0, 0.0, 0.0, 1.6527782875046575E9, 0.0, 2022-05-17 11:04:47.504
198.0, 4870.512172044775, 16786.51771384689, -39101.22532859151, -23848.886650667984, -12001.702130043761, -2728.3433351926014, 376.98452198320894, -2636.298851525647, 0.008, 0.97, 0.366, 192.0, 0.0, 0.0, 0.0, 0.0, 0.0, 0.0, 0.0, 0.0, 0.0, 1.6527782875046716E9, 0.0, 2022-05-17 11:04:47.504
199.0, 4977.062937863224, 16884.261892349947, -39107.79674146137, -23842.4269965204, -11990.79447874957, -2698.324942389124, 362.18766715379564, -2427.555910057534, 0.008, 0.97, 0.366, 192.0, 0.0, 0.0, 0.0, 0.0, 0.0, 0.0, 0.0, 0.0, 0.0, 1.6527782875046785E9, 0.0, 2022-05-17 11:04:47.504
200.0, 5027.264955909844, 16883.30076733837, -39177.824756839844, -23918.266465457258, -12048.841959100004, -2762.2285797868467, 278.5697911464919, -2348.877769574853, 0.008, 0.97, 0.366, 192.0, 0.0, 0.0, 0.0, 0.0, 0.0, 0.0, 0.0, 0.0, 0.0, 1.6527782875046878E9, 0.0, 2022-05-17 11:04:47.504
201.0, 4967.094059836157, 16795.413708140102, -39218.28141430395, -23957.73964616533, -12088.24808457471, -2833.9106242550165, 240.30360463900624, -2475.008663536151, 0.008, 0.97, 0.366, 192.0, 0.0, 0.0, 0.0, 0.0, 0.0, 0.0, 0.0, 0.0, 0.0, 1.6527782875046997E9, 0.0, 2022-05-17 11:04:47.504
202.0, 4881.084547172135, 16754.577071020256, -39159.116346730756, -23891.645537810986, -12050.741857378705, -2800.539469783243, 308.11879731640784, -2628.319278755102, 0.008, 0.97, 0.366, 192.0, 0.0, 0.0, 0.0, 0.0, 0.0, 0.0, 0.0, 0.0, 0.0, 1.6527782875047078E9, 0.0, 2022-05-17 11:04:47.504
203.0, 4893.10978568909, 16819.4194816851, -39086.69669469556, -23817.99653983075, -11988.738118259684, -2705.2986866591796, 370.6813300468123, -2568.0813274480497, 0.008, 0.97, 0.366, 192.0, 0.0, 0.0, 0.0, 0.0, 0.0, 0.0, 0.0, 0.0, 0.0, 1.652778287504714E9, 0.0, 2022-05-17 11:04:47.504
204.0, 4984.573124000207, 16897.427069834124, -39110.858930451745, -23847.679656467397, -11989.632188037896, -2694.1451661759816, 369.6755015463235, -2398.5433457545455, 0.008, 0.97, 0.366, 192.0, 0.0, 0.0, 0.0, 0.0, 0.0, 0.0, 0.0, 0.0, 0.0, 1.652778287504723E9, 0.0, 2022-05-17 11:04:47.504
205.0, 5021.90053724057, 16878.495142280477, -39191.59343142431, -23941.98166632434, -12052.887624846415, -2773.538562481232, 300.5415559460588, -2350.3082812199928, 0.008, 0.976, 0.366, 192.0, 0.0, 64.0, 30.0, 128.0, 11.0, 112.0, 0.0, 0.0, 0.0, 1.652778287504732E9, 0.0, 2022-05-17 11:04:47.504
206.0, 4961.260254533321, 16790.98806273795, -39226.95389115261, -23972.491797505834, -12096.96526491228, -2845.2876621827677, 250.9430349997324, -2489.0008555651734, 0.008, 0.976, 0.366, 192.0, 0.0, 0.0, 0.0, 0.0, 0.0, 0.0, 0.0, 0.0, 0.0, 1.652778287504739E9, 0.0, 2022-05-17 11:04:47.504
207.0, 4871.540352289719, 16741.21072783598, -39171.58862013681, -23914.35491017758, -12070.076116332546, -2820.387818859556, 283.08484352646394, -2650.8498371660517, 0.008, 0.976, 0.366, 192.0, 0.0, 0.0, 0.0, 0.0, 0.0, 0.0, 0.0, 0.0, 0.0, 1.652778287504745E9, 0.0, 2022-05-17 11:04:47.504
208.0, 4879.162297148979, 16798.98998725295, -39104.95806991554, -23855.100435626562, -12007.625342324418, -2734.2665474732576, 358.79020199658896, -2591.8859352929517, 0.008, 0.976, 0.366, 192.0, 0.0, 0.0, 0.0, 0.0, 0.0, 0.0, 0.0, 0.0, 0.0, 1.6527782875047567E9, 0.0, 2022-05-17 11:04:47.504
209.0, 4987.098871123657, 16894.521343054934, -39106.07565713831, -23835.22973480579, -11989.207504893244, -2685.830317238607, 385.90286802087644, -2395.5482119975345, 0.008, 0.976, 0.366, 192.0, 0.0, 0.0, 0.0, 0.0, 0.0, 0.0, 0.0, 0.0, 0.0, 1.65277828750477E9, 0.0, 2022-05-17 11:04:47.504
210.0, 5044.744020073894, 16900.57866580232, -39166.53712588992, -23896.227645424326, -12033.106331003468, -2734.378306195534, 339.83592269848856, -2323.7097053181774, 0.008, 0.976, 0.366, 192.0, 0.0, 0.0, 0.0, 0.0, 0.0, 0.0, 0.0, 0.0, 0.0, 1.6527782875047789E9, 0.0, 2022-05-17 11:04:47.504
211.0, 4983.500240266352, 16812.333978692768, -39202.791655396424, -23949.044817572216, -12071.998366355701, -2813.79405424524, 308.23055603868437, -2477.042672281584, 0.008, 0.976, 0.366, 192.0, 0.0, 0.0, 0.0, 0.0, 0.0, 0.0, 0.0, 0.0, 0.0, 1.65277828750479E9, 0.0, 2022-05-17 11:04:47.504
212.0, 4885.174916407456, 16757.907480944097, -39148.543971603394, -23902.73200306082, -12046.651488143383, -2798.6842749934526, 325.5755097360027, -2666.5407617736773, 0.008, 0.976, 0.366, 192.0, 0.0, 0.0, 0.0, 0.0, 0.0, 0.0, 0.0, 0.0, 0.0, 1.6527782875047977E9, 0.0, 2022-05-17 11:04:47.504
213.0, 4883.319721617666, 16805.5166966339, -39084.28270629438, -23839.275400552204, -11991.956769461247, -2732.6572218724755, 367.66384454534585, -2619.2221187617924, 0.008, 0.976, 0.366, 192.0, 0.0, 0.0, 0.0, 0.0, 0.0, 0.0, 0.0, 0.0, 0.0, 1.6527782875048103E9, 0.0, 2022-05-17 11:04:47.504
214.0, 4966.356452269131, 16876.57289225732, -39109.31666008433, -23866.142197387482, -11993.789612506584, -2710.4619396283556, 357.3149868625387, -2404.0195231460957, 0.008, 0.976, 0.366, 192.0, 0.0, 0.0, 0.0, 0.0, 0.0, 0.0, 0.0, 0.0, 0.0, 1.6527782875048406E9, 0.0, 2022-05-17 11:04:47.504
215.0, 5037.94908975948, 16888.66518600764, -39158.37873916373, -23927.274218472747, -12030.826453069027, -2751.4773907038443, 305.9730298486984, -2321.3627721503703, -0.006, 0.978, 0.376, 192.0, 255.0, 208.0, 30.0, 144.0, 11.0, 192.0, 0.0, 0.0, 0.0, 1.65277828750485E9, 0.0, 2022-05-17 11:04:47.504
216.0, 4998.878240451603, 16811.32815019228, -39178.16003300667, -23959.59484095512, -12061.20247378379, -2808.8096152317066, 273.7194625996903, -2462.4469831522683, -0.006, 0.978, 0.376, 192.0, 0.0, 0.0, 0.0, 0.0, 0.0, 0.0, 0.0, 0.0, 0.0, 1.6527782875048578E9, 0.0, 2022-05-17 11:04:47.504
217.0, 4915.349771422121, 16762.26607111288, -39119.57611078931, -23900.63093908202, -12024.992647766192, -2790.5482400117207, 376.5821905830134, -2636.8799968814847, -0.006, 0.978, 0.376, 192.0, 0.0, 0.0, 0.0, 0.0, 0.0, 0.0, 0.0, 0.0, 0.0, 1.652778287504871E9, 0.0, 2022-05-17 11:04:47.504
218.0, 4905.067968972679, 16816.625513628187, -39058.354682726225, -23830.692330681366, -11969.493266283664, -2707.9585442493612, 458.3448718005266, -2585.1804119563594, -0.006, 0.978, 0.376, 192.0, 0.0, 0.0, 0.0, 0.0, 0.0, 0.0, 0.0, 0.0, 0.0, 1.652778287504882E9, 0.0, 2022-05-17 11:04:47.504
219.0, 4990.161060114034, 16899.997520446483, -39077.376017257695, -23845.846813422064, -11969.292100583567, -2669.558247275144, 418.0670282920633, -2371.9671215971853, -0.006, 0.978, 0.376, 192.0, 0.0, 0.0, 0.0, 0.0, 0.0, 0.0, 0.0, 0.0, 0.0, 1.652778287504897E9, 0.0, 2022-05-17 11:04:47.504
220.0, 5031.668249567539, 16886.80999121785, -39161.485631643016, -23939.54532617871, -12035.363857193453, -2743.5872249111208, 315.0031346086424, -2314.79135928051, -0.006, 0.978, 0.376, 192.0, 0.0, 0.0, 0.0, 0.0, 0.0, 0.0, 0.0, 0.0, 0.0, 1.652778287504921E9, 0.0, 2022-05-17 11:04:47.504
221.0, 4990.943371169969, 16811.305798447826, -39186.67604764415, -23969.720181193374, -12057.559139437573, -2809.547222798732, 312.3879805073715, -2455.987329004685, -0.006, 0.978, 0.376, 192.0, 0.0, 0.0, 0.0, 0.0, 0.0, 0.0, 0.0, 0.0, 0.0, 1.6527782875049555E9, 0.0, 2022-05-17 11:04:47.504
222.0, 4891.165183921478, 16749.32441107326, -39142.821925022836, -23915.114869489058, -12036.079113016023, -2800.606525016609, 373.22942891471735, -2625.301793253636, -0.006, 0.978, 0.376, 192.0, 0.0, 0.0, 0.0, 0.0, 0.0, 0.0, 0.0, 0.0, 0.0, 1.6527782875049973E9, 0.0, 2022-05-17 11:04:47.504
223.0, 4887.29833213071, 16801.180458209572, -39079.9241161256, -23843.701045954353, -11977.606949520941, -2719.9614310218612, 444.8444181495212, -2582.811127044097, -0.006, 0.978, 0.376, 192.0, 0.0, 0.0, 0.0, 0.0, 0.0, 0.0, 0.0, 0.0, 0.0, 1.6527782875050287E9, 0.0, 2022-05-17 11:04:47.505
224.0, 4980.728623953894, 16886.273549350924, -39086.13790108418, -23846.852641922553, -11966.766353460116, -2685.897372471973, 436.7754384011553, -2390.0720346059843, -0.006, 0.978, 0.376, 192.0, 0.0, 0.0, 0.0, 0.0, 0.0, 0.0, 0.0, 0.0, 0.0, 1.652778287505086E9, 0.0, 2022-05-17 11:04:47.505
225.0, 5039.536063615807, 16886.787639473398, -39155.71888157355, -23924.726119604842, -12019.47176688573, -2750.9856523258272, 362.54529506508055, -2331.823388555454, -0.012, 0.93, 0.372, 192.0, 255.0, 160.0, 29.0, 16.0, 11.0, 160.0, 0.0, 0.0, 0.0, 1.652778287505104E9, 0.0, 2022-05-17 11:04:47.505
226.0, 4996.128975883601, 16805.024958255883, -39208.37959151025, -23984.02529764477, -12070.43374424383, -2845.1982552049467, 308.09644557195253, -2503.8647656279527, -0.012, 0.93, 0.372, 192.0, 0.0, 0.0, 0.0, 0.0, 0.0, 0.0, 0.0, 0.0, 0.0, 1.6527782875051444E9, 0.0, 2022-05-17 11:04:47.505
227.0, 4900.575268337163, 16752.61011750819, -39172.97442829304, -23942.383997724533, -12060.688383661316, -2841.957252258927, 332.370440050416, -2685.1821166494033, -0.012, 0.93, 0.372, 192.0, 0.0, 0.0, 0.0, 0.0, 0.0, 0.0, 0.0, 0.0, 0.0, 1.652778287505187E9, 0.0, 2022-05-17 11:04:47.505
228.0, 4894.339131634132, 16803.169763466092, -39083.58980221627, -23844.90804015494, -11987.50877231464, -2723.090675245604, 390.1944029562954, -2625.5253106981886, -0.012, 0.93, 0.372, 192.0, 0.0, 0.0, 0.0, 0.0, 0.0, 0.0, 0.0, 0.0, 0.0, 1.6527782875052335E9, 0.0, 2022-05-17 11:04:47.505
229.0, 4975.051280862246, 16877.422258546623, -39094.96684014402, -23849.847775679562, -11985.810039736038, -2678.4989450572666, 366.92623697832073, -2408.042837148051, -0.012, 0.93, 0.372, 192.0, 0.0, 0.0, 0.0, 0.0, 0.0, 0.0, 0.0, 0.0, 0.0, 1.6527782875052438E9, 0.0, 2022-05-17 11:04:47.505
230.0, 5026.147368687078, 16868.14628459767, -39167.498250901495, -23931.476346430343, -12040.013020040158, -2748.4599052023777, 333.7785999511004, -2296.373521849337, -0.012, 0.93, 0.372, 192.0, 0.0, 0.0, 0.0, 0.0, 0.0, 0.0, 0.0, 0.0, 0.0, 1.652778287505251E9, 0.0, 2022-05-17 11:04:47.505
231.0, 4950.710231150417, 16755.158216376094, -39222.48354226155, -24005.393565344046, -12102.843773704026, -2848.6180721066085, 299.28985825656156, -2446.7337068001875, -0.012, 0.93, 0.372, 192.0, 0.0, 0.0, 0.0, 0.0, 0.0, 0.0, 0.0, 0.0, 0.0, 1.6527782875052593E9, 0.0, 2022-05-17 11:04:47.505
232.0, 4851.066154368657, 16705.202067518483, -39174.0473120269, -23957.583183954142, -12081.877837404947, -2843.410115648522, 328.88356791538814, -2641.23858705027, -0.012, 0.93, 0.372, 192.0, 0.0, 0.0, 0.0, 0.0, 0.0, 0.0, 0.0, 0.0, 0.0, 1.6527782875052655E9, 0.0, 2022-05-17 11:04:47.505
233.0, 4849.635642723518, 16767.74224850443, -39096.822034933815, -23879.128560916015, -12013.861479027448, -2754.0478413162045, 374.4811266042145, -2623.4465984638455, -0.012, 0.93, 0.372, 192.0, 0.0, 0.0, 0.0, 0.0, 0.0, 0.0, 0.0, 0.0, 0.0, 1.6527782875052943E9, 0.0, 2022-05-17 11:04:47.505
234.0, 4947.156303782022, 16861.127836838703, -39087.43430226258, -23853.692275725876, -11989.341615359977, -2696.4250441104227, 358.09729791847445, -2416.8717762078973, -0.012, 0.93, 0.372, 192.0, 0.0, 0.0, 0.0, 0.0, 0.0, 0.0, 0.0, 0.0, 0.0, 1.6527782875053017E9, 0.0, 2022-05-17 11:04:47.505
235.0, 5009.115339412134, 16867.654546219652, -39152.813154794356, -23916.00893926727, -12035.00622928217, -2754.6513384164978, 330.53759700508084, -2308.8457952553986, -0.018000000000000002, 0.928, 0.374, 192.0, 255.0, 112.0, 29.0, 0.0, 11.0, 176.0, 0.0, 0.0, 0.0, 1.6527782875053332E9, 0.0, 2022-05-17 11:04:47.505
236.0, 4960.008556843824, 16782.42734461157, -39198.07543731635, -23975.866910918583, -12076.24519780221, -2845.08649648267, 325.15082659135186, -2440.6093288194334, -0.018000000000000002, 0.928, 0.374, 192.0, 0.0, 0.0, 0.0, 0.0, 0.0, 0.0, 0.0, 0.0, 0.0, 1.65277828750534E9, 0.0, 2022-05-17 11:04:47.505
237.0, 4871.696814500906, 16733.924059143552, -39144.140677945696, -23920.903971302985, -12049.467807944753, -2819.8513769926285, 361.047728186575, -2622.999563574739, -0.018000000000000002, 0.928, 0.374, 192.0, 0.0, 0.0, 0.0, 0.0, 0.0, 0.0, 0.0, 0.0, 0.0, 1.6527782875053463E9, 0.0, 2022-05-17 11:04:47.505
238.0, 4866.265340598266, 16792.03859472735, -39065.417833974105, -23836.369673773013, -11983.37369959041, -2718.3297536766236, 416.0106678021751, -2585.22511544527, -0.018000000000000002, 0.928, 0.374, 192.0, 0.0, 0.0, 0.0, 0.0, 0.0, 0.0, 0.0, 0.0, 0.0, 1.6527782875053532E9, 0.0, 2022-05-17 11:04:47.505
239.0, 4958.041603331757, 16885.804162717362, -39060.07576704929, -23826.467850979312, -11960.641975479362, -2663.9479594168615, 404.94655429679807, -2380.147860067828, -0.018000000000000002, 0.928, 0.374, 192.0, 0.0, 0.0, 0.0, 0.0, 0.0, 0.0, 0.0, 0.0, 0.0, 1.6527782875053592E9, 0.0, 2022-05-17 11:04:47.505
240.0, 5018.592479061184, 16890.185104630604, -39127.846256237775, -23899.982738492818, -12012.09569121548, -2719.9614310218612, 326.80485568104456, -2299.7709870065437, -0.018000000000000002, 0.928, 0.374, 192.0, 0.0, 0.0, 0.0, 0.0, 0.0, 0.0, 0.0, 0.0, 0.0, 1.6527782875053658E9, 0.0, 2022-05-17 11:04:47.505
241.0, 4950.397306728042, 16796.061908729305, -39178.51766091796, -23956.197375797914, -12059.034354571624, -2792.5822487571536, 305.6824571707794, -2431.914500226319, -0.018000000000000002, 0.928, 0.374, 192.0, 0.0, 0.0, 0.0, 0.0, 0.0, 0.0, 0.0, 0.0, 0.0, 1.6527782879842231E9, 0.0, 2022-05-17 11:04:47.984
242.0, 4884.705529773895, 16762.64605076862, -39132.65188129567, -23916.00893926727, -12026.646676855884, -2786.9943126433272, 351.48118155970354, -2598.7032173518205, -0.018000000000000002, 0.928, 0.374, 192.0, 0.0, 0.0, 0.0, 0.0, 0.0, 0.0, 0.0, 0.0, 0.0, 1.652778287984331E9, 0.0, 2022-05-17 11:04:47.984
243.0, 4879.609332038085, 16771.251472383916, -39131.02020395043, -23916.098346245093, -12020.879926786414, -2768.285902534235, 363.86404798794365, -2583.1464032109266, -0.018000000000000002, 0.928, 0.374, 192.0, 0.0, 0.0, 0.0, 0.0, 0.0, 0.0, 0.0, 0.0, 0.0, 1.6527782879843574E9, 0.0, 2022-05-17 11:04:47.984
244.0, 4924.893966304537, 16820.447661930044, -39154.914218773156, -23924.994340538306, -12042.047028785591, -2742.0449545437045, 344.9544721787539, -2434.552006072045, -0.018000000000000002, 0.928, 0.374, 192.0, 0.0, 0.0, 0.0, 0.0, 0.0, 0.0, 0.0, 0.0, 0.0, 1.652778287984369E9, 0.0, 2022-05-17 11:04:47.984
245.0, 4945.748143881338, 16853.125912323703, -39149.862724526254, -23922.088613759115, -12044.95275556478, -2746.4035447124893, 345.5132657901366, -2355.7397551226327, -0.02, 0.9380000000000001, 0.386, 192.0, 255.0, 96.0, 29.0, 80.0, 12.0, 16.0, 0.0, 0.0, 0.0, 1.6527782879843802E9, 0.0, 2022-05-17 11:04:47.984
246.0, 4908.890117274537, 16816.178478739082, -39133.00950920695, -23899.423944881433, -12028.680685601317, -2764.933140865939, 362.52294332062525, -2447.6724800673105, -0.02, 0.9380000000000001, 0.386, 192.0, 0.0, 0.0, 0.0, 0.0, 0.0, 0.0, 0.0, 0.0, 0.0, 1.6527782879843931E9, 0.0, 2022-05-17 11:04:47.984
247.0, 4873.663768012973, 16771.139713661636, -39110.61306126274, -23884.694145285386, -12010.016978981135, -2777.02543461626, 372.22360041422854, -2582.721720066276, -0.02, 0.9380000000000001, 0.386, 192.0, 0.0, 0.0, 0.0, 0.0, 0.0, 0.0, 0.0, 0.0, 0.0, 1.6527782879844048E9, 0.0, 2022-05-17 11:04:47.984
248.0, 4875.608369780585, 16770.245643883427, -39128.002718448966, -23897.613453580554, -12015.448452883775, -2771.191629313425, 364.0652136880414, -2569.042452459628, -0.02, 0.9380000000000001, 0.386, 192.0, 0.0, 0.0, 0.0, 0.0, 0.0, 0.0, 0.0, 0.0, 0.0, 1.6527782879844165E9, 0.0, 2022-05-17 11:04:47.984
249.0, 4918.836643557149, 16817.76545259541, -39156.858820540765, -23920.21106722487, -12039.81185434006, -2745.73299237883, 340.99821341016457, -2408.2216511036936, -0.02, 0.9380000000000001, 0.386, 192.0, 0.0, 0.0, 0.0, 0.0, 0.0, 0.0, 0.0, 0.0, 0.0, 1.652778287984428E9, 0.0, 2022-05-17 11:04:47.984
250.0, 4940.875463590081, 16851.136607067183, -39153.59546585029, -23915.20427646688, -12042.2928979746, -2744.5259981782438, 334.67266972931264, -2338.08187700294, -0.02, 0.9380000000000001, 0.386, 192.0, 0.0, 0.0, 0.0, 0.0, 0.0, 0.0, 0.0, 0.0, 0.0, 1.6527782879844368E9, 0.0, 2022-05-17 11:04:47.984
251.0, 4920.311858691199, 16828.494289933955, -39124.493494569484, -23890.460895354856, -12013.436795882797, -2747.5658354241655, 356.1973996397733, -2432.182721159783, -0.02, 0.9380000000000001, 0.386, 192.0, 0.0, 0.0, 0.0, 0.0, 0.0, 0.0, 0.0, 0.0, 0.0, 1.6527782879844477E9, 0.0, 2022-05-17 11:04:47.984
252.0, 4880.592808794118, 16785.154257435115, -39104.913366426634, -23872.49009281279, -11991.42032759432, -2742.4696376883553, 385.0311499871195, -2571.0764612050607, -0.02, 0.9380000000000001, 0.386, 192.0, 0.0, 0.0, 0.0, 0.0, 0.0, 0.0, 0.0, 0.0, 0.0, 1.6527782879844625E9, 0.0, 2022-05-17 11:04:47.984
253.0, 4879.922256460459, 16784.461353357, -39120.76075324545, -23885.051773196672, -12000.361025376444, -2740.7485533652966, 382.52775460812506, -2550.5128563061785, -0.02, 0.9380000000000001, 0.386, 192.0, 0.0, 0.0, 0.0, 0.0, 0.0, 0.0, 0.0, 0.0, 0.0, 1.6527782879844725E9, 0.0, 2022-05-17 11:04:47.984
254.0, 4924.6704488599835, 16827.868441089206, -39152.097898971784, -23909.07989848613, -12030.804101324571, -2744.6154051560648, 354.208094383251, -2407.2828778365706, -0.02, 0.9380000000000001, 0.386, 192.0, 0.0, 0.0, 0.0, 0.0, 0.0, 0.0, 0.0, 0.0, 0.0, 1.6527782879844837E9, 0.0, 2022-05-17 11:04:47.984
255.0, 4941.478960690375, 16859.80908391584, -39154.8918670287, -23909.281064186223, -12041.599993896485, -2733.439532928411, 348.7542687361561, -2329.4764553876466, -0.024, 0.9480000000000001, 0.398, 192.0, 255.0, 64.0, 29.0, 160.0, 12.0, 112.0, 0.0, 0.0, 0.0, 1.6527782879844952E9, 0.0, 2022-05-17 11:04:47.984
0.0, 4920.513024391297, 16840.698342406555, -39125.23110213651, -23890.907930243964, -12016.163708706345, -2724.320021190646, 368.46850734573695, -2404.6453719908445, -0.024, 0.9480000000000001, 0.398, 192.0, 0.0, 0.0, 0.0, 0.0, 0.0, 0.0, 0.0, 0.0, 0.0, 1.6527782879845755E9, 0.0, 2022-05-17 11:04:47.984
1.0, 4883.163259406479, 16793.871437772686, -39107.46146529454, -23871.64072652349, -11994.415461351331, -2726.06345725816, 386.7745860546334, -2546.3777835819465, -0.024, 0.9480000000000001, 0.398, 192.0, 0.0, 0.0, 0.0, 0.0, 0.0, 0.0, 0.0, 0.0, 0.0, 1.652778287984589E9, 0.0, 2022-05-17 11:04:47.984
2.0, 4882.045672183714, 16789.35638539271, -39129.00854694945, -23878.905043471463, -12005.054891712058, -2729.259756715269, 376.69394930528995, -2554.625577285955, -0.024, 0.9480000000000001, 0.398, 192.0, 0.0, 0.0, 0.0, 0.0, 0.0, 0.0, 0.0, 0.0, 0.0, 1.6527782879846022E9, 0.0, 2022-05-17 11:04:47.984
3.0, 4926.279774460766, 16841.659467418132, -39161.195058965095, -23908.92343627494, -12034.067456015046, -2732.2325387278247, 356.24210312868394, -2441.883378253386, -0.024, 0.9480000000000001, 0.398, 192.0, 0.0, 0.0, 0.0, 0.0, 0.0, 0.0, 0.0, 0.0, 0.0, 1.6527782879846113E9, 0.0, 2022-05-17 11:04:47.984
4.0, 4938.394419955543, 16866.04522061887, -39166.93945729011, -23911.225665953836, -12045.533900920618, -2734.4006579399893, 352.0176234266309, -2359.338385979937, -0.024, 0.9480000000000001, 0.398, 192.0, 0.0, 0.0, 0.0, 0.0, 0.0, 0.0, 0.0, 0.0, 0.0, 1.6527782879846191E9, 0.0, 2022-05-17 11:04:47.984
5.0, 4910.477091130864, 16827.823737600298, -39149.77331754843, -23891.645537810986, -12026.490214644697, -2737.574605652643, 367.8426585009883, -2423.733761755677, -0.024, 0.9480000000000001, 0.398, 192.0, 0.0, 0.0, 0.0, 0.0, 0.0, 0.0, 0.0, 0.0, 0.0, 1.652778287984628E9, 0.0, 2022-05-17 11:04:47.984
6.0, 4876.703605258895, 16779.767487021385, -39134.55177957437, -23868.623241022022, -12010.352255147965, -2739.608614398076, 386.0369784876083, -2545.6625277593766, -0.024, 0.9480000000000001, 0.398, 192.0, 0.0, 0.0, 0.0, 0.0, 0.0, 0.0, 0.0, 0.0, 0.0, 1.6527782879846368E9, 0.0, 2022-05-17 11:04:47.984
7.0, 4892.372178122066, 16788.529370847868, -39143.023090722934, -23872.82536897962, -12005.501926601164, -2746.2694342457576, 379.73378655121167, -2576.798507785619, -0.024, 0.9480000000000001, 0.398, 192.0, 0.0, 0.0, 0.0, 0.0, 0.0, 0.0, 0.0, 0.0, 0.0, 1.6527782879846454E9, 0.0, 2022-05-17 11:04:47.984
8.0, 4937.768571110794, 16844.744008152964, -39167.27473345694, -23888.560997076154, -12029.66416235735, -2741.3073469766796, 359.79603049707777, -2449.81824753502, -0.024, 0.9480000000000001, 0.398, 192.0, 0.0, 0.0, 0.0, 0.0, 0.0, 0.0, 0.0, 0.0, 0.0, 1.6527782879846582E9, 0.0, 2022-05-17 11:04:47.984
9.0, 4962.735469667372, 16886.027680161915, -39162.871439799244, -23871.372505590025, -12033.57571763703, -2724.0518002571825, 363.7075857767565, -2330.884615288331, -0.004, 0.918, 0.39, 192.0, 255.0, 224.0, 28.0, 176.0, 12.0, 48.0, 0.0, 0.0, 0.0, 1.65277828798467E9, 0.0, 2022-05-17 11:04:47.984
10.0, 4936.852149588126, 16852.90239487915, -39143.24660816749, -23860.084874640095, -12009.90522025886, -2755.5901116836208, 381.723091807734, -2424.3149071115145, -0.004, 0.918, 0.39, 192.0, 0.0, 0.0, 0.0, 0.0, 0.0, 0.0, 0.0, 0.0, 0.0, 1.6527782879846816E9, 0.0, 2022-05-17 11:04:47.984
11.0, 4915.930916777958, 16806.522525134387, -39123.55472130236, -23853.222889092314, -11996.315359630033, -2775.6843299489415, 387.1322139659183, -2564.169772168371, -0.004, 0.918, 0.39, 192.0, 0.0, 0.0, 0.0, 0.0, 0.0, 0.0, 0.0, 0.0, 0.0, 1.652778287984691E9, 0.0, 2022-05-17 11:04:47.984
12.0, 4923.910489548503, 16809.048272257838, -39151.11442221575, -23869.919642200428, -12018.66710408534, -2778.83592591714, 358.2537601296616, -2569.4671356042786, -0.004, 0.918, 0.39, 192.0, 0.0, 0.0, 0.0, 0.0, 0.0, 0.0, 0.0, 0.0, 0.0, 1.6527782879846992E9, 0.0, 2022-05-17 11:04:47.984
13.0, 4932.761780352805, 16830.438891701568, -39187.078379044346, -23886.102305186072, -12048.797255611093, -2755.7912773837184, 328.07890511499704, -2476.3721199479246, -0.004, 0.918, 0.39, 192.0, 0.0, 0.0, 0.0, 0.0, 0.0, 0.0, 0.0, 0.0, 0.0, 1.6527782879847107E9, 0.0, 2022-05-17 11:04:47.984
14.0, 4931.085399518657, 16840.72069415101, -39192.599259924806, -23881.54254931719, -12058.788485382616, -2724.4094281684675, 326.6707452143127, -2377.2197815441828, -0.004, 0.918, 0.39, 192.0, 0.0, 0.0, 0.0, 0.0, 0.0, 0.0, 0.0, 0.0, 0.0, 1.6527782879847205E9, 0.0, 2022-05-17 11:04:47.984
15.0, 4913.11459697659, 16812.959827537517, -39177.15420450619, -23877.25101438177, -12046.562081165563, -2745.6882888899195, 330.93992840527636, -2431.3780583593916, -0.004, 0.918, 0.39, 192.0, 0.0, 0.0, 0.0, 0.0, 0.0, 0.0, 0.0, 0.0, 0.0, 1.6527782879847312E9, 0.0, 2022-05-17 11:04:47.984
16.0, 4881.710396016883, 16764.098914158218, -39159.876306042235, -23867.639764265987, -12030.267659457644, -2762.4968007203106, 340.17119886531816, -2554.357356352491, -0.004, 0.918, 0.39, 192.0, 0.0, 0.0, 0.0, 0.0, 0.0, 0.0, 0.0, 0.0, 0.0, 1.6527782879847407E9, 0.0, 2022-05-17 11:04:47.984
17.0, 4877.307102359188, 16776.23591139745, -39156.76941356294, -23863.080008397104, -12020.790519808594, -2745.509474934277, 343.4569053002483, -2587.0803102350606, -0.004, 0.918, 0.39, 192.0, 0.0, 0.0, 0.0, 0.0, 0.0, 0.0, 0.0, 0.0, 0.0, 1.65277828798475E9, 0.0, 2022-05-17 11:04:47.984
18.0, 4905.693817817428, 16819.17361249609, -39184.75379762099, -23880.424962094425, -12044.997459053691, -2736.5687771521543, 314.42198925280445, -2482.429442695313, -0.004, 0.918, 0.39, 192.0, 0.0, 0.0, 0.0, 0.0, 0.0, 0.0, 0.0, 0.0, 0.0, 1.6527782879847617E9, 0.0, 2022-05-17 11:04:47.984
19.0, 4921.652963358518, 16839.13372029468, -39201.47290247356, -23896.205293679872, -12068.019755842657, -2737.708716119375, 288.8515935959332, -2365.75333663861, 0.016, 0.9460000000000001, 0.386, 192.0, 0.0, 128.0, 29.0, 144.0, 12.0, 16.0, 0.0, 0.0, 0.0, 1.6527782879847941E9, 0.0, 2022-05-17 11:04:47.984
20.0, 4900.441157870431, 16786.47301035798, -39216.38151602525, -23922.714462603864, -12082.593093227517, -2783.3956817860226, 259.9731397596764, -2408.9592586707186, 0.016, 0.9460000000000001, 0.386, 192.0, 0.0, 0.0, 0.0, 0.0, 0.0, 0.0, 0.0, 0.0, 0.0, 1.652778287984803E9, 0.0, 2022-05-17 11:04:47.984
21.0, 4851.066154368657, 16721.40708224858, -39213.6546032017, -23921.082785258626, -12079.508552492685, -2803.9369349404496, 255.65925307980217, -2575.6138653294884, 0.016, 0.9460000000000001, 0.386, 192.0, 0.0, 0.0, 0.0, 0.0, 0.0, 0.0, 0.0, 0.0, 0.0, 1.6527782879848144E9, 0.0, 2022-05-17 11:04:47.984
22.0, 4840.247910052289, 16737.83561442323, -39184.954963321085, -23886.88461624201, -12055.905110347881, -2765.3354722661343, 298.7981198785448, -2609.029723290172, 0.016, 0.9460000000000001, 0.386, 192.0, 0.0, 0.0, 0.0, 0.0, 0.0, 0.0, 0.0, 0.0, 0.0, 1.652778287984835E9, 0.0, 2022-05-17 11:04:47.984
23.0, 4880.190477393923, 16800.42049889809, -39188.28537324493, -23880.648479538977, -12061.269529017154, -2724.4764834018333, 312.9467741187542, -2475.2768844696147, 0.016, 0.9460000000000001, 0.386, 192.0, 0.0, 0.0, 0.0, 0.0, 0.0, 0.0, 0.0, 0.0, 0.0, 1.6527782879848473E9, 0.0, 2022-05-17 11:04:47.984
24.0, 4930.4819024183635, 16840.206604028535, -39200.75764665099, -23897.278177413726, -12063.974090096246, -2730.6455648714978, 283.46482318220416, -2383.8806013918643, 0.016, 0.9460000000000001, 0.386, 192.0, 0.0, 0.0, 0.0, 0.0, 0.0, 0.0, 0.0, 0.0, 0.0, 1.6527782879848592E9, 0.0, 2022-05-17 11:04:47.984
25.0, 4911.281753931255, 16802.7674320659, -39209.005440355, -23912.477363643335, -12063.191779040311, -2770.6551874464976, 232.6146045463806, -2456.613177849433, 0.016, 0.9460000000000001, 0.386, 192.0, 0.0, 0.0, 0.0, 0.0, 0.0, 0.0, 0.0, 0.0, 0.0, 1.65277828798488E9, 0.0, 2022-05-17 11:04:47.984
26.0, 4845.455866510376, 16728.13495732963, -39212.939347379135, -23911.046851998195, -12074.077078590046, -2821.706571782419, 224.3891625868276, -2615.645839648943, 0.016, 0.9460000000000001, 0.386, 192.0, 0.0, 0.0, 0.0, 0.0, 0.0, 0.0, 0.0, 0.0, 0.0, 1.6527782879848921E9, 0.0, 2022-05-17 11:04:47.984
27.0, 4827.507415712764, 16731.21949806446, -39193.09099830282, -23883.33068887361, -12055.703944647783, -2797.2984668372237, 251.70299431121282, -2652.749735444753, 0.016, 0.9460000000000001, 0.386, 192.0, 0.0, 0.0, 0.0, 0.0, 0.0, 0.0, 0.0, 0.0, 0.0, 1.6527782879849088E9, 0.0, 2022-05-17 11:04:47.984
28.0, 4864.745421975305, 16796.79951629633, -39191.59343142431, -23879.597947549577, -12041.823511341037, -2759.3675564965674, 270.47845965367077, -2503.9318208613186, 0.018000000000000002, 0.984, 0.384, 192.0, 0.0, 144.0, 30.0, 192.0, 12.0, 0.0, 0.0, 0.0, 0.0, 1.652778287984923E9, 0.0, 2022-05-17 11:04:47.984
29.0, 4917.2720214452775, 16843.782883141386, -39189.98410582353, -23885.722325530332, -12033.598069381485, -2754.025489571749, 362.58999855399117, -2386.1381275818503, 0.018000000000000002, 0.984, 0.384, 192.0, 0.0, 0.0, 0.0, 0.0, 0.0, 0.0, 0.0, 0.0, 0.0, 1.6527782879849362E9, 0.0, 2022-05-17 11:04:47.984
30.0, 4893.623875811562, 16781.98030972246, -39215.71096369159, -23922.35683469258, -12055.52513069214, -2807.7143797533968, 333.823303440011, -2452.9921952476734, 0.018000000000000002, 0.984, 0.384, 192.0, 0.0, 0.0, 0.0, 0.0, 0.0, 0.0, 0.0, 0.0, 0.0, 1.6527782879849496E9, 0.0, 2022-05-17 11:04:47.984
31.0, 4815.52688068472, 16704.240942506905, -39224.271681817976, -23931.006959796785, -12071.528979722141, -2828.568557330198, 301.65914316882413, -2616.3163919826025, 0.018000000000000002, 0.984, 0.384, 192.0, 0.0, 0.0, 0.0, 0.0, 0.0, 0.0, 0.0, 0.0, 0.0, 1.6527782879849586E9, 0.0, 2022-05-17 11:04:47.984
32.0, 4814.208127761856, 16728.26906779636, -39182.295105730904, -23884.24711039628, -12037.107293260968, -2777.3383590386343, 326.693096958768, -2644.90427314094, 0.018000000000000002, 0.984, 0.384, 192.0, 0.0, 0.0, 0.0, 0.0, 0.0, 0.0, 0.0, 0.0, 0.0, 1.6527782879849684E9, 0.0, 2022-05-17 11:04:47.984
33.0, 4867.829962710138, 16804.37675766668, -39171.85684107028, -23861.694200240876, -12016.09665347298, -2755.634815172531, 342.1605041218405, -2503.5741929500336, 0.018000000000000002, 0.984, 0.384, 192.0, 0.0, 0.0, 0.0, 0.0, 0.0, 0.0, 0.0, 0.0, 0.0, 1.652778287984978E9, 0.0, 2022-05-17 11:04:47.984
34.0, 4916.534413878252, 16841.39124648467, -39192.599259924806, -23885.163531918948, -12031.832281569516, -2775.3267020376566, 322.71448644572337, -2418.659915764322, 0.018000000000000002, 0.984, 0.384, 192.0, 0.0, 0.0, 0.0, 0.0, 0.0, 0.0, 0.0, 0.0, 0.0, 1.6527782879849887E9, 0.0, 2022-05-17 11:04:47.984
35.0, 4905.671466072973, 16789.37873713717, -39222.57294923937, -23923.854401571083, -12055.391020225408, -2828.1438741855472, 284.6047621494248, -2495.773434135131, 0.018000000000000002, 0.984, 0.384, 192.0, 0.0, 0.0, 0.0, 0.0, 0.0, 0.0, 0.0, 0.0, 0.0, 1.6527782879849987E9, 0.0, 2022-05-17 11:04:47.984
36.0, 4838.7279914293285, 16713.651026922587, -39223.66818471768, -23930.425814440947, -12068.556197709584, -2863.1690577470135, 266.61160786290264, -2631.716743912309, 0.018000000000000002, 0.984, 0.384, 192.0, 0.0, 0.0, 0.0, 0.0, 0.0, 0.0, 0.0, 0.0, 0.0, 1.6527782879850092E9, 0.0, 2022-05-17 11:04:47.985
37.0, 4815.258659751255, 16721.205916548482, -39185.33494297683, -23890.59500582159, -12048.126703277434, -2814.5540135567207, 292.33846573096105, -2639.293985282658, 0.018000000000000002, 0.984, 0.384, 192.0, 0.0, 0.0, 0.0, 0.0, 0.0, 0.0, 0.0, 0.0, 0.0, 1.6527782879850185E9, 0.0, 2022-05-17 11:04:47.985
38.0, 4864.052517897191, 16801.314568676302, -39167.72176834605, -23856.776816460708, -12028.52422339013, -2730.0867712601153, 326.5589864920362, -2470.7618320896427, 0.01, 0.968, 0.37, 192.0, 0.0, 80.0, 30.0, 64.0, 11.0, 144.0, 0.0, 0.0, 0.0, 1.6527782879850295E9, 0.0, 2022-05-17 11:04:47.985
39.0, 4919.2613267018, 16843.46995871901, -39190.0511610569, -23882.257805139758, -12043.566947408552, -2732.1431317500037, 317.21595730971785, -2355.6056446559005, 0.01, 0.968, 0.37, 192.0, 0.0, 0.0, 0.0, 0.0, 0.0, 0.0, 0.0, 0.0, 0.0, 1.652778287985041E9, 0.0, 2022-05-17 11:04:47.985
40.0, 4907.772530051771, 16778.627548054166, -39223.93640565114, -23931.945733063905, -12077.742764680715, -2812.631763533564, 272.6689306102909, -2465.1962477202715, 0.01, 0.968, 0.37, 192.0, 0.0, 0.0, 0.0, 0.0, 0.0, 0.0, 0.0, 0.0, 0.0, 1.6527782879850585E9, 0.0, 2022-05-17 11:04:47.985
41.0, 4853.077811369635, 16718.07667232474, -39200.824701884354, -23914.891352044506, -12070.187875054822, -2831.0496009647372, 276.66989286779085, -2658.896465169962, 0.01, 0.968, 0.37, 192.0, 0.0, 0.0, 0.0, 0.0, 0.0, 0.0, 0.0, 0.0, 0.0, 1.652778287985072E9, 0.0, 2022-05-17 11:04:47.985
42.0, 4837.208072806367, 16741.233079580437, -39149.8403727818, -23862.610621763542, -12036.392037438398, -2784.803841686707, 316.12072183140776, -2664.618511750521, 0.01, 0.968, 0.37, 192.0, 0.0, 0.0, 0.0, 0.0, 0.0, 0.0, 0.0, 0.0, 0.0, 1.6527782879850852E9, 0.0, 2022-05-17 11:04:47.985
43.0, 4878.894076215515, 16804.063833244305, -39149.88507627071, -23862.275345596714, -12039.029543284125, -2743.386059211023, 303.69315191425704, -2479.076681027017, 0.01, 0.968, 0.37, 192.0, 0.0, 0.0, 0.0, 0.0, 0.0, 0.0, 0.0, 0.0, 0.0, 1.6527782879851084E9, 0.0, 2022-05-17 11:04:47.985
44.0, 4923.977544781869, 16834.216336514513, -39177.780053350936, -23896.227645424326, -12064.264662774165, -2754.2043035273914, 267.90800904131044, -2355.985624311641, 0.01, 0.968, 0.37, 192.0, 0.0, 0.0, 0.0, 0.0, 0.0, 0.0, 0.0, 0.0, 0.0, 1.6527782879851208E9, 0.0, 2022-05-17 11:04:47.985
45.0, 4906.118500962079, 16779.02987945436, -39210.30184153341, -23941.378169224045, -12090.974997398258, -2817.705609524919, 237.21906390417385, -2450.466448124224, 0.01, 0.968, 0.37, 192.0, 0.0, 0.0, 0.0, 0.0, 0.0, 0.0, 0.0, 0.0, 0.0, 1.652778287985134E9, 0.0, 2022-05-17 11:04:47.985
46.0, 4843.421857764943, 16712.01934957735, -39207.1055420763, -23941.624038413054, -12095.11007012249, -2847.1428569725585, 233.8663022358778, -2633.8625113800185, 0.01, 0.968, 0.37, 192.0, 0.0, 0.0, 0.0, 0.0, 0.0, 0.0, 0.0, 0.0, 0.0, 1.6527782879851463E9, 0.0, 2022-05-17 11:04:47.985
47.0, 4830.346087258588, 16739.914326657574, -39155.33890191781, -23890.48324709931, -12051.09948528999, -2785.1167661090813, 299.60278267893585, -2637.8858253819735, 0.01, 0.968, 0.37, 192.0, 0.0, 0.0, 0.0, 0.0, 0.0, 0.0, 0.0, 0.0, 0.0, 1.6527782879851573E9, 0.0, 2022-05-17 11:04:47.985
48.0, 4866.48885804282, 16797.80534479682, -39162.62557061024, -23899.44629662589, -12056.419200470353, -2748.2810912467353, 325.9554893917429, -2492.085396300006, -0.008, 0.9560000000000001, 0.366, 192.0, 255.0, 192.0, 29.0, 224.0, 11.0, 112.0, 0.0, 0.0, 0.0, 1.6527782879851687E9, 0.0, 2022-05-17 11:04:47.985
49.0, 4930.414847184998, 16837.993781327463, -39185.04437029891, -23919.696977102398, -12070.43374424383, -2749.510437191777, 299.60278267893585, -2394.072996863484, -0.008, 0.9560000000000001, 0.366, 192.0, 0.0, 0.0, 0.0, 0.0, 0.0, 0.0, 0.0, 0.0, 0.0, 1.652778287985182E9, 0.0, 2022-05-17 11:04:47.985
50.0, 4912.131120220557, 16776.347670119725, -39226.12687660776, -23976.44805627442, -12097.255837590199, -2804.9204116964834, 244.10340119640844, -2469.0630995110396, -0.008, 0.9560000000000001, 0.366, 192.0, 0.0, 0.0, 0.0, 0.0, 0.0, 0.0, 0.0, 0.0, 0.0, 1.6527782879851956E9, 0.0, 2022-05-17 11:04:47.985
51.0, 4837.833921651116, 16709.20302977598, -39214.95100438011, -23958.879585132552, -12099.580419013551, -2825.506368339821, 268.3773956748719, -2627.3805054879795, -0.008, 0.9560000000000001, 0.366, 192.0, 0.0, 0.0, 0.0, 0.0, 0.0, 0.0, 0.0, 0.0, 0.0, 1.652778287985215E9, 0.0, 2022-05-17 11:04:47.985
52.0, 4811.838842849594, 16728.604343963187, -39165.464242156064, -23904.229569939325, -12060.107238305478, -2774.0079491147935, 346.8767222019103, -2659.455258781345, -0.008, 0.9560000000000001, 0.366, 192.0, 0.0, 0.0, 0.0, 0.0, 0.0, 0.0, 0.0, 0.0, 0.0, 1.6527782879852302E9, 0.0, 2022-05-17 11:04:47.985
53.0, 4866.310044087177, 16791.479801115966, -39164.838393311315, -23898.35106114758, -12054.139322535912, -2733.059553272671, 343.8368849559885, -2516.292335545103, -0.008, 0.9560000000000001, 0.366, 192.0, 0.0, 0.0, 0.0, 0.0, 0.0, 0.0, 0.0, 0.0, 0.0, 1.6527782879852405E9, 0.0, 2022-05-17 11:04:47.985
54.0, 4907.079625973657, 16821.766414852907, -39204.110408319284, -23934.940866820918, -12085.565875240074, -2748.035222057727, 281.050834781031, -2379.3879007563473, -0.008, 0.9560000000000001, 0.366, 192.0, 0.0, 0.0, 0.0, 0.0, 0.0, 0.0, 0.0, 0.0, 0.0, 1.6527782879852552E9, 0.0, 2022-05-17 11:04:47.985
55.0, 4907.593716096129, 16780.594501566233, -39222.66235621719, -23957.761997909787, -12099.91569518038, -2789.0730248776704, 290.08093954097507, -2444.0291457210956, -0.008, 0.9560000000000001, 0.366, 192.0, 0.0, 0.0, 0.0, 0.0, 0.0, 0.0, 0.0, 0.0, 0.0, 1.6527782879852686E9, 0.0, 2022-05-17 11:04:47.985
56.0, 4845.43351476592, 16710.745300143397, -39206.16676880918, -23951.481157717844, -12100.094509136023, -2816.4315600909663, 307.0235618380978, -2627.5369676991663, -0.008, 0.9560000000000001, 0.366, 192.0, 0.0, 0.0, 0.0, 0.0, 0.0, 0.0, 0.0, 0.0, 0.0, 1.6527782879852855E9, 0.0, 2022-05-17 11:04:47.985
57.0, 4814.386941717499, 16732.381788776136, -39158.8928292862, -23902.754354805274, -12056.91093884837, -2769.001158356805, 353.4704868162259, -2662.1821716048926, -0.008, 0.9560000000000001, 0.366, 192.0, 0.0, 0.0, 0.0, 0.0, 0.0, 0.0, 0.0, 0.0, 0.0, 1.6527782879852958E9, 0.0, 2022-05-17 11:04:47.985
58.0, 4859.068078883658, 16806.90250479013, -39154.15425946168, -23888.985680220805, -12043.76811310865, -2721.0790182446267, 373.92233299283185, -2462.3575761744473, -0.016, 0.9560000000000001, 0.364, 192.0, 255.0, 128.0, 29.0, 224.0, 11.0, 96.0, 0.0, 0.0, 0.0, 1.6527782879853077E9, 0.0, 2022-05-17 11:04:47.985
59.0, 4913.293410932232, 16833.18815626957, -39193.493329703015, -23922.423889925944, -12077.072212347057, -2731.092599760604, 335.29851857406123, -2337.2995659470043, -0.016, 0.9560000000000001, 0.364, 192.0, 0.0, 0.0, 0.0, 0.0, 0.0, 0.0, 0.0, 0.0, 0.0, 1.652778287985317E9, 0.0, 2022-05-17 11:04:47.985
60.0, 4911.7511405648165, 16783.99196672344, -39226.17158009668, -23960.712428177885, -12099.87099169147, -2799.958324427405, 305.54834670404756, -2423.487892566668, -0.016, 0.9560000000000001, 0.364, 192.0, 0.0, 0.0, 0.0, 0.0, 0.0, 0.0, 0.0, 0.0, 0.0, 1.6527782879853303E9, 0.0, 2022-05-17 11:04:47.985
61.0, 4854.061288125669, 16719.484832225422, -39219.913091649185, -23959.326620021657, -12112.164451141889, -2834.89410101105, 292.1820035197739, -2602.614772631499, -0.016, 0.9560000000000001, 0.364, 192.0, 0.0, 0.0, 0.0, 0.0, 0.0, 0.0, 0.0, 0.0, 0.0, 1.65277828798534E9, 0.0, 2022-05-17 11:04:47.985
62.0, 4815.772749873728, 16720.73652991492, -39177.064797528365, -23914.623131111042, -12070.411392499374, -2788.2013068439137, 324.9496608912541, -2632.5661102016106, -0.016, 0.9560000000000001, 0.364, 192.0, 0.0, 0.0, 0.0, 0.0, 0.0, 0.0, 0.0, 0.0, 0.0, 1.6527782879853494E9, 0.0, 2022-05-17 11:04:47.985
63.0, 4842.192511819901, 16774.22425439647, -39177.86946032876, -23906.57650310713, -12052.597052168496, -2734.3112509621683, 329.19649233776244, -2494.9240678458295, -0.016, 0.9560000000000001, 0.364, 192.0, 0.0, 0.0, 0.0, 0.0, 0.0, 0.0, 0.0, 0.0, 0.0, 1.6527782879853585E9, 0.0, 2022-05-17 11:04:47.985
64.0, 4886.828945497149, 16804.17559196658, -39217.81202767039, -23933.197430753404, -12072.11012507798, -2742.0449545437045, 299.1333960453744, -2385.8699066483864, -0.016, 0.9560000000000001, 0.364, 192.0, 0.0, 0.0, 0.0, 0.0, 0.0, 0.0, 0.0, 0.0, 0.0, 1.6527782879853785E9, 0.0, 2022-05-17 11:04:47.985
65.0, 4884.102032673602, 16762.958975190995, -39248.031586173965, -23968.46848350388, -12097.747575968217, -2803.6240105180755, 275.86523006739975, -2450.8911312688747, -0.016, 0.9560000000000001, 0.364, 192.0, 0.0, 0.0, 0.0, 0.0, 0.0, 0.0, 0.0, 0.0, 0.0, 1.6527782879853888E9, 0.0, 2022-05-17 11:04:47.985
66.0, 4848.383945034021, 16724.715140427965, -39220.3601265383, -23936.907820332985, -12084.515343250674, -2828.0768189521814, 284.5377069160589, -2609.722627368287, -0.016, 0.9560000000000001, 0.364, 192.0, 0.0, 0.0, 0.0, 0.0, 0.0, 0.0, 0.0, 0.0, 0.0, 1.6527782879853978E9, 0.0, 2022-05-17 11:04:47.985
67.0, 4823.640563921996, 16740.495472013412, -39172.862669570764, -23891.377316877522, -12043.1422642639, -2779.6852922064418, 323.04976261255297, -2662.9644826608283, -0.016, 0.9560000000000001, 0.364, 192.0, 0.0, 0.0, 0.0, 0.0, 0.0, 0.0, 0.0, 0.0, 0.0, 1.652778287985407E9, 0.0, 2022-05-17 11:04:47.985
68.0, 4856.743497460306, 16793.022071483385, -39179.67995162964, -23886.39287786399, -12042.896395074893, -2744.3248324781457, 334.8067801960445, -2516.560556478567, -0.006, 0.9480000000000001, 0.366, 192.0, 255.0, 208.0, 29.0, 160.0, 11.0, 112.0, 0.0, 0.0, 0.0, 1.6527782879854171E9, 0.0, 2022-05-17 11:04:47.985
69.0, 4916.8026348117155, 16817.89956306214, -39227.91501616419, -23927.095404517106, -12075.552293724097, -2767.7718124117628, 296.63000066638006, -2367.340310494937, -0.006, 0.9480000000000001, 0.366, 192.0, 0.0, 0.0, 0.0, 0.0, 0.0, 0.0, 0.0, 0.0, 0.0, 1.6527782879854286E9, 0.0, 2022-05-17 11:04:47.985
70.0, 4920.624783113573, 16762.89191995763, -39263.610752059314, -23975.799855685218, -12105.570686527573, -2830.781380031274, 251.43477337774914, -2439.782314274587, -0.006, 0.9480000000000001, 0.366, 192.0, 0.0, 0.0, 0.0, 0.0, 0.0, 0.0, 0.0, 0.0, 0.0, 1.652778287985438E9, 0.0, 2022-05-17 11:04:47.985
71.0, 4854.217750336856, 16704.330349484724, -39238.24152210254, -23945.64735241501, -12097.121727123467, -2830.6249178200865, 264.97993051766525, -2603.218269731792, -0.006, 0.9480000000000001, 0.366, 192.0, 0.0, 0.0, 0.0, 0.0, 0.0, 0.0, 0.0, 0.0, 0.0, 1.6527782879854517E9, 0.0, 2022-05-17 11:04:47.985
72.0, 4806.720293369329, 16722.949352615997, -39177.489480673015, -23877.698049270875, -12054.027563813635, -2765.1790100549474, 318.4229515103044, -2634.6895259248645, -0.006, 0.9480000000000001, 0.366, 192.0, 0.0, 0.0, 0.0, 0.0, 0.0, 0.0, 0.0, 0.0, 0.0, 1.6527782879854617E9, 0.0, 2022-05-17 11:04:47.985
73.0, 4872.479125556842, 16803.639150099654, -39162.02207350994, -23857.581479261098, -12030.267659457644, -2701.543593590688, 347.77079198012257, -2469.4877826556904, -0.006, 0.9480000000000001, 0.366, 192.0, 0.0, 0.0, 0.0, 0.0, 0.0, 0.0, 0.0, 0.0, 0.0, 1.652778287985474E9, 0.0, 2022-05-17 11:04:47.985
74.0, 4941.098981034635, 16826.728502121987, -39220.3601265383, -23914.041985755204, -12072.668918689362, -2735.1829689959254, 287.7340063731678, -2355.359775466892, -0.006, 0.9480000000000001, 0.366, 192.0, 0.0, 0.0, 0.0, 0.0, 0.0, 0.0, 0.0, 0.0, 0.0, 1.652778287985485E9, 0.0, 2022-05-17 11:04:47.985
75.0, 4924.178710481967, 16759.53915828933, -39270.38333062927, -23978.437361530945, -12119.808747745605, -2812.2070803889133, 238.35900287139452, -2451.807552791542, -0.006, 0.9480000000000001, 0.366, 192.0, 0.0, 0.0, 0.0, 0.0, 0.0, 0.0, 0.0, 0.0, 0.0, 1.652778287985497E9, 0.0, 2022-05-17 11:04:47.985
76.0, 4850.306195057177, 16698.183619759515, -39245.081155905864, -23955.280954275247, -12111.49389880823, -2830.781380031274, 273.6747591107797, -2625.592365931555, -0.006, 0.9480000000000001, 0.366, 192.0, 0.0, 0.0, 0.0, 0.0, 0.0, 0.0, 0.0, 0.0, 0.0, 1.6527782879855056E9, 0.0, 2022-05-17 11:04:47.985
77.0, 4845.992308377303, 16732.135919587126, -39168.526431146434, -23865.96338343184, -12051.412409712364, -2752.63968141552, 338.8971494313657, -2637.036459092672, -0.006, 0.9480000000000001, 0.366, 192.0, 0.0, 0.0, 0.0, 0.0, 0.0, 0.0, 0.0, 0.0, 0.0, 1.6527782879855149E9, 0.0, 2022-05-17 11:04:47.985
78.0, 4908.912469018993, 16802.253341943426, -39158.199925208086, -23854.631048993, -12035.207394982266, -2702.460015113356, 352.8893414603879, -2466.336186687492, 0.026000000000000002, 0.9520000000000001, 0.374, 192.0, 0.0, 208.0, 29.0, 192.0, 11.0, 176.0, 0.0, 0.0, 0.0, 1.6527782879855237E9, 0.0, 2022-05-17 11:04:47.985
79.0, 4965.6411964465615, 16832.33878998027, -39211.86646364528, -23909.973968264338, -12073.987671612225, -2726.1528642359813, 303.5590414475252, -2321.273365172549, 0.026000000000000002, 0.9520000000000001, 0.374, 192.0, 0.0, 0.0, 0.0, 0.0, 0.0, 0.0, 0.0, 0.0, 0.0, 1.652778287985535E9, 0.0, 2022-05-17 11:04:47.985
80.0, 4944.004707813824, 16774.112495674195, -39254.62535078828, -23961.22651830036, -12109.191669129334, -2787.843678932629, 264.6446543508356, -2399.7726916995875, 0.026000000000000002, 0.9520000000000001, 0.374, 192.0, 0.0, 0.0, 0.0, 0.0, 0.0, 0.0, 0.0, 0.0, 0.0, 1.6527782879855487E9, 0.0, 2022-05-17 11:04:47.985
81.0, 4879.765794249272, 16713.829840878232, -39226.506856263506, -23931.141070263515, -12097.635817245939, -2806.7532547418186, 293.567811676003, -2602.4136069314013, 0.026000000000000002, 0.9520000000000001, 0.374, 192.0, 0.0, 0.0, 0.0, 0.0, 0.0, 0.0, 0.0, 0.0, 0.0, 1.6527782879855833E9, 0.0, 2022-05-17 11:04:47.985
82.0, 4854.128343359035, 16735.019294621863, -39169.53225964693, -23873.764142246742, -12053.088790546512, -2748.795181369207, 341.4005448103601, -2656.840104680074, 0.026000000000000002, 0.9520000000000001, 0.374, 192.0, 0.0, 0.0, 0.0, 0.0, 0.0, 0.0, 0.0, 0.0, 0.0, 1.6527782879855964E9, 0.0, 2022-05-17 11:04:47.985
83.0, 4921.87648080307, 16810.724653091987, -39153.81898329485, -23856.173319360416, -12029.194775723789, -2695.3745121210236, 360.7795072531113, -2490.788995121598, 0.026000000000000002, 0.9520000000000001, 0.374, 192.0, 0.0, 0.0, 0.0, 0.0, 0.0, 0.0, 0.0, 0.0, 0.0, 1.652778287985609E9, 0.0, 2022-05-17 11:04:47.985
84.0, 4983.567295499718, 16830.260077745927, -39211.82176015637, -23915.137221233515, -12073.093601834013, -2733.5512916506877, 294.12660528738564, -2353.5716359104676, 0.026000000000000002, 0.9520000000000001, 0.374, 192.0, 0.0, 0.0, 0.0, 0.0, 0.0, 0.0, 0.0, 0.0, 0.0, 1.6527782879856212E9, 0.0, 2022-05-17 11:04:47.985
85.0, 4946.93278633747, 16771.94437646203, -39252.77015599849, -23964.042838101726, -12114.936067454348, -2799.6230482605756, 225.81967423196724, -2437.390677617869, 0.026000000000000002, 0.9520000000000001, 0.374, 192.0, 0.0, 0.0, 0.0, 0.0, 0.0, 0.0, 0.0, 0.0, 0.0, 1.6527782879856317E9, 0.0, 2022-05-17 11:04:47.985
86.0, 4870.646282511507, 16709.78417513182, -39225.165751596185, -23943.635695414032, -12106.934142939346, -2823.6511735500308, 207.2900780785177, -2637.1705695594037, 0.026000000000000002, 0.9520000000000001, 0.374, 192.0, 0.0, 0.0, 0.0, 0.0, 0.0, 0.0, 0.0, 0.0, 0.0, 1.6527782879856548E9, 0.0, 2022-05-17 11:04:47.985
87.0, 4854.977709648337, 16730.012503863873, -39153.52841061693, -23871.86424396804, -12046.942060821302, -2754.7630971387744, 297.25584951112864, -2671.927532187406, 0.026000000000000002, 0.9520000000000001, 0.374, 192.0, 0.0, 0.0, 0.0, 0.0, 0.0, 0.0, 0.0, 0.0, 0.0, 1.6527782879856713E9, 0.0, 2022-05-17 11:04:47.985
88.0, 4921.809425569704, 16794.251417428426, -39146.08527971331, -23864.15289213096, -12024.992647766192, -2706.39392213749, 395.6705803478456, -2493.1582800338606, 0.028, 0.968, 0.38, 192.0, 0.0, 224.0, 30.0, 64.0, 11.0, 224.0, 0.0, 0.0, 0.0, 1.6527782879856887E9, 0.0, 2022-05-17 11:04:47.985
89.0, 4983.611998988628, 16829.164842267615, -39191.83930061332, -23908.63286359702, -12058.632023171429, -2723.6941723458976, 362.21001889825095, -2328.671792587256, 0.028, 0.968, 0.38, 192.0, 0.0, 0.0, 0.0, 0.0, 0.0, 0.0, 0.0, 0.0, 0.0, 1.6527782879857016E9, 0.0, 2022-05-17 11:04:47.985
90.0, 4965.060051090723, 16772.36905960668, -39235.156981367705, -23953.82809088565, -12105.68244524985, -2787.486051021344, 298.082864055975, -2395.391749786347, 0.028, 0.968, 0.38, 192.0, 0.0, 0.0, 0.0, 0.0, 0.0, 0.0, 0.0, 0.0, 0.0, 1.6527782879857209E9, 0.0, 2022-05-17 11:04:47.985
91.0, 4887.901829231004, 16701.22345700544, -39214.10163809081, -23929.241171984813, -12103.290808593132, -2810.0389611767487, 292.4949279421482, -2618.037476305661, 0.028, 0.968, 0.38, 192.0, 0.0, 0.0, 0.0, 0.0, 0.0, 0.0, 0.0, 0.0, 0.0, 1.6527782879857476E9, 0.0, 2022-05-17 11:04:47.985
92.0, 4865.997119664803, 16724.804547405787, -39148.09693671429, -23866.25395610976, -12049.110180033467, -2754.7183936498636, 338.0254313976087, -2701.476538357322, 0.028, 0.968, 0.38, 192.0, 0.0, 0.0, 0.0, 0.0, 0.0, 0.0, 0.0, 0.0, 0.0, 1.6527782879857664E9, 0.0, 2022-05-17 11:04:47.985
93.0, 4924.603393626618, 16791.502152860423, -39150.913256515654, -23864.68933399789, -12040.594165395996, -2710.350180906079, 349.983614681198, -2500.266134770648, 0.028, 0.968, 0.38, 192.0, 0.0, 0.0, 0.0, 0.0, 0.0, 0.0, 0.0, 0.0, 0.0, 1.6527782879857829E9, 0.0, 2022-05-17 11:04:47.985
94.0, 4997.358321828642, 16831.154147524136, -39199.68476291714, -23905.77184030674, -12071.327814022043, -2714.7087710748638, 313.5502712190475, -2324.0673332294623, 0.028, 0.968, 0.38, 192.0, 0.0, 0.0, 0.0, 0.0, 0.0, 0.0, 0.0, 0.0, 0.0, 1.6527782879857955E9, 0.0, 2022-05-17 11:04:47.985
95.0, 4981.712100709928, 16773.397239851623, -39249.30563560792, -23950.318867006168, -12117.283000622154, -2782.1663358409805, 258.922607770277, -2407.8640231924087, 0.028, 0.968, 0.38, 192.0, 0.0, 0.0, 0.0, 0.0, 0.0, 0.0, 0.0, 0.0, 0.0, 1.6527782879858074E9, 0.0, 2022-05-17 11:04:47.985
96.0, 4919.663658101995, 16706.677282652534, -39223.39996378421, -23928.92824756244, -12110.53277379665, -2793.6551324910083, 272.82539282147803, -2595.7304353392647, 0.028, 0.968, 0.38, 192.0, 0.0, 0.0, 0.0, 0.0, 0.0, 0.0, 0.0, 0.0, 0.0, 1.652778287985823E9, 0.0, 2022-05-17 11:04:47.985
97.0, 4877.284750614733, 16728.179660818536, -39157.55172461888, -23862.275345596714, -12053.178197524334, -2729.7291433488303, 334.62796624040203, -2644.5913487185658, 0.028, 0.968, 0.38, 192.0, 0.0, 0.0, 0.0, 0.0, 0.0, 0.0, 0.0, 0.0, 0.0, 1.65277828798584E9, 0.0, 2022-05-17 11:04:47.985
98.0, 4936.002783298824, 16803.99677801094, -39151.00266349348, -23846.785586689188, -12026.04317975559, -2688.445471339878, 346.6308530129019, -2486.720977630732, 0.04, 0.974, 0.388, 192.0, 1.0, 64.0, 30.0, 112.0, 12.0, 32.0, 0.0, 0.0, 0.0, 1.65277828798586E9, 0.0, 2022-05-17 11:04:47.985
99.0, 4996.710121239438, 16825.499156176946, -39206.010306597986, -23901.972043749338, -12069.047936087602, -2714.9546402638725, 292.4949279421482, -2349.1906939972278, 0.04, 0.974, 0.388, 192.0, 0.0, 0.0, 0.0, 0.0, 0.0, 0.0, 0.0, 0.0, 0.0, 1.6527782879858923E9, 0.0, 2022-05-17 11:04:47.985
100.0, 4991.211592103433, 16783.99196672344, -39233.36884181128, -23940.12647153455, -12102.463794048286, -2766.1177833220704, 243.47755235165982, -2430.215767647716, 0.04, 0.974, 0.388, 192.0, 0.0, 0.0, 0.0, 0.0, 0.0, 0.0, 0.0, 0.0, 0.0, 1.6527782879859073E9, 0.0, 2022-05-17 11:04:47.985
101.0, 4915.841509800138, 16724.044588094304, -39212.38055376775, -23922.043910270204, -12089.76800319767, -2788.804803944207, 257.6485583363245, -2604.358208699013, 0.04, 0.974, 0.388, 192.0, 0.0, 0.0, 0.0, 0.0, 0.0, 0.0, 0.0, 0.0, 0.0, 1.6527782879859228E9, 0.0, 2022-05-17 11:04:47.985
102.0, 4882.135079161534, 16739.511995257377, -39150.13094545972, -23855.927450171406, -12030.491176902196, -2737.060515530171, 339.9476814207651, -2630.3085840116246, 0.04, 0.974, 0.388, 192.0, 0.0, 0.0, 0.0, 0.0, 0.0, 0.0, 0.0, 0.0, 0.0, 1.6527782879859407E9, 0.0, 2022-05-17 11:04:47.985
103.0, 4945.859902603615, 16810.478783902978, -39139.871494754734, -23836.05674935064, -12014.42027263883, -2693.9440004758835, 348.86602745843265, -2467.2749599546146, 0.04, 0.974, 0.388, 192.0, 0.0, 0.0, 0.0, 0.0, 0.0, 0.0, 0.0, 0.0, 0.0, 1.6527782879859536E9, 0.0, 2022-05-17 11:04:47.985
104.0, 5020.224156406422, 16830.170670768104, -39203.9539461081, -23899.088668714605, -12062.878854617937, -2734.4006579399893, 316.210128809229, -2336.204330468694, 0.04, 0.974, 0.388, 192.0, 0.0, 0.0, 0.0, 0.0, 0.0, 0.0, 0.0, 0.0, 0.0, 1.6527782879859667E9, 0.0, 2022-05-17 11:04:47.985
105.0, 4989.043472891268, 16771.09501017273, -39251.809030986915, -23951.54821295121, -12106.196535372323, -2800.159490127503, 296.58529717746944, -2417.6093837749227, 0.04, 0.974, 0.388, 192.0, 0.0, 0.0, 0.0, 0.0, 0.0, 0.0, 0.0, 0.0, 0.0, 1.6527782879859767E9, 0.0, 2022-05-17 11:04:47.985
106.0, 4906.118500962079, 16715.059186823273, -39227.62444348627, -23929.710558618375, -12100.049805647113, -2808.675504764975, 314.46669274171506, -2606.459272677812, 0.04, 0.974, 0.388, 192.0, 0.0, 0.0, 0.0, 0.0, 0.0, 0.0, 0.0, 0.0, 0.0, 1.6527782884633834E9, 0.0, 2022-05-17 11:04:48.463
107.0, 4878.581151793141, 16726.369169517657, -39164.25724795547, -23867.595060777076, -12050.540691678607, -2751.030355814738, 371.5530480805693, -2692.133509175004, 0.04, 0.974, 0.388, 192.0, 0.0, 0.0, 0.0, 0.0, 0.0, 0.0, 0.0, 0.0, 0.0, 1.6527782884636045E9, 0.0, 2022-05-17 11:04:48.463
108.0, 4937.098018777135, 16794.452583128525, -39153.03667223891, -23853.20053734786, -12027.38428442291, -2703.711712802853, 375.4198998713374, -2552.5021615627006, 0.046, 0.964, 0.386, 192.0, 1.0, 112.0, 30.0, 32.0, 12.0, 16.0, 0.0, 0.0, 0.0, 1.6527782884636104E9, 0.0, 2022-05-17 11:04:48.463
109.0, 4998.386502073587, 16823.688664876063, -39210.03362059994, -23912.991453765804, -12072.53480822263, -2736.6581841299753, 311.91859387381004, -2370.402499485314, 0.046, 0.964, 0.386, 192.0, 0.0, 0.0, 0.0, 0.0, 0.0, 0.0, 0.0, 0.0, 0.0, 1.6527782884636168E9, 0.0, 2022-05-17 11:04:48.463
110.0, 4982.449708276953, 16775.6100625527, -39252.27841762047, -23952.710503662885, -12115.047826176624, -2804.540432040743, 275.59700913393607, -2431.042782192562, 0.046, 0.964, 0.386, 192.0, 0.0, 0.0, 0.0, 0.0, 0.0, 0.0, 0.0, 0.0, 0.0, 1.652778288463623E9, 0.0, 2022-05-17 11:04:48.463
111.0, 4909.024227741269, 16704.039776806807, -39230.01608014299, -23932.92920981994, -12116.321875610576, -2826.6910107959525, 287.28697148406167, -2601.251316219725, 0.046, 0.964, 0.386, 192.0, 0.0, 0.0, 0.0, 0.0, 0.0, 0.0, 0.0, 0.0, 0.0, 1.6527782884636283E9, 0.0, 2022-05-17 11:04:48.463
112.0, 4885.264323385278, 16720.580067703733, -39159.00458800848, -23867.30448809916, -12057.91676734886, -2771.7280711803523, 339.85827444294387, -2639.964537616317, 0.046, 0.964, 0.386, 192.0, 0.0, 0.0, 0.0, 0.0, 0.0, 0.0, 0.0, 0.0, 0.0, 1.652778288463634E9, 0.0, 2022-05-17 11:04:48.463
113.0, 4944.071763047191, 16801.64984484313, -39139.71503254354, -23847.00910413374, -12027.026656511624, -2708.2714686717354, 353.5151903051365, -2482.630608395411, 0.046, 0.964, 0.386, 192.0, 0.0, 0.0, 0.0, 0.0, 0.0, 0.0, 0.0, 0.0, 0.0, 1.6527782884636395E9, 0.0, 2022-05-17 11:04:48.463
114.0, 5017.430188349508, 16841.972391840507, -39185.69257088811, -23887.555168575665, -12058.855540615981, -2702.5270703467218, 315.8972043868547, -2354.041022544029, 0.046, 0.964, 0.386, 192.0, 0.0, 0.0, 0.0, 0.0, 0.0, 0.0, 0.0, 0.0, 0.0, 1.652778288463645E9, 0.0, 2022-05-17 11:04:48.463
115.0, 5006.120205655123, 16776.638242797642, -39242.711870993604, -23951.302343762203, -12111.091567408033, -2789.5200597667767, 268.1762299747741, -2437.144808428861, 0.046, 0.964, 0.386, 192.0, 0.0, 0.0, 0.0, 0.0, 0.0, 0.0, 0.0, 0.0, 0.0, 1.6527782884636505E9, 0.0, 2022-05-17 11:04:48.463
116.0, 4902.989256738336, 16700.575256416232, -39229.30082432042, -23951.92819260695, -12115.941895954837, -2831.4966358538436, 259.70491882621275, -2626.419380476401, 0.046, 0.964, 0.386, 192.0, 0.0, 0.0, 0.0, 0.0, 0.0, 0.0, 0.0, 0.0, 0.0, 1.6527782884636557E9, 0.0, 2022-05-17 11:04:48.463
117.0, 4860.699756228895, 16719.797756647797, -39163.743157833, -23887.465761597847, -12061.873026117448, -2777.5842282276426, 300.6533146683353, -2695.2180499098363, 0.036000000000000004, 0.9580000000000001, 0.388, 192.0, 1.0, 32.0, 29.0, 240.0, 12.0, 32.0, 0.0, 0.0, 0.0, 1.6527782884636612E9, 0.0, 2022-05-17 11:04:48.463
118.0, 4919.30603019071, 16795.458411629013, -39147.31462565835, -23858.632011250498, -12038.113121761457, -2727.0692857586487, 331.23050108319535, -2552.658623773888, 0.036000000000000004, 0.9580000000000001, 0.388, 192.0, 0.0, 0.0, 0.0, 0.0, 0.0, 0.0, 0.0, 0.0, 0.0, 1.6527782884636664E9, 0.0, 2022-05-17 11:04:48.463
119.0, 4993.245600848866, 16835.80331037084, -39190.56525117937, -23907.917607774452, -12068.936177365325, -2752.0808878041375, 327.8777394148993, -2396.2411160756487, 0.036000000000000004, 0.9580000000000001, 0.388, 192.0, 0.0, 0.0, 0.0, 0.0, 0.0, 0.0, 0.0, 0.0, 0.0, 1.6527782884636717E9, 0.0, 2022-05-17 11:04:48.463
120.0, 4973.531362239285, 16779.09693468773, -39239.20264711412, -23956.644410687022, -12111.203326130311, -2817.415036847, 284.94003831625446, -2435.9825177171847, 0.036000000000000004, 0.9580000000000001, 0.388, 192.0, 0.0, 0.0, 0.0, 0.0, 0.0, 0.0, 0.0, 0.0, 0.0, 1.6527782884636772E9, 0.0, 2022-05-17 11:04:48.463
121.0, 4898.407149124998, 16703.995073317896, -39227.110353363794, -23940.08176804564, -12112.276209864165, -2829.79790327524, 280.33557895846116, -2605.1181680104933, 0.036000000000000004, 0.9580000000000001, 0.388, 192.0, 0.0, 0.0, 0.0, 0.0, 0.0, 0.0, 0.0, 0.0, 0.0, 1.6527782884636824E9, 0.0, 2022-05-17 11:04:48.463
122.0, 4870.847448211604, 16717.16025080207, -39155.89769552919, -23869.897290455974, -12058.363802237966, -2755.0983733056037, 343.90394018935444, -2658.3823750474903, 0.036000000000000004, 0.9580000000000001, 0.388, 192.0, 0.0, 0.0, 0.0, 0.0, 0.0, 0.0, 0.0, 0.0, 0.0, 1.652778288463688E9, 0.0, 2022-05-17 11:04:48.463
123.0, 4941.970699068392, 16804.55557162232, -39121.72187825703, -23836.7273016843, -12017.61657209594, -2692.8487649975737, 381.87955401892117, -2510.816158153553, 0.036000000000000004, 0.9580000000000001, 0.388, 192.0, 0.0, 0.0, 0.0, 0.0, 0.0, 0.0, 0.0, 0.0, 0.0, 1.6527782884636931E9, 0.0, 2022-05-17 11:04:48.463
124.0, 5001.448691063963, 16828.963676567517, -39183.367989464765, -23899.692165814897, -12066.164561052867, -2730.1761782379363, 320.65812595583515, -2389.177964827772, 0.036000000000000004, 0.9580000000000001, 0.388, 192.0, 0.0, 0.0, 0.0, 0.0, 0.0, 0.0, 0.0, 0.0, 0.0, 1.6527782884636989E9, 0.0, 2022-05-17 11:04:48.463
125.0, 4975.7888884292715, 16779.409859110103, -39231.111315621296, -23955.727989164352, -12115.360750598998, -2795.264458091791, 264.0858607394529, -2451.6287388358996, 0.036000000000000004, 0.9580000000000001, 0.388, 192.0, 0.0, 0.0, 0.0, 0.0, 0.0, 0.0, 0.0, 0.0, 0.0, 1.652778288463704E9, 0.0, 2022-05-17 11:04:48.463
126.0, 4887.678311786451, 16704.106832040172, -39224.20462658461, -23956.197375797914, -12122.043922191135, -2832.502464354332, 271.6183986208914, -2649.844008665563, 0.036000000000000004, 0.9580000000000001, 0.388, 192.0, 0.0, 0.0, 0.0, 0.0, 0.0, 0.0, 0.0, 0.0, 0.0, 1.652778288463709E9, 0.0, 2022-05-17 11:04:48.463
127.0, 4849.546235745697, 16717.27200952435, -39156.18826820711, -23885.96819471934, -12068.355032009487, -2769.4034897570004, 338.80774245354445, -2685.7632620052414, 0.026000000000000002, 0.9500000000000001, 0.386, 192.0, 0.0, 208.0, 29.0, 176.0, 12.0, 16.0, 0.0, 0.0, 0.0, 1.6527782884637148E9, 0.0, 2022-05-17 11:04:48.463
128.0, 4898.228335169356, 16795.32430116228, -39138.70920404306, -23863.43763630839, -12040.102427017979, -2722.5989368675873, 346.69790824626784, -2525.1436263494047, 0.026000000000000002, 0.9500000000000001, 0.386, 192.0, 0.0, 0.0, 0.0, 0.0, 0.0, 0.0, 0.0, 0.0, 0.0, 1.652778288463725E9, 0.0, 2022-05-17 11:04:48.463
129.0, 4972.6819959499835, 16842.3747232407, -39178.8976405737, -23898.686337314408, -12071.283110533132, -2738.893358575506, 308.47642522769274, -2416.044761663051, 0.026000000000000002, 0.9500000000000001, 0.386, 192.0, 0.0, 0.0, 0.0, 0.0, 0.0, 0.0, 0.0, 0.0, 0.0, 1.6527782884637303E9, 0.0, 2022-05-17 11:04:48.463
130.0, 4955.918187608503, 16793.13383020566, -39218.28141430395, -23948.97776233885, -12104.520154538173, -2797.4325773039554, 283.06249178200864, -2448.2759771676037, 0.026000000000000002, 0.9500000000000001, 0.386, 192.0, 0.0, 0.0, 0.0, 0.0, 0.0, 0.0, 0.0, 0.0, 0.0, 1.6527782884637358E9, 0.0, 2022-05-17 11:04:48.463
131.0, 4876.278922114244, 16720.088329325717, -39208.51370197698, -23951.078826317647, -12106.44240456133, -2830.6249178200865, 263.86234329489986, -2589.9189817808847, 0.026000000000000002, 0.9500000000000001, 0.386, 192.0, 0.0, 0.0, 0.0, 0.0, 0.0, 0.0, 0.0, 0.0, 0.0, 1.6527782884637413E9, 0.0, 2022-05-17 11:04:48.463
132.0, 4837.342183273099, 16716.936733357517, -39150.55562860437, -23885.789380763697, -12062.387116239921, -2776.734861938341, 309.59401245045814, -2685.606799794054, 0.026000000000000002, 0.9500000000000001, 0.386, 192.0, 0.0, 0.0, 0.0, 0.0, 0.0, 0.0, 0.0, 0.0, 0.0, 1.6527782884637463E9, 0.0, 2022-05-17 11:04:48.463
133.0, 4891.9698467218695, 16786.450658613525, -39132.85304699577, -23858.72141822832, -12039.767150851148, -2726.4657886583555, 334.1585796068406, -2589.7625195696974, 0.026000000000000002, 0.9500000000000001, 0.386, 192.0, 0.0, 0.0, 0.0, 0.0, 0.0, 0.0, 0.0, 0.0, 0.0, 1.6527782884637516E9, 0.0, 2022-05-17 11:04:48.463
134.0, 4980.527458253796, 16837.412635971625, -39171.70037885909, -23902.329671660624, -12063.214130784767, -2732.6348701280203, 321.28397480058374, -2400.040912633051, 0.026000000000000002, 0.9500000000000001, 0.386, 192.0, 0.0, 0.0, 0.0, 0.0, 0.0, 0.0, 0.0, 0.0, 0.0, 1.6527782884637573E9, 0.0, 2022-05-17 11:04:48.463
135.0, 4969.642158704061, 16789.55755109281, -39212.24644330102, -23948.7542448943, -12100.206267858299, -2789.698873722419, 295.44535821024874, -2402.946639412241, 0.026000000000000002, 0.9500000000000001, 0.386, 192.0, 0.0, 0.0, 0.0, 0.0, 0.0, 0.0, 0.0, 0.0, 0.0, 1.6527782884637623E9, 0.0, 2022-05-17 11:04:48.463
136.0, 4870.713337744873, 16706.25259950788, -39210.25713804449, -23955.593878697622, -12109.750462740716, -2838.380973146078, 292.4278727087823, -2620.3173542401023, 0.026000000000000002, 0.9500000000000001, 0.386, 192.0, 0.0, 0.0, 0.0, 0.0, 0.0, 0.0, 0.0, 0.0, 0.0, 1.652778288463768E9, 0.0, 2022-05-17 11:04:48.463
137.0, 4825.138130800501, 16714.768614145352, -39150.39916639318, -23896.853494269075, -12065.784581397127, -2795.867955192084, 330.7387627051786, -2750.940948836917, 0.02, 0.9500000000000001, 0.384, 192.0, 0.0, 160.0, 29.0, 176.0, 12.0, 0.0, 0.0, 0.0, 0.0, 1.6527782884637733E9, 0.0, 2022-05-17 11:04:48.463
138.0, 4878.827020982149, 16793.446754628036, -39132.5848260623, -23873.67473526892, -12039.968316551247, -2723.0459717566937, 338.47246628671485, -2583.8393072890412, 0.02, 0.9500000000000001, 0.384, 192.0, 0.0, 0.0, 0.0, 0.0, 0.0, 0.0, 0.0, 0.0, 0.0, 1.6527782884637787E9, 0.0, 2022-05-17 11:04:48.463
139.0, 4958.846266132148, 16840.117197050717, -39174.09201551581, -23904.92247401744, -12067.907997120381, -2726.957527036372, 313.5279194745922, -2363.3616999818923, 0.02, 0.9500000000000001, 0.384, 192.0, 0.0, 0.0, 0.0, 0.0, 0.0, 0.0, 0.0, 0.0, 0.0, 1.652778288463784E9, 0.0, 2022-05-17 11:04:48.463
140.0, 4950.330251494676, 16793.625568583677, -39219.57781548236, -23955.45976823089, -12108.945799940324, -2797.1643563704915, 282.43664293726005, -2411.015619160607, 0.02, 0.9500000000000001, 0.384, 192.0, 0.0, 0.0, 0.0, 0.0, 0.0, 0.0, 0.0, 0.0, 0.0, 1.65277828846379E9, 0.0, 2022-05-17 11:04:48.463
141.0, 4886.292503630221, 16724.893954383606, -39202.925765863154, -23942.339294235622, -12108.96815168478, -2828.3226881411897, 289.03040755157565, -2601.206612730815, 0.02, 0.9500000000000001, 0.384, 192.0, 0.0, 0.0, 0.0, 0.0, 0.0, 0.0, 0.0, 0.0, 0.0, 1.6527782884637957E9, 0.0, 2022-05-17 11:04:48.463
142.0, 4864.633663253029, 16743.200033092504, -39118.480875311005, -23855.838043193584, -12040.52711016263, -2758.7193559073635, 374.1011469484743, -2662.2715785827136, 0.02, 0.9500000000000001, 0.384, 192.0, 0.0, 0.0, 0.0, 0.0, 0.0, 0.0, 0.0, 0.0, 0.0, 1.6527782884638028E9, 0.0, 2022-05-17 11:04:48.463
143.0, 4907.571364351674, 16815.060891516317, -39106.0309536494, -23843.209307576337, -12019.896450030381, -2694.122814431526, 386.4840133767144, -2514.325382033036, 0.02, 0.9500000000000001, 0.384, 192.0, 0.0, 0.0, 0.0, 0.0, 0.0, 0.0, 0.0, 0.0, 0.0, 1.6527782884638083E9, 0.0, 2022-05-17 11:04:48.463
144.0, 4994.094967138168, 16860.323174038313, -39148.94630300359, -23870.21021487835, -12047.500854432685, -2705.1422244479927, 352.4646583157371, -2354.2645399885823, 0.02, 0.9500000000000001, 0.384, 192.0, 0.0, 0.0, 0.0, 0.0, 0.0, 0.0, 0.0, 0.0, 0.0, 1.652778288463814E9, 0.0, 2022-05-17 11:04:48.463
