%OpenBCI Raw EEG Data
%Number of channels = 8
%Sample Rate = 250 Hz
%Board = OpenBCI_GUI$BoardCytonSerial
Sample Index, EXG Channel 0, EXG Channel 1, EXG Channel 2, EXG Channel 3, EXG Channel 4, EXG Channel 5, EXG Channel 6, EXG Channel 7, Accel Channel 0, Accel Channel 1, Accel Channel 2, Other, Other, Other, Other, Other, Other, Other, Analog Channel 0, Analog Channel 1, Analog Channel 2, Timestamp, Other, Timestamp (Formatted)
0.0, 0.0, 0.0, 0.0, 0.0, 0.0, 0.0, 0.0, 0.0, 0.0, 0.0, 0.0, 192.0, 0.0, 0.0, 0.0, 0.0, 0.0, 0.0, 0.0, 0.0, 0.0, 1.6541557216633475E9, 0.0, 2022-06-02 09:42:01.663
1.0, 25878.22388150977, -4825.987497089804, -60675.084373364974, -37273.858460647876, -11484.639225559144, -35455.655807930925, -4924.804559326716, -26221.300807154275, -0.03, 0.922, 0.456, 192.0, 255.0, 16.0, 28.0, 208.0, 14.0, 64.0, 0.0, 0.0, 0.0, 1.6541557216634169E9, 0.0, 2022-06-02 09:42:01.663
2.0, 25876.011058808694, -4817.560889430152, -60668.71412619521, -37268.31522802296, -11483.007548213905, -35448.70441540532, -4932.9405943084475, -26229.258028180368, -0.03, 0.922, 0.456, 192.0, 0.0, 0.0, 0.0, 0.0, 0.0, 0.0, 0.0, 0.0, 0.0, 1.6541557216634684E9, 0.0, 2022-06-02 09:42:01.663
3.0, 25873.731180874252, -4812.934078327904, -60664.668460448804, -37265.36479775486, -11478.492495833934, -35442.021243813186, -4915.617992355585, -26207.018042447336, -0.03, 0.922, 0.456, 192.0, 0.0, 0.0, 0.0, 0.0, 0.0, 0.0, 0.0, 0.0, 0.0, 1.654155721663477E9, 0.0, 2022-06-02 09:42:01.663
4.0, 25867.807968593595, -4828.066209324147, -60676.58194024348, -37276.18304207123, -11486.583827326755, -35453.979427096776, -4913.740445821339, -26206.86158023615, -0.03, 0.922, 0.456, 192.0, 0.0, 0.0, 0.0, 0.0, 0.0, 0.0, 0.0, 0.0, 0.0, 1.654155721663484E9, 0.0, 2022-06-02 09:42:01.663
5.0, 25887.186931036347, -4831.262508781256, -60683.51098102462, -37285.61547823137, -11490.741251795442, -35461.35550276703, -4926.100960505123, -26215.019966962336, -0.03, 0.922, 0.456, 192.0, 0.0, 0.0, 0.0, 0.0, 0.0, 0.0, 0.0, 0.0, 0.0, 1.65415572166349E9, 0.0, 2022-06-02 09:42:01.663
6.0, 25883.387134478944, -4828.714409913351, -60682.214579846215, -37283.8496904194, -11496.887981520651, -35459.58971495506, -4938.886158333559, -26220.80906877626, -0.03, 0.922, 0.456, 192.0, 0.0, 0.0, 0.0, 0.0, 0.0, 0.0, 0.0, 0.0, 0.0, 1.654155721663496E9, 0.0, 2022-06-02 09:42:01.663
7.0, 25869.26083198319, -4822.925308099426, -60671.77631518559, -37272.36089376937, -11490.338920395247, -35446.715110148805, -4937.030963543769, -26193.919920196524, -0.03, 0.922, 0.456, 192.0, 0.0, 0.0, 0.0, 0.0, 0.0, 0.0, 0.0, 0.0, 0.0, 1.6541557216635027E9, 0.0, 2022-06-02 09:42:01.663
8.0, 25873.485311685243, -4815.415121962443, -60660.08635283546, -37263.308437264976, -11483.588693569744, -35436.14273502144, -4937.969736810892, -26199.776077243816, -0.028, 0.918, 0.45, 192.0, 255.0, 32.0, 28.0, 176.0, 14.0, 16.0, 0.0, 0.0, 0.0, 1.654155721663509E9, 0.0, 2022-06-02 09:42:01.663
9.0, 25880.771980377674, -4811.816491105138, -60659.706373179724, -37267.08588207792, -11481.331167379758, -35440.63543565696, -4937.925033321981, -26227.55929560176, -0.028, 0.918, 0.45, 192.0, 0.0, 0.0, 0.0, 0.0, 0.0, 0.0, 0.0, 0.0, 0.0, 1.6541557216635153E9, 0.0, 2022-06-02 09:42:01.663
10.0, 25879.900262343916, -4827.261546523756, -60683.689794980266, -37291.15871085629, -11500.88894377815, -35470.9220493939, -4946.575158426185, -26260.706932628982, -0.028, 0.918, 0.45, 192.0, 0.0, 0.0, 0.0, 0.0, 0.0, 0.0, 0.0, 0.0, 0.0, 1.6541557216635284E9, 0.0, 2022-06-02 09:42:01.663
11.0, 25875.586375664043, -4817.493834196786, -60681.20875134573, -37282.240364818615, -11506.633342103165, -35466.31759003611, -4937.768571110794, -26219.490315853396, -0.028, 0.918, 0.45, 192.0, 0.0, 0.0, 0.0, 0.0, 0.0, 0.0, 0.0, 0.0, 0.0, 1.6541557216635368E9, 0.0, 2022-06-02 09:42:01.663
12.0, 25871.428951195354, -4812.8446713500825, -60661.2709952916, -37266.169460555255, -11491.188286684548, -35447.92210434939, -4930.414847184998, -26185.381553814597, -0.028, 0.918, 0.45, 192.0, 0.0, 0.0, 0.0, 0.0, 0.0, 0.0, 0.0, 0.0, 0.0, 1.6541557216635432E9, 0.0, 2022-06-02 09:42:01.663
13.0, 25869.193776749824, -4814.47634869532, -60652.33029750947, -37256.75937613957, -11480.727670279464, -35436.27684548817, -4913.44987314342, -26178.51956826682, -0.028, 0.918, 0.45, 192.0, 0.0, 0.0, 0.0, 0.0, 0.0, 0.0, 0.0, 0.0, 0.0, 1.6541557216635544E9, 0.0, 2022-06-02 09:42:01.663
14.0, 25875.87694834196, -4806.51912766923, -60644.127207294376, -37242.45425968817, -11473.798629498318, -35421.748211592225, -4914.187480710445, -26186.65560324855, -0.028, 0.918, 0.45, 192.0, 0.0, 0.0, 0.0, 0.0, 0.0, 0.0, 0.0, 0.0, 0.0, 1.654155721663562E9, 0.0, 2022-06-02 09:42:01.663
15.0, 25874.178215763357, -4812.352932972066, -60649.7151434082, -37252.17726852623, -11476.860818488696, -35430.62185414098, -4910.611201597596, -26208.85088549267, -0.028, 0.918, 0.45, 192.0, 0.0, 0.0, 0.0, 0.0, 0.0, 0.0, 0.0, 0.0, 0.0, 1.6541557216635683E9, 0.0, 2022-06-02 09:42:01.663
16.0, 25891.389058993944, -4812.040008549691, -60651.86091087591, -37255.08299530542, -11486.583827326755, -35433.79580185364, -4923.3740476815765, -26199.91018771055, -0.028, 0.918, 0.45, 192.0, 0.0, 0.0, 0.0, 0.0, 0.0, 0.0, 0.0, 0.0, 0.0, 1.654155721663575E9, 0.0, 2022-06-02 09:42:01.663
17.0, 25887.522207203176, -4803.94867705687, -60642.69669564923, -37243.90712307777, -11479.543027823333, -35422.41876392588, -4919.484844146353, -26192.824684718216, -0.028, 0.918, 0.45, 192.0, 0.0, 0.0, 0.0, 0.0, 0.0, 0.0, 0.0, 0.0, 0.0, 1.6541557216635816E9, 0.0, 2022-06-02 09:42:01.663
18.0, 25869.886680827938, -4802.227592733811, -60639.433340958756, -37244.488268433604, -11478.112516178193, -35421.72585984777, -4918.479015645864, -26182.74404796887, -0.03, 0.918, 0.45, 192.0, 255.0, 16.0, 28.0, 176.0, 14.0, 16.0, 0.0, 0.0, 0.0, 1.6541557216635888E9, 0.0, 2022-06-02 09:42:01.663
19.0, 25883.633003667954, -4800.886488066493, -60635.47708219017, -37240.308492220465, -11469.328280607258, -35424.69864186033, -4909.359503908098, -26181.00061190136, -0.03, 0.918, 0.45, 192.0, 0.0, 0.0, 0.0, 0.0, 0.0, 0.0, 0.0, 0.0, 0.0, 1.6541557216635957E9, 0.0, 2022-06-02 09:42:01.663
20.0, 25884.72823914626, -4805.937982313393, -60648.12816955188, -37251.39495747029, -11477.196094655526, -35443.36234848051, -4915.170957466478, -26210.61667330464, -0.03, 0.918, 0.45, 192.0, 0.0, 0.0, 0.0, 0.0, 0.0, 0.0, 0.0, 0.0, 0.0, 1.654155721663603E9, 0.0, 2022-06-02 09:42:01.663
21.0, 25874.357029719, -4814.85632835106, -60661.67332669179, -37267.46586173366, -11496.262132675904, -35459.94734286635, -4935.242823987344, -26242.356150431177, -0.03, 0.918, 0.45, 192.0, 0.0, 0.0, 0.0, 0.0, 0.0, 0.0, 0.0, 0.0, 0.0, 1.6541557216636097E9, 0.0, 2022-06-02 09:42:01.663
22.0, 25881.64369841143, -4811.816491105138, -60660.6674981913, -37266.929419866734, -11499.078452477272, -35457.15337480943, -4932.40415244152, -26215.444650106987, -0.03, 0.918, 0.45, 192.0, 0.0, 0.0, 0.0, 0.0, 0.0, 0.0, 0.0, 0.0, 0.0, 1.6541557216636329E9, 0.0, 2022-06-02 09:42:01.663
23.0, 25907.03528011266, -4785.352025670055, -60633.353666466915, -37236.15106775177, -11472.658690531098, -35424.408069182406, -4900.821137526172, -26161.50989073633, -0.03, 0.918, 0.45, 192.0, 0.0, 0.0, 0.0, 0.0, 0.0, 0.0, 0.0, 0.0, 0.0, 1.6541557216636395E9, 0.0, 2022-06-02 09:42:01.663
24.0, 25897.334623019055, -4786.670778592918, -60630.60440189891, -37234.765259595544, -11467.048402672817, -35419.1107057465, -4891.589867066129, -26168.37187628411, -0.03, 0.918, 0.45, 192.0, 0.0, 0.0, 0.0, 0.0, 0.0, 0.0, 0.0, 0.0, 0.0, 1.654155721663646E9, 0.0, 2022-06-02 09:42:01.663
25.0, 25893.333660761557, -4800.506508410753, -60650.09512306394, -37256.84878311739, -11481.398222613123, -35436.835639099554, -4909.895945775026, -26196.155094642058, -0.03, 0.918, 0.45, 192.0, 0.0, 0.0, 0.0, 0.0, 0.0, 0.0, 0.0, 0.0, 0.0, 1.654155721663653E9, 0.0, 2022-06-02 09:42:01.663
26.0, 25899.033355597658, -4801.914668311438, -60657.24768128964, -37254.7924226275, -11493.490516363445, -35445.530467692675, -4931.353620452121, -26223.692443810993, -0.03, 0.918, 0.45, 192.0, 0.0, 0.0, 0.0, 0.0, 0.0, 0.0, 0.0, 0.0, 0.0, 1.6541557216636596E9, 0.0, 2022-06-02 09:42:01.663
27.0, 25903.74957367773, -4788.95065652736, -60646.831768373464, -37242.90129457728, -11485.46624010399, -35430.30892971861, -4928.269079717288, -26206.79452500278, -0.03, 0.92, 0.45, 192.0, 255.0, 16.0, 28.0, 192.0, 14.0, 16.0, 0.0, 0.0, 0.0, 1.6541557216636662E9, 0.0, 2022-06-02 09:42:01.663
28.0, 25873.619422151976, -4788.034235004692, -60644.462483461204, -37237.87215207484, -11481.688795291042, -35422.95520579281, -4910.879422531059, -26177.781960699795, -0.03, 0.92, 0.45, 192.0, 0.0, 0.0, 0.0, 0.0, 0.0, 0.0, 0.0, 0.0, 0.0, 1.654155721663672E9, 0.0, 2022-06-02 09:42:01.663
29.0, 25871.674820384364, -4801.534688655697, -60655.4148382443, -37252.08786154841, -11484.482763347956, -35430.59950239653, -4910.432387641953, -26183.32519332471, -0.03, 0.92, 0.45, 192.0, 0.0, 0.0, 0.0, 0.0, 0.0, 0.0, 0.0, 0.0, 0.0, 1.6541557216636798E9, 0.0, 2022-06-02 09:42:01.663
30.0, 25880.347297233024, -4807.94963931437, -60661.76273366961, -37269.030483845534, -11490.025995972872, -35445.932799092865, -4931.554786152218, -26216.159905929555, -0.03, 0.92, 0.45, 192.0, 0.0, 0.0, 0.0, 0.0, 0.0, 0.0, 0.0, 0.0, 0.0, 1.6541557216636865E9, 0.0, 2022-06-02 09:42:01.663
31.0, 25902.050841099124, -4806.787348602695, -60666.970690127695, -37266.77295765554, -11497.156202454114, -35451.69954916234, -4943.647079902539, -26207.643891292086, -0.03, 0.92, 0.45, 192.0, 0.0, 0.0, 0.0, 0.0, 0.0, 0.0, 0.0, 0.0, 0.0, 1.6541557216636927E9, 0.0, 2022-06-02 09:42:01.663
32.0, 25901.961434121306, -4800.975895044315, -60658.61113770141, -37254.904181349775, -11492.685853563054, -35437.93087457787, -4927.576175639174, -26185.985050914893, -0.03, 0.92, 0.45, 192.0, 0.0, 0.0, 0.0, 0.0, 0.0, 0.0, 0.0, 0.0, 0.0, 1.6541557216637003E9, 0.0, 2022-06-02 09:42:01.663
33.0, 25892.88662587245, -4795.611476375041, -60649.55868119701, -37249.807983613966, -11480.258283645902, -35433.19230475334, -4901.782262537749, -26195.61865277513, -0.03, 0.92, 0.45, 192.0, 0.0, 0.0, 0.0, 0.0, 0.0, 0.0, 0.0, 0.0, 0.0, 1.6541557216637082E9, 0.0, 2022-06-02 09:42:01.663
34.0, 25881.040201311138, -4788.436566404887, -60640.52857643707, -37241.15785850977, -11466.579016039255, -35427.15733375041, -4899.59179158113, -26196.468019064432, -0.03, 0.92, 0.45, 192.0, 0.0, 0.0, 0.0, 0.0, 0.0, 0.0, 0.0, 0.0, 0.0, 1.654155721663715E9, 0.0, 2022-06-02 09:42:01.663
35.0, 25873.39590470742, -4800.081825266102, -60655.68305917777, -37257.51933545105, -11480.12417317917, -35441.39539496844, -4928.693762861939, -26211.980129716412, -0.03, 0.92, 0.45, 192.0, 0.0, 0.0, 0.0, 0.0, 0.0, 0.0, 0.0, 0.0, 0.0, 1.6541557216637204E9, 0.0, 2022-06-02 09:42:01.663
36.0, 25874.625250652465, -4805.021560790725, -60660.71220168021, -37263.733120409626, -11488.461373861, -35448.50324970523, -4926.726809349872, -26203.866446479136, -0.03, 0.92, 0.45, 192.0, 0.0, 0.0, 0.0, 0.0, 0.0, 0.0, 0.0, 0.0, 0.0, 1.654155721663726E9, 0.0, 2022-06-02 09:42:01.663
37.0, 25878.089771043036, -4801.959371800348, -60648.32933525197, -37254.904181349775, -11483.119306936182, -35438.2661507447, -4923.597565126129, -26187.795542215772, -0.03, 0.922, 0.448, 192.0, 255.0, 16.0, 28.0, 208.0, 14.0, 0.0, 0.0, 0.0, 0.0, 1.6541557216637335E9, 0.0, 2022-06-02 09:42:01.663
38.0, 25892.484294472255, -4789.71061583884, -60638.583974669455, -37248.66804464675, -11477.263149888891, -35423.089316259546, -4926.592698883141, -26194.054030663257, -0.03, 0.922, 0.448, 192.0, 0.0, 0.0, 0.0, 0.0, 0.0, 0.0, 0.0, 0.0, 0.0, 1.6541557216637416E9, 0.0, 2022-06-02 09:42:01.663
39.0, 25908.55519873562, -4784.368548914022, -60634.71712287869, -37236.82162008544, -11467.093106161727, -35415.176798722365, -4894.517945589775, -26178.832492689195, -0.03, 0.922, 0.448, 192.0, 0.0, 0.0, 0.0, 0.0, 0.0, 0.0, 0.0, 0.0, 0.0, 1.6541557216637473E9, 0.0, 2022-06-02 09:42:01.663
40.0, 25904.12955333347, -4794.918572296926, -60643.702524149725, -37240.6884718762, -11471.295234119325, -35430.62185414098, -4905.872631773071, -26208.560312814752, -0.03, 0.922, 0.448, 192.0, 0.0, 0.0, 0.0, 0.0, 0.0, 0.0, 0.0, 0.0, 0.0, 1.6541557216637533E9, 0.0, 2022-06-02 09:42:01.663
41.0, 25909.56102723611, -4792.4822321512975, -60644.97657358368, -37245.292931234, -11481.755850524409, -35434.600464654024, -4913.315762676688, -26216.696347796482, -0.03, 0.922, 0.448, 192.0, 0.0, 0.0, 0.0, 0.0, 0.0, 0.0, 0.0, 0.0, 0.0, 1.6541557216637597E9, 0.0, 2022-06-02 09:42:01.663
42.0, 25920.356919808022, -4779.18294420039, -60637.28757349105, -37235.86049507386, -11477.777240011364, -35425.34684244953, -4918.255498201311, -26184.46513229193, -0.03, 0.922, 0.448, 192.0, 0.0, 0.0, 0.0, 0.0, 0.0, 0.0, 0.0, 0.0, 0.0, 1.6541557216637676E9, 0.0, 2022-06-02 09:42:01.663
43.0, 25901.872027143483, -4765.5930835715635, -60626.62579138587, -37223.56703562344, -11465.193207883027, -35412.60634811001, -4910.566498108685, -26178.89954792256, -0.03, 0.922, 0.448, 192.0, 0.0, 0.0, 0.0, 0.0, 0.0, 0.0, 0.0, 0.0, 0.0, 1.6541557216637778E9, 0.0, 2022-06-02 09:42:01.663
44.0, 25899.882721886963, -4769.884618506982, -60626.916364063785, -37223.61173911235, -11463.740344493432, -35412.58399636555, -4889.3323408761435, -26174.026867631303, -0.03, 0.922, 0.448, 192.0, 0.0, 0.0, 0.0, 0.0, 0.0, 0.0, 0.0, 0.0, 0.0, 1.654155721663783E9, 0.0, 2022-06-02 09:42:01.663
45.0, 25903.526056233175, -4787.162516970935, -60643.05432356052, -37237.76039335256, -11475.139734165637, -35429.39250819594, -4901.670503815473, -26187.57202477122, -0.03, 0.922, 0.448, 192.0, 0.0, 0.0, 0.0, 0.0, 0.0, 0.0, 0.0, 0.0, 0.0, 1.6541557216637886E9, 0.0, 2022-06-02 09:42:01.663
46.0, 25894.115971817493, -4792.169307728924, -60652.6655736763, -37249.49505919159, -11486.963806982494, -35436.366252465996, -4924.938669793448, -26210.19199015999, -0.03, 0.922, 0.448, 192.0, 0.0, 0.0, 0.0, 0.0, 0.0, 0.0, 0.0, 0.0, 0.0, 1.654155721663794E9, 0.0, 2022-06-02 09:42:01.663
47.0, 25896.12762881847, -4786.536668126187, -60643.68017240527, -37239.99556779809, -11478.000757455917, -35424.63158662696, -4912.533451620752, -26195.2833766083, -0.034, 0.918, 0.448, 192.0, 254.0, 240.0, 28.0, 176.0, 14.0, 0.0, 0.0, 0.0, 0.0, 1.6541557216638005E9, 0.0, 2022-06-02 09:42:01.663
48.0, 25910.499800503232, -4778.110060466535, -60630.93967806574, -37230.25020721558, -11463.047440415316, -35411.62287135397, -4906.520832362275, -26185.694478236972, -0.034, 0.918, 0.448, 192.0, 0.0, 0.0, 0.0, 0.0, 0.0, 0.0, 0.0, 0.0, 0.0, 1.6541557216638064E9, 0.0, 2022-06-02 09:42:01.663
49.0, 25911.617387725997, -4787.989531515781, -60640.93090783727, -37239.16855325324, -11473.03867018684, -35424.5645313936, -4909.918297519481, -26175.770303698817, -0.034, 0.918, 0.448, 192.0, 0.0, 0.0, 0.0, 0.0, 0.0, 0.0, 0.0, 0.0, 0.0, 1.6541557216638122E9, 0.0, 2022-06-02 09:42:01.663
50.0, 25895.568835207087, -4792.862211807038, -60647.882300362864, -37243.48243993312, -11476.74905976642, -35438.42261295588, -4901.379931137554, -26198.010289431848, -0.034, 0.918, 0.448, 192.0, 0.0, 0.0, 0.0, 0.0, 0.0, 0.0, 0.0, 0.0, 0.0, 1.654155721663819E9, 0.0, 2022-06-02 09:42:01.663
51.0, 25881.93427108935, -4791.923438539915, -60641.93673633775, -37242.09663177689, -11480.437097601545, -35434.53340942066, -4905.291486417233, -26203.866446479136, -0.034, 0.918, 0.448, 192.0, 0.0, 0.0, 0.0, 0.0, 0.0, 0.0, 0.0, 0.0, 0.0, 1.6541557216638262E9, 0.0, 2022-06-02 09:42:01.663
52.0, 25893.512474717198, -4781.731043068296, -60631.47611993267, -37234.74290785109, -11480.057117945806, -35425.4138976829, -4912.8687277875815, -26196.892702209083, -0.034, 0.918, 0.448, 192.0, 0.0, 0.0, 0.0, 0.0, 0.0, 0.0, 0.0, 0.0, 0.0, 1.6541557216638324E9, 0.0, 2022-06-02 09:42:01.663
53.0, 25901.872027143483, -4771.225723174301, -60622.98245703965, -37231.88188456081, -11471.563455052788, -35417.61313886799, -4904.844451528126, -26212.80714426126, -0.034, 0.918, 0.448, 192.0, 0.0, 0.0, 0.0, 0.0, 0.0, 0.0, 0.0, 0.0, 0.0, 1.6541557216638384E9, 0.0, 2022-06-02 09:42:01.663
54.0, 25894.83122764006, -4776.053699976647, -60631.252602488115, -37235.614625884846, -11475.095030676726, -35425.615063383, -4904.799748039216, -26212.225998905422, -0.034, 0.918, 0.448, 192.0, 0.0, 0.0, 0.0, 0.0, 0.0, 0.0, 0.0, 0.0, 0.0, 1.6541557216638448E9, 0.0, 2022-06-02 09:42:01.663
55.0, 25904.420126011388, -4781.060490734636, -60637.04170430204, -37236.01695728504, -11476.547894066322, -35428.56549365109, -4910.946477764425, -26168.349524539655, -0.034, 0.918, 0.448, 192.0, 0.0, 0.0, 0.0, 0.0, 0.0, 0.0, 0.0, 0.0, 0.0, 1.6541557216638515E9, 0.0, 2022-06-02 09:42:01.663
56.0, 25899.614500953496, -4786.402557659454, -60642.83080611597, -37243.571846910934, -11485.80151627082, -35433.147601264434, -4928.559652395207, -26187.013231159835, -0.034, 0.918, 0.448, 192.0, 0.0, 0.0, 0.0, 0.0, 0.0, 0.0, 0.0, 0.0, 0.0, 1.6541557216638567E9, 0.0, 2022-06-02 09:42:01.663
57.0, 25897.93812011935, -4784.815583803128, -60641.15442528182, -37246.097594034385, -11488.37196688318, -35431.62768264147, -4931.353620452121, -26222.887781010602, -0.028, 0.92, 0.45, 192.0, 255.0, 32.0, 28.0, 192.0, 14.0, 16.0, 0.0, 0.0, 0.0, 1.6541557216638632E9, 0.0, 2022-06-02 09:42:01.663
58.0, 25907.32585279058, -4774.936112753882, -60630.403236198814, -37234.11705900634, -11476.74905976642, -35423.20107498182, -4908.398378896521, -26196.55742604225, -0.028, 0.92, 0.45, 192.0, 0.0, 0.0, 0.0, 0.0, 0.0, 0.0, 0.0, 0.0, 0.0, 1.654155721663869E9, 0.0, 2022-06-02 09:42:01.663
59.0, 25922.256818086724, -4766.777726027694, -60617.01454127009, -37219.85664604386, -11461.102838647705, -35412.96397602129, -4879.8775529715485, -26153.664428432516, -0.028, 0.92, 0.45, 192.0, 0.0, 0.0, 0.0, 0.0, 0.0, 0.0, 0.0, 0.0, 0.0, 1.6541557216638749E9, 0.0, 2022-06-02 09:42:01.663
60.0, 25916.55712325062, -4772.119792952513, -60616.45574765871, -37224.72932633512, -11462.779219481852, -35415.22150221127, -4894.830870012149, -26174.049219375756, -0.028, 0.92, 0.45, 192.0, 0.0, 0.0, 0.0, 0.0, 0.0, 0.0, 0.0, 0.0, 0.0, 1.6541557216638808E9, 0.0, 2022-06-02 09:42:01.663
61.0, 25905.537713234153, -4769.616397573519, -60614.86877380238, -37223.27646294552, -11463.226254370958, -35413.34395567703, -4906.498480617819, -26201.027774933315, -0.028, 0.92, 0.45, 192.0, 0.0, 0.0, 0.0, 0.0, 0.0, 0.0, 0.0, 0.0, 0.0, 1.6541557216638865E9, 0.0, 2022-06-02 09:42:01.663
62.0, 25901.380288765467, -4770.979853985293, -60622.557773895, -37230.63018687131, -11470.825847485763, -35414.81917081108, -4912.600506854118, -26195.439838819486, -0.028, 0.92, 0.45, 192.0, 0.0, 0.0, 0.0, 0.0, 0.0, 0.0, 0.0, 0.0, 0.0, 1.6541557216638925E9, 0.0, 2022-06-02 09:42:01.663
63.0, 25930.281094346177, -4759.178132912891, -60612.0077505121, -37220.594253610885, -11461.169893881071, -35403.44213288333, -4898.96594273638, -26173.356315297642, -0.028, 0.92, 0.45, 192.0, 0.0, 0.0, 0.0, 0.0, 0.0, 0.0, 0.0, 0.0, 0.0, 1.654155721663898E9, 0.0, 2022-06-02 09:42:01.663
64.0, 25931.488088546765, -4756.026536944692, -60612.723006334665, -37219.07433498792, -11458.152408379605, -35403.799760794616, -4899.748253792316, -26175.211510087433, -0.028, 0.92, 0.45, 192.0, 0.0, 0.0, 0.0, 0.0, 0.0, 0.0, 0.0, 0.0, 0.0, 1.654155721663906E9, 0.0, 2022-06-02 09:42:01.663
65.0, 25929.901114690438, -4761.055679447136, -60626.89401231933, -37233.29004446149, -11465.975518938962, -35421.39058368094, -4913.718094076883, -26198.27851036531, -0.028, 0.92, 0.45, 192.0, 0.0, 0.0, 0.0, 0.0, 0.0, 0.0, 0.0, 0.0, 0.0, 1.654155721663911E9, 0.0, 2022-06-02 09:42:01.663
66.0, 25910.008062125216, -4763.871999248505, -60636.30409673502, -37241.001396298576, -11481.5099813354, -35434.57811290957, -4933.432332686464, -26221.323158898733, -0.028, 0.92, 0.45, 192.0, 0.0, 0.0, 0.0, 0.0, 0.0, 0.0, 0.0, 0.0, 0.0, 1.654155721663916E9, 0.0, 2022-06-02 09:42:01.663
67.0, 25897.155809063413, -4758.731098023784, -60631.16319551029, -37231.8371810719, -11480.459449346, -35425.70447036081, -4922.815254070193, -26192.824684718216, -0.034, 0.916, 0.456, 192.0, 254.0, 240.0, 28.0, 160.0, 14.0, 64.0, 0.0, 0.0, 0.0, 1.6541557216639218E9, 0.0, 2022-06-02 09:42:01.663
68.0, 25909.382213280467, -4755.758316011228, -60625.95523905221, -37228.46206765915, -11474.044498687328, -35418.954243535314, -4916.6238208560735, -26193.785809729794, -0.034, 0.916, 0.456, 192.0, 0.0, 0.0, 0.0, 0.0, 0.0, 0.0, 0.0, 0.0, 0.0, 1.6541557216639304E9, 0.0, 2022-06-02 09:42:01.663
69.0, 25919.999291896736, -4759.669871290907, -60624.14474775133, -37229.55730313746, -11468.478914317957, -35419.28951970214, -4905.246782928322, -26176.17263509901, -0.034, 0.916, 0.456, 192.0, 0.0, 0.0, 0.0, 0.0, 0.0, 0.0, 0.0, 0.0, 0.0, 1.654155721663937E9, 0.0, 2022-06-02 09:42:01.663
70.0, 25902.050841099124, -4776.187810443379, -60640.975611326176, -37242.49896317708, -11479.721841778975, -35442.13300253546, -4914.299239432721, -26187.14734162657, -0.034, 0.916, 0.456, 192.0, 0.0, 0.0, 0.0, 0.0, 0.0, 0.0, 0.0, 0.0, 0.0, 1.6541557216639435E9, 0.0, 2022-06-02 09:42:01.663
71.0, 25883.655355412408, -4786.648426848463, -60654.65487893282, -37255.686492405715, -11497.960865254507, -35456.080491075576, -4937.5227019217855, -26236.947028272993, -0.034, 0.916, 0.456, 192.0, 0.0, 0.0, 0.0, 0.0, 0.0, 0.0, 0.0, 0.0, 0.0, 1.654155721663953E9, 0.0, 2022-06-02 09:42:01.663
72.0, 25892.528997961166, -4776.61249358803, -60637.98047756917, -37237.38041369682, -11483.566341825288, -35434.64516814294, -4926.8385680721485, -26192.690574251483, -0.034, 0.916, 0.456, 192.0, 0.0, 0.0, 0.0, 0.0, 0.0, 0.0, 0.0, 0.0, 0.0, 1.6541557216639593E9, 0.0, 2022-06-02 09:42:01.663
73.0, 25900.41916375389, -4767.113002194525, -60629.151538509315, -37235.74873635158, -11472.345766108725, -35422.01643252569, -4916.422655155976, -26181.224129345912, -0.034, 0.916, 0.456, 192.0, 0.0, 0.0, 0.0, 0.0, 0.0, 0.0, 0.0, 0.0, 0.0, 1.6541557216639657E9, 0.0, 2022-06-02 09:42:01.663
74.0, 25909.89630340294, -4764.4754963487985, -60629.12918676486, -37235.972253796135, -11473.21748414248, -35423.357537193006, -4906.520832362275, -26201.430106333508, -0.034, 0.916, 0.456, 192.0, 0.0, 0.0, 0.0, 0.0, 0.0, 0.0, 0.0, 0.0, 0.0, 1.6541557216639724E9, 0.0, 2022-06-02 09:42:01.663
75.0, 25908.04110861315, -4769.28112140669, -60635.00769555661, -37234.94407355119, -11473.910388220596, -35424.1621999934, -4897.06604445768, -26185.26979509232, -0.034, 0.916, 0.456, 192.0, 0.0, 0.0, 0.0, 0.0, 0.0, 0.0, 0.0, 0.0, 0.0, 1.6541557216639793E9, 0.0, 2022-06-02 09:42:01.663
76.0, 25902.184951565858, -4771.89627550796, -60641.109721792905, -37242.61072189936, -11481.577036568766, -35428.78901109564, -4914.790977810738, -26206.682766280504, -0.034, 0.916, 0.456, 192.0, 0.0, 0.0, 0.0, 0.0, 0.0, 0.0, 0.0, 0.0, 0.0, 1.6541557216639855E9, 0.0, 2022-06-02 09:42:01.663
77.0, 25904.12955333347, -4764.296682393156, -60635.76765486809, -37239.03444278651, -11475.475010332468, -35424.31866220458, -4912.041713242736, -26199.507856310353, -0.032, 0.918, 0.456, 192.0, 255.0, 0.0, 28.0, 176.0, 14.0, 64.0, 0.0, 0.0, 0.0, 1.654155721663992E9, 0.0, 2022-06-02 09:42:01.663
78.0, 25905.06832660059, -4763.357909126033, -60634.38184671186, -37238.5874078974, -11473.686870776042, -35419.15540923541, -4905.693817817428, -26168.707152450937, -0.032, 0.918, 0.456, 192.0, 0.0, 0.0, 0.0, 0.0, 0.0, 0.0, 0.0, 0.0, 0.0, 1.654155721663999E9, 0.0, 2022-06-02 09:42:01.663
79.0, 25908.666957457895, -4759.3122433796225, -60631.543175166036, -37237.60393114137, -11470.959957952495, -35420.92119704738, -4917.026152256269, -26193.65169926306, -0.032, 0.918, 0.456, 192.0, 0.0, 0.0, 0.0, 0.0, 0.0, 0.0, 0.0, 0.0, 0.0, 1.6541557216640067E9, 0.0, 2022-06-02 09:42:01.664
80.0, 25909.42691676938, -4775.047871476158, -60649.357515496915, -37258.72632965164, -11480.392394112634, -35442.40122346893, -4934.236995486855, -26237.394063162097, -0.032, 0.918, 0.456, 192.0, 0.0, 0.0, 0.0, 0.0, 0.0, 0.0, 0.0, 0.0, 0.0, 1.654155721664013E9, 0.0, 2022-06-02 09:42:01.664
81.0, 25910.946835392337, -4774.645540075963, -60649.69279166374, -37256.20058252819, -11487.880228505162, -35439.383737967466, -4936.829797843671, -26181.55940551274, -0.032, 0.918, 0.456, 192.0, 0.0, 0.0, 0.0, 0.0, 0.0, 0.0, 0.0, 0.0, 0.0, 1.6541557216640203E9, 0.0, 2022-06-02 09:42:01.664
82.0, 25913.003195882226, -4768.476458606298, -60634.739474623144, -37241.82841084342, -11478.17957141156, -35427.09027851704, -4917.361428423099, -26162.068684347712, -0.032, 0.918, 0.456, 192.0, 0.0, 0.0, 0.0, 0.0, 0.0, 0.0, 0.0, 0.0, 0.0, 1.6541557216640277E9, 0.0, 2022-06-02 09:42:01.664
83.0, 25919.68636747436, -4755.13246716648, -60613.37120692387, -37221.60008211137, -11454.911405433584, -35406.77254280717, -4888.192401908923, -26187.683783493496, -0.032, 0.918, 0.456, 192.0, 0.0, 0.0, 0.0, 0.0, 0.0, 0.0, 0.0, 0.0, 0.0, 1.6541557216640348E9, 0.0, 2022-06-02 09:42:01.664
84.0, 25912.84673367104, -4764.296682393156, -60619.54028839354, -37232.328919449916, -11458.241815357425, -35416.27203420067, -4895.791995023727, -26187.907300938048, -0.032, 0.918, 0.456, 192.0, 0.0, 0.0, 0.0, 0.0, 0.0, 0.0, 0.0, 0.0, 0.0, 1.6541557216640415E9, 0.0, 2022-06-02 09:42:01.664
85.0, 25908.152867335426, -4771.918627252416, -60627.117529763884, -37239.883809075814, -11460.78991422533, -35422.307005203606, -4899.614143325584, -26192.377649829108, -0.032, 0.918, 0.456, 192.0, 0.0, 0.0, 0.0, 0.0, 0.0, 0.0, 0.0, 0.0, 0.0, 1.6541557216640482E9, 0.0, 2022-06-02 09:42:01.664
86.0, 25898.31809977509, -4785.620246603518, -60646.72000965119, -37248.980969069125, -11484.192190670037, -35437.617950155494, -4928.313783206199, -26213.164772172546, -0.032, 0.918, 0.456, 192.0, 0.0, 0.0, 0.0, 0.0, 0.0, 0.0, 0.0, 0.0, 0.0, 1.6541557216640587E9, 0.0, 2022-06-02 09:42:01.664
87.0, 25913.204361582324, -4773.974987742304, -60637.9134223358, -37238.9897392976, -11479.565379567788, -35432.83467684206, -4927.4867686613525, -26211.980129716412, -0.03, 0.918, 0.45, 192.0, 255.0, 16.0, 28.0, 176.0, 14.0, 16.0, 0.0, 0.0, 0.0, 1.6541557216640651E9, 0.0, 2022-06-02 09:42:01.664
88.0, 25935.80197522664, -4762.240321903268, -60622.647180872824, -37227.52329439203, -11461.192245625525, -35417.36726967899, -4893.646227556018, -26181.648812490563, -0.03, 0.918, 0.45, 192.0, 0.0, 0.0, 0.0, 0.0, 0.0, 0.0, 0.0, 0.0, 0.0, 1.6541557216640704E9, 0.0, 2022-06-02 09:42:01.664
89.0, 25917.317082562102, -4757.792324756661, -60616.94748603672, -37218.64965184327, -11449.546986764311, -35407.86777828548, -4877.687082014929, -26164.728541937893, -0.03, 0.918, 0.45, 192.0, 0.0, 0.0, 0.0, 0.0, 0.0, 0.0, 0.0, 0.0, 0.0, 1.6541557216640756E9, 0.0, 2022-06-02 09:42:01.664
90.0, 25887.23163452526, -4767.336519639078, -60634.94064032324, -37233.13358225031, -11461.102838647705, -35422.41876392588, -4899.927067747959, -26188.443742804975, -0.03, 0.918, 0.45, 192.0, 0.0, 0.0, 0.0, 0.0, 0.0, 0.0, 0.0, 0.0, 0.0, 1.6541557216640809E9, 0.0, 2022-06-02 09:42:01.664
91.0, 25903.83898065555, -4775.249037176256, -60645.55771893951, -37244.39886145578, -11477.576074311266, -35433.30406347562, -4919.887175546548, -26190.254234105854, -0.03, 0.918, 0.45, 192.0, 0.0, 0.0, 0.0, 0.0, 0.0, 0.0, 0.0, 0.0, 0.0, 1.654155721664086E9, 0.0, 2022-06-02 09:42:01.664
92.0, 25913.673748215886, -4771.248074918756, -60639.76861712559, -37239.28031197552, -11479.878303990163, -35422.99990928172, -4917.763759823294, -26182.81110320224, -0.03, 0.918, 0.45, 192.0, 0.0, 0.0, 0.0, 0.0, 0.0, 0.0, 0.0, 0.0, 0.0, 1.6541557216640913E9, 0.0, 2022-06-02 09:42:01.664
93.0, 25903.25783529971, -4761.458010847332, -60623.22832622866, -37232.10540200536, -11464.433248571546, -35411.73463007625, -4899.882364259049, -26165.577908227195, -0.03, 0.918, 0.45, 192.0, 0.0, 0.0, 0.0, 0.0, 0.0, 0.0, 0.0, 0.0, 0.0, 1.6541557216640968E9, 0.0, 2022-06-02 09:42:01.664
94.0, 25904.286015544658, -4765.280159149189, -60625.798776841024, -37225.80221006897, -11464.50030380491, -35419.71420284679, -4895.6131810680845, -26176.440856032474, -0.03, 0.918, 0.45, 192.0, 0.0, 0.0, 0.0, 0.0, 0.0, 0.0, 0.0, 0.0, 0.0, 1.6541557216641042E9, 0.0, 2022-06-02 09:42:01.664
95.0, 25893.691288672842, -4787.56484837113, -60652.12913180937, -37247.1928295127, -11485.98033022646, -35446.67040665989, -4917.316724934188, -26226.061728723256, -0.03, 0.918, 0.45, 192.0, 0.0, 0.0, 0.0, 0.0, 0.0, 0.0, 0.0, 0.0, 0.0, 1.6541557216641095E9, 0.0, 2022-06-02 09:42:01.664
96.0, 25893.579529950566, -4792.750453084762, -60660.37692551338, -37257.67579766224, -11500.553667611322, -35454.739386408255, -4936.986260054858, -26212.293054138787, -0.03, 0.918, 0.45, 192.0, 0.0, 0.0, 0.0, 0.0, 0.0, 0.0, 0.0, 0.0, 0.0, 1.6541557216641147E9, 0.0, 2022-06-02 09:42:01.664
97.0, 25898.78748640865, -4773.907932508938, -60636.840538601944, -37237.38041369682, -11484.683929048053, -35428.83371458456, -4921.742370336338, -26173.08809436418, -0.026000000000000002, 0.918, 0.448, 192.0, 255.0, 48.0, 28.0, 176.0, 14.0, 0.0, 0.0, 0.0, 0.0, 1.6541557216641197E9, 0.0, 2022-06-02 09:42:01.664
98.0, 25913.003195882226, -4757.4346968453765, -60623.18362273975, -37223.16470422324, -11470.512923063388, -35415.71324058929, -4910.253573686311, -26173.713943208928, -0.026000000000000002, 0.918, 0.448, 192.0, 0.0, 0.0, 0.0, 0.0, 0.0, 0.0, 0.0, 0.0, 0.0, 1.654155721664125E9, 0.0, 2022-06-02 09:42:01.664
99.0, 25931.353978080035, -4751.489132820265, -60624.2118029847, -37224.706974590656, -11466.668423017076, -35414.43919115534, -4911.30410567571, -26186.163864870534, -0.026000000000000002, 0.918, 0.448, 192.0, 0.0, 0.0, 0.0, 0.0, 0.0, 0.0, 0.0, 0.0, 0.0, 1.6541557216641304E9, 0.0, 2022-06-02 09:42:01.664
100.0, 25935.019664170704, -4751.422077586899, -60629.59857339843, -37231.54660839398, -11467.875417217663, -35425.74917384973, -4904.889155017037, -26190.678917250505, -0.026000000000000002, 0.918, 0.448, 192.0, 0.0, 0.0, 0.0, 0.0, 0.0, 0.0, 0.0, 0.0, 0.0, 1.6541557216641357E9, 0.0, 2022-06-02 09:42:01.664
101.0, 25916.2665505727, -4762.84381900356, -60630.67145713228, -37232.17245723873, -11479.028937700861, -35433.50522917572, -4909.717131819383, -26186.454437548455, -0.026000000000000002, 0.918, 0.448, 192.0, 0.0, 0.0, 0.0, 0.0, 0.0, 0.0, 0.0, 0.0, 0.0, 1.6541557216641407E9, 0.0, 2022-06-02 09:42:01.664
102.0, 25913.025547626683, -4757.389993356466, -60615.85225055841, -37224.21523621264, -11469.328280607258, -35423.223426726276, -4904.397416639021, -26186.32032708172, -0.026000000000000002, 0.918, 0.448, 192.0, 0.0, 0.0, 0.0, 0.0, 0.0, 0.0, 0.0, 0.0, 0.0, 1.654155721664146E9, 0.0, 2022-06-02 09:42:01.664
103.0, 25914.590169738553, -4753.143161909958, -60614.48879414664, -37227.925625792224, -11465.41672532758, -35423.73751684875, -4909.180689952456, -26199.686670265994, -0.026000000000000002, 0.918, 0.448, 192.0, 0.0, 0.0, 0.0, 0.0, 0.0, 0.0, 0.0, 0.0, 0.0, 1.6541557216641512E9, 0.0, 2022-06-02 09:42:01.664
104.0, 25921.407451797422, -4752.763182254217, -60618.13212849285, -37231.43484967171, -11463.6062340267, -35424.69864186033, -4909.091282974635, -26201.31834761123, -0.026000000000000002, 0.918, 0.448, 192.0, 0.0, 0.0, 0.0, 0.0, 0.0, 0.0, 0.0, 0.0, 0.0, 1.6541557216641576E9, 0.0, 2022-06-02 09:42:01.664
105.0, 25929.409376312422, -4760.854513747038, -60631.543175166036, -37247.55045742398, -11475.810286499296, -35438.13204027797, -4925.11748374909, -26213.723565783926, -0.026000000000000002, 0.918, 0.448, 192.0, 0.0, 0.0, 0.0, 0.0, 0.0, 0.0, 0.0, 0.0, 0.0, 1.6541557216641629E9, 0.0, 2022-06-02 09:42:01.664
106.0, 25911.550332492632, -4764.341385882066, -60636.929945579766, -37255.820602872445, -11487.589655827243, -35442.17770602438, -4933.298222219732, -26201.966548200435, -0.026000000000000002, 0.918, 0.448, 192.0, 0.0, 0.0, 0.0, 0.0, 0.0, 0.0, 0.0, 0.0, 0.0, 1.6541557216641681E9, 0.0, 2022-06-02 09:42:01.664
107.0, 25909.65043421393, -4758.105249179036, -60631.29730597703, -37246.96931206815, -11486.874400004674, -35432.27588323067, -4941.478960690375, -26175.502082765353, -0.026000000000000002, 0.922, 0.442, 192.0, 255.0, 48.0, 28.0, 208.0, 13.0, 208.0, 0.0, 0.0, 0.0, 1.6541557216641757E9, 0.0, 2022-06-02 09:42:01.664
108.0, 25934.52792579269, -4748.3375368520665, -60626.37992219686, -37242.118983521344, -11480.682966790553, -35424.20690348231, -4943.401210713531, -26173.244556575366, -0.026000000000000002, 0.922, 0.442, 192.0, 0.0, 0.0, 0.0, 0.0, 0.0, 0.0, 0.0, 0.0, 0.0, 1.654155721664181E9, 0.0, 2022-06-02 09:42:01.664
109.0, 25933.23152461428, -4751.735002009274, -60632.10196877742, -37248.57863766893, -11483.074603447272, -35428.96782505129, -4939.087324033657, -26207.0850976807, -0.026000000000000002, 0.922, 0.442, 192.0, 0.0, 0.0, 0.0, 0.0, 0.0, 0.0, 0.0, 0.0, 0.0, 1.6541557216641865E9, 0.0, 2022-06-02 09:42:01.664
110.0, 25900.687384687353, -4755.221874144301, -60634.85123334542, -37243.862419588855, -11479.386565612145, -35437.14856352193, -4920.669486602484, -26219.065632708745, -0.026000000000000002, 0.922, 0.442, 192.0, 0.0, 0.0, 0.0, 0.0, 0.0, 0.0, 0.0, 0.0, 0.0, 1.6541557216641915E9, 0.0, 2022-06-02 09:42:01.664
111.0, 25898.653375941918, -4754.998356699748, -60635.655896145814, -37246.47757369013, -11482.739327280442, -35438.333205978066, -4924.446931415431, -26216.875161752127, -0.026000000000000002, 0.922, 0.442, 192.0, 0.0, 0.0, 0.0, 0.0, 0.0, 0.0, 0.0, 0.0, 0.0, 1.6541557216641967E9, 0.0, 2022-06-02 09:42:01.664
112.0, 25901.939082376848, -4752.025574687192, -60628.101006519915, -37240.95669280967, -11482.18053366906, -35426.39737443893, -4921.138873236046, -26189.42721956101, -0.026000000000000002, 0.922, 0.442, 192.0, 0.0, 0.0, 0.0, 0.0, 0.0, 0.0, 0.0, 0.0, 0.0, 1.654155721664202E9, 0.0, 2022-06-02 09:42:01.664
113.0, 25921.072175630594, -4743.978946683282, -60618.176831981764, -37235.07818401792, -11470.60233004121, -35412.58399636555, -4913.159300465501, -26160.41465525802, -0.026000000000000002, 0.922, 0.442, 192.0, 0.0, 0.0, 0.0, 0.0, 0.0, 0.0, 0.0, 0.0, 0.0, 1.6541557216642072E9, 0.0, 2022-06-02 09:42:01.664
114.0, 25919.32873956308, -4747.644632773952, -60618.06507325949, -37231.770125838535, -11465.41672532758, -35415.02033651118, -4897.133099691046, -26168.505986750843, -0.026000000000000002, 0.922, 0.442, 192.0, 0.0, 0.0, 0.0, 0.0, 0.0, 0.0, 0.0, 0.0, 0.0, 1.6541557216642125E9, 0.0, 2022-06-02 09:42:01.664
115.0, 25925.90015243294, -4747.376411840488, -60619.98732328264, -37226.40570716926, -11462.958033437495, -35415.82499931157, -4897.624838069062, -26182.520530524318, -0.026000000000000002, 0.922, 0.442, 192.0, 0.0, 0.0, 0.0, 0.0, 0.0, 0.0, 0.0, 0.0, 0.0, 1.6541557216642177E9, 0.0, 2022-06-02 09:42:01.664
116.0, 25928.89528618995, -4759.044022446158, -60639.76861712559, -37240.733175365116, -11483.141658680637, -35430.62185414098, -4924.648097115529, -26205.05108893527, -0.026000000000000002, 0.932, 0.446, 192.0, 255.0, 48.0, 29.0, 32.0, 13.0, 240.0, 0.0, 0.0, 0.0, 1.6541557216642227E9, 0.0, 2022-06-02 09:42:01.664
117.0, 25923.84379194305, -4760.161609668924, -60645.937698595255, -37246.7904981125, -11488.997815727927, -35433.39347045344, -4929.565480895696, -26218.171562930533, -0.026000000000000002, 0.932, 0.446, 192.0, 0.0, 0.0, 0.0, 0.0, 0.0, 0.0, 0.0, 0.0, 0.0, 1.6541557216642284E9, 0.0, 2022-06-02 09:42:01.664
118.0, 25928.157678622923, -4754.551321810642, -60637.73460838015, -37241.31432072095, -11485.063908703794, -35428.38667969545, -4924.715152348895, -26167.678972205995, -0.026000000000000002, 0.932, 0.446, 192.0, 0.0, 0.0, 0.0, 0.0, 0.0, 0.0, 0.0, 0.0, 0.0, 1.6541557216642337E9, 0.0, 2022-06-02 09:42:01.664
119.0, 25927.062443144616, -4741.341440837556, -60621.79781458352, -37228.0373845145, -11471.205827141504, -35414.48389464425, -4910.9911812533355, -26169.46711176242, -0.026000000000000002, 0.932, 0.446, 192.0, 0.0, 0.0, 0.0, 0.0, 0.0, 0.0, 0.0, 0.0, 0.0, 1.6541557216642392E9, 0.0, 2022-06-02 09:42:01.664
120.0, 25939.333550850577, -4745.655327517429, -60628.033951286554, -37229.42319267073, -11465.75200149441, -35415.37796442246, -4908.800710296716, -26189.829550961203, -0.026000000000000002, 0.932, 0.446, 192.0, 0.0, 0.0, 0.0, 0.0, 0.0, 0.0, 0.0, 0.0, 0.0, 1.6541557221425471E9, 0.0, 2022-06-02 09:42:02.142
121.0, 25946.70962652083, -4751.958519453826, -60637.66755314679, -37235.56992239594, -11475.385603354645, -35418.48485690175, -4911.617030098085, -26172.574004241706, -0.026000000000000002, 0.932, 0.446, 192.0, 0.0, 0.0, 0.0, 0.0, 0.0, 0.0, 0.0, 0.0, 0.0, 1.6541557221426885E9, 0.0, 2022-06-02 09:42:02.142
122.0, 25938.23831537227, -4739.218025114301, -60630.827919343465, -37225.757506580056, -11472.83750448674, -35408.71714457478, -4904.844451528126, -26183.32519332471, -0.026000000000000002, 0.932, 0.446, 192.0, 0.0, 0.0, 0.0, 0.0, 0.0, 0.0, 0.0, 0.0, 0.0, 1.6541557221426995E9, 0.0, 2022-06-02 09:42:02.142
123.0, 25948.676580032898, -4731.327859321578, -60632.52665192207, -37220.66130884425, -11467.204864884003, -35405.587900351034, -4911.058236486702, -26200.737202255394, -0.026000000000000002, 0.932, 0.446, 192.0, 0.0, 0.0, 0.0, 0.0, 0.0, 0.0, 0.0, 0.0, 0.0, 1.6541557221427302E9, 0.0, 2022-06-02 09:42:02.142
124.0, 25945.65909453143, -4740.335612337067, -60655.4148382443, -37238.5874078974, -11475.586769054744, -35414.93092953336, -4921.384742425053, -26172.864576919626, -0.026000000000000002, 0.932, 0.446, 192.0, 0.0, 0.0, 0.0, 0.0, 0.0, 0.0, 0.0, 0.0, 0.0, 1.6541557221427493E9, 0.0, 2022-06-02 09:42:02.142
125.0, 25940.115861906514, -4744.805961228128, -60655.39248649985, -37240.21908524264, -11475.653824288109, -35420.138885991444, -4924.066951759691, -26188.57785327171, -0.026000000000000002, 0.932, 0.446, 192.0, 0.0, 0.0, 0.0, 0.0, 0.0, 0.0, 0.0, 0.0, 0.0, 1.6541557221427562E9, 0.0, 2022-06-02 09:42:02.142
126.0, 25934.237353114768, -4753.567845054608, -60659.72872492418, -37247.639864401805, -11488.886057005651, -35433.90756057591, -4934.505216420319, -26217.635121063606, -0.032, 0.924, 0.452, 192.0, 255.0, 0.0, 28.0, 224.0, 14.0, 32.0, 0.0, 0.0, 0.0, 1.6541557221427631E9, 0.0, 2022-06-02 09:42:02.142
127.0, 25931.689254246863, -4755.490095077765, -60666.076620349486, -37251.909047592766, -11490.495382606434, -35437.95322632232, -4923.5528616372185, -26199.016117932337, -0.032, 0.924, 0.452, 192.0, 0.0, 0.0, 0.0, 0.0, 0.0, 0.0, 0.0, 0.0, 0.0, 1.6541557221427703E9, 0.0, 2022-06-02 09:42:02.142
128.0, 25943.84860323055, -4741.184978626368, -60654.744285910645, -37238.43094568622, -11474.625644043166, -35429.12428726248, -4909.918297519481, -26195.015155674835, -0.032, 0.924, 0.452, 192.0, 0.0, 0.0, 0.0, 0.0, 0.0, 0.0, 0.0, 0.0, 0.0, 1.6541557221427855E9, 0.0, 2022-06-02 09:42:02.142
129.0, 25951.068216689615, -4732.89248143345, -60647.23409977366, -37234.9887770401, -11461.326356092259, -35419.803609824616, -4898.116576447079, -26196.37861208661, -0.032, 0.924, 0.452, 192.0, 0.0, 0.0, 0.0, 0.0, 0.0, 0.0, 0.0, 0.0, 0.0, 1.6541557221427908E9, 0.0, 2022-06-02 09:42:02.142
130.0, 25960.634763316484, -4737.116961135503, -60653.850216132436, -37241.359024209865, -11464.813228227285, -35423.5139994042, -4919.64130635754, -26215.154077429066, -0.032, 0.924, 0.452, 192.0, 0.0, 0.0, 0.0, 0.0, 0.0, 0.0, 0.0, 0.0, 0.0, 1.654155722142796E9, 0.0, 2022-06-02 09:42:02.142
131.0, 25975.722190823817, -4743.576615283086, -60672.37981228588, -37253.7418906381, -11481.80055401332, -35435.29336873214, -4944.295280491743, -26205.721641268927, -0.032, 0.924, 0.452, 192.0, 0.0, 0.0, 0.0, 0.0, 0.0, 0.0, 0.0, 0.0, 0.0, 1.6541557221428013E9, 0.0, 2022-06-02 09:42:02.142
132.0, 25983.724115338817, -4732.400743055433, -60663.39441101485, -37239.21325674215, -11475.966748710483, -35415.69088884484, -4933.901719320026, -26188.041411404778, -0.032, 0.924, 0.452, 192.0, 0.0, 0.0, 0.0, 0.0, 0.0, 0.0, 0.0, 0.0, 0.0, 1.6541557221428065E9, 0.0, 2022-06-02 09:42:02.142
133.0, 25950.28590563368, -4740.961461181815, -60661.315698780505, -37236.44164042969, -11466.914292206084, -35418.08252550155, -4903.235125927345, -26195.641004519584, -0.032, 0.924, 0.452, 192.0, 0.0, 0.0, 0.0, 0.0, 0.0, 0.0, 0.0, 0.0, 0.0, 1.6541557221428115E9, 0.0, 2022-06-02 09:42:02.142
134.0, 25948.72128352181, -4740.93910943736, -60660.77925691358, -37235.79343984049, -11463.36036483769, -35416.58495862305, -4895.7249397903615, -26182.31936482422, -0.032, 0.924, 0.452, 192.0, 0.0, 0.0, 0.0, 0.0, 0.0, 0.0, 0.0, 0.0, 0.0, 1.654155722142817E9, 0.0, 2022-06-02 09:42:02.142
135.0, 25942.619257285507, -4744.984775183771, -60668.42355351729, -37246.85755334587, -11468.568321295777, -35430.19717099633, -4914.723922577372, -26197.89853070957, -0.032, 0.924, 0.452, 192.0, 0.0, 0.0, 0.0, 0.0, 0.0, 0.0, 0.0, 0.0, 0.0, 1.6541557221428232E9, 0.0, 2022-06-02 09:42:02.142
136.0, 25959.047789460157, -4746.504693806732, -60673.81032393102, -37250.18796326971, -11473.061021931295, -35437.34972922203, -4927.196195983433, -26219.020929219834, -0.03, 0.92, 0.454, 192.0, 255.0, 16.0, 28.0, 192.0, 14.0, 48.0, 0.0, 0.0, 0.0, 1.6541557221428287E9, 0.0, 2022-06-02 09:42:02.142
137.0, 25976.61626060203, -4749.365717097011, -60677.9230449108, -37252.02080631504, -11473.686870776042, -35435.181610009866, -4922.658791859007, -26203.0841354232, -0.03, 0.92, 0.454, 192.0, 0.0, 0.0, 0.0, 0.0, 0.0, 0.0, 0.0, 0.0, 0.0, 1.654155722142834E9, 0.0, 2022-06-02 09:42:02.142
138.0, 25967.4296936309, -4738.5921762695525, -60663.21559705921, -37238.00626254157, -11459.672327002565, -35418.48485690175, -4900.195288681422, -26172.1269693526, -0.03, 0.92, 0.454, 192.0, 0.0, 0.0, 0.0, 0.0, 0.0, 0.0, 0.0, 0.0, 0.0, 1.6541557221428392E9, 0.0, 2022-06-02 09:42:02.142
139.0, 25964.14398719597, -4728.355077309022, -60649.17870154127, -37225.89161704679, -11442.528539005345, -35409.67826958636, -4883.096204173113, -26177.066704877223, -0.03, 0.92, 0.454, 192.0, 0.0, 0.0, 0.0, 0.0, 0.0, 0.0, 0.0, 0.0, 0.0, 1.6541557221428444E9, 0.0, 2022-06-02 09:42:02.142
140.0, 25961.014742972227, -4738.323955336089, -60661.315698780505, -37236.0393090295, -11448.541158263823, -35415.91440628939, -4893.288599644733, -26172.171672841512, -0.03, 0.92, 0.454, 192.0, 0.0, 0.0, 0.0, 0.0, 0.0, 0.0, 0.0, 0.0, 0.0, 1.6541557221428497E9, 0.0, 2022-06-02 09:42:02.142
141.0, 25948.207193399336, -4762.240321903268, -60691.33409158398, -37266.37062625535, -11481.107649935204, -35440.88130484597, -4928.8949285620365, -26210.90724598256, -0.03, 0.92, 0.454, 192.0, 0.0, 0.0, 0.0, 0.0, 0.0, 0.0, 0.0, 0.0, 0.0, 1.6541557221428547E9, 0.0, 2022-06-02 09:42:02.142
142.0, 25958.667809804418, -4749.611586286019, -60674.86085592042, -37251.909047592766, -11477.196094655526, -35429.81719134059, -4929.923108806981, -26215.824629762727, -0.03, 0.92, 0.454, 192.0, 0.0, 0.0, 0.0, 0.0, 0.0, 0.0, 0.0, 0.0, 0.0, 1.65415572214286E9, 0.0, 2022-06-02 09:42:02.142
143.0, 25964.255745918246, -4747.063487418114, -60661.025126102584, -37243.61655039985, -11466.60136778371, -35422.4634674148, -4910.9911812533355, -26192.936443440492, -0.03, 0.92, 0.454, 192.0, 0.0, 0.0, 0.0, 0.0, 0.0, 0.0, 0.0, 0.0, 0.0, 1.6541557221428652E9, 0.0, 2022-06-02 09:42:02.142
144.0, 25973.93405126739, -4741.207330370824, -60656.711239422715, -37244.354157966874, -11457.660670001587, -35415.91440628939, -4891.5004600883085, -26154.357332510634, -0.03, 0.92, 0.454, 192.0, 0.0, 0.0, 0.0, 0.0, 0.0, 0.0, 0.0, 0.0, 0.0, 1.6541557221428704E9, 0.0, 2022-06-02 09:42:02.142
145.0, 25981.533644382198, -4743.420153071899, -60658.7675999126, -37239.459125931164, -11459.739382235932, -35420.92119704738, -4899.59179158113, -26177.625498488607, -0.03, 0.92, 0.454, 192.0, 0.0, 0.0, 0.0, 0.0, 0.0, 0.0, 0.0, 0.0, 0.0, 1.6541557221428757E9, 0.0, 2022-06-02 09:42:02.142
146.0, 25961.819405772618, -4754.305452621634, -60670.3681552849, -37242.16368701025, -11477.397260355623, -35431.80649659711, -4928.380838439565, -26221.09964145418, -0.032, 0.916, 0.454, 192.0, 255.0, 0.0, 28.0, 160.0, 14.0, 48.0, 0.0, 0.0, 0.0, 1.654155722142881E9, 0.0, 2022-06-02 09:42:02.142
147.0, 25962.869937762018, -4750.058621175125, -60666.143675582854, -37239.123849764335, -11476.436135344045, -35427.87258957298, -4928.02321052828, -26211.019004704835, -0.032, 0.916, 0.454, 192.0, 0.0, 0.0, 0.0, 0.0, 0.0, 0.0, 0.0, 0.0, 0.0, 1.654155722142886E9, 0.0, 2022-06-02 09:42:02.142
148.0, 25987.747429340772, -4743.487208305265, -60661.53921622506, -37234.11705900634, -11470.825847485763, -35419.71420284679, -4912.622858598574, -26181.358239812642, -0.032, 0.916, 0.454, 192.0, 0.0, 0.0, 0.0, 0.0, 0.0, 0.0, 0.0, 0.0, 0.0, 1.6541557221428912E9, 0.0, 2022-06-02 09:42:02.142
149.0, 25985.758124084252, -4746.616452529008, -60662.74621042564, -37235.189942740195, -11468.143638151127, -35418.753077835216, -4897.647189813518, -26171.679934463496, -0.032, 0.916, 0.454, 192.0, 0.0, 0.0, 0.0, 0.0, 0.0, 0.0, 0.0, 0.0, 0.0, 1.6541557221428962E9, 0.0, 2022-06-02 09:42:02.142
150.0, 25959.539527838177, -4746.03530717317, -60663.01443135911, -37238.67681487522, -11466.60136778371, -35422.172894736876, -4908.823062041171, -26183.392248558077, -0.032, 0.916, 0.454, 192.0, 0.0, 0.0, 0.0, 0.0, 0.0, 0.0, 0.0, 0.0, 0.0, 1.6541557221429038E9, 0.0, 2022-06-02 09:42:02.142
151.0, 25955.29269639167, -4750.662118275419, -60673.98913788667, -37244.51062017806, -11479.207751656504, -35434.131078020466, -4932.225338485878, -26212.80714426126, -0.032, 0.916, 0.454, 192.0, 0.0, 0.0, 0.0, 0.0, 0.0, 0.0, 0.0, 0.0, 0.0, 1.6541557221429095E9, 0.0, 2022-06-02 09:42:02.142
152.0, 25974.04580998967, -4734.255937845223, -60662.00860285862, -37231.8371810719, -11473.083373675749, -35421.03295576965, -4919.820120313182, -26198.524379554317, -0.032, 0.916, 0.454, 192.0, 0.0, 0.0, 0.0, 0.0, 0.0, 0.0, 0.0, 0.0, 0.0, 1.6541557221429155E9, 0.0, 2022-06-02 09:42:02.142
153.0, 26008.176923772924, -4719.2802690601675, -60645.7141811507, -37217.64382334278, -11456.02899265635, -35402.01162123819, -4888.751195520305, -26165.98023962739, -0.032, 0.916, 0.454, 192.0, 0.0, 0.0, 0.0, 0.0, 0.0, 0.0, 0.0, 0.0, 0.0, 1.6541557221429207E9, 0.0, 2022-06-02 09:42:02.142
154.0, 25994.497656166277, -4721.716609205796, -60654.47606497718, -37223.6340908568, -11457.191283368025, -35408.98536550825, -4895.4343671124425, -26178.27369907781, -0.032, 0.916, 0.454, 192.0, 0.0, 0.0, 0.0, 0.0, 0.0, 0.0, 0.0, 0.0, 0.0, 1.654155722142926E9, 0.0, 2022-06-02 09:42:02.142
155.0, 25988.350926441068, -4728.869167431494, -60659.818131902, -37233.13358225031, -11462.22042587047, -35416.093220245035, -4901.268172415277, -26180.263004334334, -0.032, 0.916, 0.454, 192.0, 0.0, 0.0, 0.0, 0.0, 0.0, 0.0, 0.0, 0.0, 0.0, 1.6541557221429312E9, 0.0, 2022-06-02 09:42:02.142
156.0, 25982.539472882687, -4741.430847815376, -60665.00373661563, -37247.41634695725, -11477.441963844534, -35426.30796746111, -4912.376989409565, -26188.287280593788, -0.036000000000000004, 0.92, 0.456, 192.0, 254.0, 224.0, 28.0, 192.0, 14.0, 64.0, 0.0, 0.0, 0.0, 1.6541557221429365E9, 0.0, 2022-06-02 09:42:02.142
157.0, 25981.667754848928, -4742.280214104679, -60665.786047671565, -37242.23074224362, -11482.5605133248, -35427.73847910625, -4922.457626158908, -26184.778056714305, -0.036000000000000004, 0.92, 0.456, 192.0, 0.0, 0.0, 0.0, 0.0, 0.0, 0.0, 0.0, 0.0, 0.0, 1.654155722142942E9, 0.0, 2022-06-02 09:42:02.142
158.0, 25985.758124084252, -4735.46293204581, -60658.25350979013, -37236.19577124069, -11472.546931808822, -35422.39641218143, -4904.889155017037, -26180.95590841245, -0.036000000000000004, 0.92, 0.456, 192.0, 0.0, 0.0, 0.0, 0.0, 0.0, 0.0, 0.0, 0.0, 0.0, 1.6541557221429472E9, 0.0, 2022-06-02 09:42:02.142
159.0, 25994.72117361083, -4728.243318586746, -60651.033896331064, -37230.67489036023, -11458.085353146238, -35413.67923184386, -4897.803652024705, -26168.1260070951, -0.036000000000000004, 0.92, 0.456, 192.0, 0.0, 0.0, 0.0, 0.0, 0.0, 0.0, 0.0, 0.0, 0.0, 1.6541557221429524E9, 0.0, 2022-06-02 09:42:02.142
160.0, 25998.453914934864, -4740.581481526075, -60667.30596629453, -37246.5446289235, -11471.854027730707, -35427.693775617336, -4920.647134858029, -26188.734315482896, -0.036000000000000004, 0.92, 0.456, 192.0, 0.0, 0.0, 0.0, 0.0, 0.0, 0.0, 0.0, 0.0, 0.0, 1.6541557221429577E9, 0.0, 2022-06-02 09:42:02.142
161.0, 26011.484981952308, -4742.973118182793, -60677.9230449108, -37254.74771913859, -11485.823868015274, -35441.12717403498, -4933.253518730822, -26205.408716846552, -0.036000000000000004, 0.92, 0.456, 192.0, 0.0, 0.0, 0.0, 0.0, 0.0, 0.0, 0.0, 0.0, 0.0, 1.6541557221429627E9, 0.0, 2022-06-02 09:42:02.142
162.0, 26012.87079010854, -4735.418228556899, -60669.071754106495, -37250.165611525255, -11476.994928955428, -35429.928950062866, -4911.326457420166, -26181.469998534918, -0.036000000000000004, 0.92, 0.456, 192.0, 0.0, 0.0, 0.0, 0.0, 0.0, 0.0, 0.0, 0.0, 0.0, 1.6541557221429677E9, 0.0, 2022-06-02 09:42:02.142
163.0, 25989.20029273037, -4720.822539427583, -60646.74236139564, -37228.52912289252, -11451.893919932118, -35405.63260383995, -4890.718149032373, -26168.885966406582, -0.036000000000000004, 0.92, 0.456, 192.0, 0.0, 0.0, 0.0, 0.0, 0.0, 0.0, 0.0, 0.0, 0.0, 1.654155722142973E9, 0.0, 2022-06-02 09:42:02.142
164.0, 25996.844589334083, -4720.062580116103, -60652.33029750947, -37219.253148943564, -11449.546986764311, -35407.107818974, -4884.146736162512, -26182.274661335312, -0.036000000000000004, 0.92, 0.456, 192.0, 0.0, 0.0, 0.0, 0.0, 0.0, 0.0, 0.0, 0.0, 0.0, 1.654155722142978E9, 0.0, 2022-06-02 09:42:02.142
165.0, 25995.168208499934, -4735.909966934916, -60671.597501229946, -37240.576713153925, -11461.326356092259, -35427.760830850704, -4893.06508220018, -26182.207606101943, -0.036000000000000004, 0.92, 0.456, 192.0, 0.0, 0.0, 0.0, 0.0, 0.0, 0.0, 0.0, 0.0, 0.0, 1.6541557221429832E9, 0.0, 2022-06-02 09:42:02.142
166.0, 25991.86015032055, -4742.503731549231, -60675.39729778735, -37250.74675688109, -11477.598426055722, -35436.27684548817, -4928.224376228378, -26185.739181725883, -0.028, 0.92, 0.456, 192.0, 255.0, 32.0, 28.0, 192.0, 14.0, 64.0, 0.0, 0.0, 0.0, 1.6541557221429884E9, 0.0, 2022-06-02 09:42:02.142
167.0, 26017.184676788413, -4722.297754561634, -60656.24185278915, -37226.36100368035, -11463.136847393138, -35410.95231902031, -4897.624838069062, -26171.0764373632, -0.028, 0.92, 0.456, 192.0, 0.0, 0.0, 0.0, 0.0, 0.0, 0.0, 0.0, 0.0, 0.0, 1.6541557221429937E9, 0.0, 2022-06-02 09:42:02.142
168.0, 26010.5909121741, -4721.224870827779, -60647.122341051385, -37219.45431464366, -11459.337050835735, -35403.5538916056, -4881.7550995057945, -26161.576945969697, -0.028, 0.92, 0.456, 192.0, 0.0, 0.0, 0.0, 0.0, 0.0, 0.0, 0.0, 0.0, 0.0, 1.6541557221430745E9, 0.0, 2022-06-02 09:42:02.143
169.0, 25992.821275332128, -4733.227757600279, -60650.38569574186, -37238.52035266404, -11466.199036383514, -35417.76960107918, -4896.484899101842, -26187.102638137658, -0.028, 0.92, 0.456, 192.0, 0.0, 0.0, 0.0, 0.0, 0.0, 0.0, 0.0, 0.0, 0.0, 1.6541557221430807E9, 0.0, 2022-06-02 09:42:02.143
170.0, 25993.29066196569, -4742.682545504874, -60661.09218133595, -37245.91878007875, -11472.390469597634, -35429.10193551802, -4909.5830213526515, -26185.023925903315, -0.028, 0.92, 0.456, 192.0, 0.0, 0.0, 0.0, 0.0, 0.0, 0.0, 0.0, 0.0, 0.0, 1.654155722143086E9, 0.0, 2022-06-02 09:42:02.143
171.0, 26000.86790333604, -4746.41528682891, -60669.38467852887, -37247.68456789071, -11481.308815635302, -35436.52271467718, -4922.234108714355, -26182.900510180058, -0.028, 0.92, 0.456, 192.0, 0.0, 0.0, 0.0, 0.0, 0.0, 0.0, 0.0, 0.0, 0.0, 1.654155722143094E9, 0.0, 2022-06-02 09:42:02.143
172.0, 25991.52487415372, -4745.6329757729745, -60671.53044599658, -37249.807983613966, -11486.337958137747, -35439.16022052291, -4928.872576817582, -26208.627368048117, -0.028, 0.92, 0.456, 192.0, 0.0, 0.0, 0.0, 0.0, 0.0, 0.0, 0.0, 0.0, 0.0, 1.6541557221430993E9, 0.0, 2022-06-02 09:42:02.143
173.0, 26003.14778127048, -4738.659231502918, -60664.28848079306, -37242.744832366094, -11475.6091207992, -35433.88520883146, -4923.5528616372185, -26228.00633049087, -0.028, 0.92, 0.456, 192.0, 0.0, 0.0, 0.0, 0.0, 0.0, 0.0, 0.0, 0.0, 0.0, 1.6541557221431043E9, 0.0, 2022-06-02 09:42:02.143
174.0, 26000.2867579802, -4738.234548358268, -60664.176722070784, -37244.55532366697, -11468.188341640038, -35433.25935998671, -4911.080588231157, -26174.160978098033, -0.028, 0.92, 0.456, 192.0, 0.0, 0.0, 0.0, 0.0, 0.0, 0.0, 0.0, 0.0, 0.0, 1.6541557221431096E9, 0.0, 2022-06-02 09:42:02.143
175.0, 25993.491827665788, -4747.376411840488, -60670.81519017401, -37253.00428307108, -11473.284539375847, -35438.19909551133, -4912.01936149828, -26149.439948730465, -0.028, 0.92, 0.456, 192.0, 0.0, 0.0, 0.0, 0.0, 0.0, 0.0, 0.0, 0.0, 0.0, 1.6541557221431148E9, 0.0, 2022-06-02 09:42:02.143
176.0, 26000.91260682495, -4744.917719950405, -60665.67428894929, -37246.36581496785, -11473.396298098123, -35435.047499543136, -4913.785149310249, -26188.399039316064, -0.026000000000000002, 0.924, 0.452, 192.0, 255.0, 48.0, 28.0, 224.0, 14.0, 32.0, 0.0, 0.0, 0.0, 1.65415572214312E9, 0.0, 2022-06-02 09:42:02.143
177.0, 25994.27413872172, -4744.493036805754, -60665.60723371592, -37242.49896317708, -11475.810286499296, -35436.500362932726, -4918.993105768336, -26199.32904235471, -0.026000000000000002, 0.924, 0.452, 192.0, 0.0, 0.0, 0.0, 0.0, 0.0, 0.0, 0.0, 0.0, 0.0, 1.6541557221431253E9, 0.0, 2022-06-02 09:42:02.143
178.0, 25996.106981767058, -4740.715591992806, -60665.56253022701, -37246.36581496785, -11473.55276030931, -35434.82398209858, -4929.587832640152, -26208.448554092476, -0.026000000000000002, 0.924, 0.452, 192.0, 0.0, 0.0, 0.0, 0.0, 0.0, 0.0, 0.0, 0.0, 0.0, 1.6541557221431315E9, 0.0, 2022-06-02 09:42:02.143
179.0, 26013.87661860903, -4731.953708166327, -60659.43815224626, -37245.404689956275, -11465.21555962748, -35427.269092472685, -4926.88327156106, -26194.165789385534, -0.026000000000000002, 0.924, 0.452, 192.0, 0.0, 0.0, 0.0, 0.0, 0.0, 0.0, 0.0, 0.0, 0.0, 1.6541557221431367E9, 0.0, 2022-06-02 09:42:02.143
180.0, 26010.635615663006, -4740.894405948449, -60672.782143686076, -37251.12673653683, -11477.687833033542, -35442.13300253546, -4924.692800604439, -26179.70421072295, -0.026000000000000002, 0.924, 0.452, 192.0, 0.0, 0.0, 0.0, 0.0, 0.0, 0.0, 0.0, 0.0, 0.0, 1.6541557221431422E9, 0.0, 2022-06-02 09:42:02.143
181.0, 26001.29258648069, -4747.935205451871, -60680.24762633415, -37261.699111664195, -11488.304911649813, -35451.185459039865, -4912.332285920655, -26189.918957939026, -0.026000000000000002, 0.924, 0.452, 192.0, 0.0, 0.0, 0.0, 0.0, 0.0, 0.0, 0.0, 0.0, 0.0, 1.6541557221431477E9, 0.0, 2022-06-02 09:42:02.143
182.0, 26003.237188248302, -4735.753504723729, -60663.416762759305, -37246.74579462359, -11478.246626644925, -35439.69666238983, -4902.229297426856, -26193.964623685435, -0.026000000000000002, 0.924, 0.452, 192.0, 0.0, 0.0, 0.0, 0.0, 0.0, 0.0, 0.0, 0.0, 0.0, 1.6541557221431527E9, 0.0, 2022-06-02 09:42:02.143
183.0, 26011.641444163495, -4722.498920261732, -60645.53536719506, -37231.211332227154, -11464.522655549366, -35427.20203723932, -4897.11074794659, -26191.304766095254, -0.026000000000000002, 0.924, 0.452, 192.0, 0.0, 0.0, 0.0, 0.0, 0.0, 0.0, 0.0, 0.0, 0.0, 1.654155722143158E9, 0.0, 2022-06-02 09:42:02.143
184.0, 26012.893141852994, -4721.26957431669, -60643.1660822828, -37231.278387460516, -11460.298175847314, -35418.73072609076, -4891.925143232959, -26165.913184394027, -0.026000000000000002, 0.924, 0.452, 192.0, 0.0, 0.0, 0.0, 0.0, 0.0, 0.0, 0.0, 0.0, 0.0, 1.6541557221431634E9, 0.0, 2022-06-02 09:42:02.143
185.0, 26017.51995295524, -4734.166530867402, -60650.832730630966, -37248.44452720219, -11470.401164341112, -35430.35363320752, -4907.213736440389, -26192.64587076257, -0.026000000000000002, 0.924, 0.452, 192.0, 0.0, 0.0, 0.0, 0.0, 0.0, 0.0, 0.0, 0.0, 0.0, 1.6541557221431687E9, 0.0, 2022-06-02 09:42:02.143
186.0, 26025.96891235935, -4742.235510615767, -60659.639317946356, -37264.046044832, -11487.790821527342, -35443.80938336961, -4930.727771607372, -26211.466039593943, -0.028, 0.924, 0.456, 192.0, 255.0, 32.0, 28.0, 224.0, 14.0, 64.0, 0.0, 0.0, 0.0, 1.6541557221431744E9, 0.0, 2022-06-02 09:42:02.143
187.0, 26018.794002389193, -4735.552339023631, -60649.96101259721, -37246.00818705656, -11484.259245903402, -35431.51592391919, -4930.88423381856, -26179.838321189683, -0.028, 0.924, 0.456, 192.0, 0.0, 0.0, 0.0, 0.0, 0.0, 0.0, 0.0, 0.0, 0.0, 1.6541557221431797E9, 0.0, 2022-06-02 09:42:02.143
188.0, 26017.16232504396, -4735.440580301354, -60646.071809061985, -37243.21421899965, -11481.018242957383, -35425.07862151606, -4913.740445821339, -26179.972431656413, -0.028, 0.924, 0.456, 192.0, 0.0, 0.0, 0.0, 0.0, 0.0, 0.0, 0.0, 0.0, 0.0, 1.654155722143185E9, 0.0, 2022-06-02 09:42:02.143
189.0, 26019.263389022755, -4734.4794552897765, -60643.68017240527, -37244.53297192252, -11476.994928955428, -35426.12915350546, -4909.44891088592, -26194.411658574543, -0.028, 0.924, 0.456, 192.0, 0.0, 0.0, 0.0, 0.0, 0.0, 0.0, 0.0, 0.0, 0.0, 1.65415572214319E9, 0.0, 2022-06-02 09:42:02.143
190.0, 25999.727964368816, -4743.643670516452, -60655.19132079975, -37258.10048080689, -11481.688795291042, -35437.81911585559, -4912.444044642931, -26209.56614131524, -0.028, 0.924, 0.456, 192.0, 0.0, 0.0, 0.0, 0.0, 0.0, 0.0, 0.0, 0.0, 0.0, 1.6541557221431952E9, 0.0, 2022-06-02 09:42:02.143
191.0, 26008.020461561737, -4740.581481526075, -60655.303079522026, -37256.91583835075, -11481.442926102034, -35439.294330989644, -4896.283733401744, -26203.397059845574, -0.028, 0.924, 0.456, 192.0, 0.0, 0.0, 0.0, 0.0, 0.0, 0.0, 0.0, 0.0, 0.0, 1.6541557221432009E9, 0.0, 2022-06-02 09:42:02.143
192.0, 26017.564656444152, -4733.183054111369, -60652.799684143036, -37249.249190002585, -11481.822905757774, -35433.63933964245, -4908.9348207634475, -26199.396097588076, -0.028, 0.924, 0.456, 192.0, 0.0, 0.0, 0.0, 0.0, 0.0, 0.0, 0.0, 0.0, 0.0, 1.6541557221432085E9, 0.0, 2022-06-02 09:42:02.143
193.0, 26022.638502435508, -4717.961516137304, -60638.9639543252, -37233.89354156179, -11467.048402672817, -35416.76377257869, -4900.709378803895, -26170.361181540633, -0.028, 0.924, 0.456, 192.0, 0.0, 0.0, 0.0, 0.0, 0.0, 0.0, 0.0, 0.0, 0.0, 1.6541557221432135E9, 0.0, 2022-06-02 09:42:02.143
194.0, 26020.470383223343, -4724.868205173994, -60644.753056139125, -37244.42121320024, -11471.205827141504, -35425.77152559418, -4910.745312064328, -26166.539033238776, -0.028, 0.924, 0.456, 192.0, 0.0, 0.0, 0.0, 0.0, 0.0, 0.0, 0.0, 0.0, 0.0, 1.6541557221432188E9, 0.0, 2022-06-02 09:42:02.143
195.0, 26032.137993829012, -4719.481434760265, -60649.46927421919, -37246.90225683478, -11468.993004440428, -35426.44207792784, -4919.440140657442, -26174.31744030922, -0.036000000000000004, 0.92, 0.458, 192.0, 254.0, 224.0, 28.0, 192.0, 14.0, 80.0, 0.0, 0.0, 0.0, 1.654155722143224E9, 0.0, 2022-06-02 09:42:02.143
196.0, 26024.76191815876, -4719.16851033789, -60647.63643117386, -37242.70012887718, -11469.5070945629, -35425.05626977161, -4907.772530051771, -26184.196911358467, -0.036000000000000004, 0.92, 0.458, 192.0, 0.0, 0.0, 0.0, 0.0, 0.0, 0.0, 0.0, 0.0, 0.0, 1.6541557221432292E9, 0.0, 2022-06-02 09:42:02.143
197.0, 26018.235208777813, -4727.3268970640775, -60651.726800409175, -37236.01695728504, -11477.754888266909, -35431.337109963555, -4914.947440021925, -26199.4855045659, -0.036000000000000004, 0.92, 0.458, 192.0, 0.0, 0.0, 0.0, 0.0, 0.0, 0.0, 0.0, 0.0, 0.0, 1.6541557221432345E9, 0.0, 2022-06-02 09:42:02.143
198.0, 26009.070993551137, -4733.7194959782955, -60660.0192976021, -37241.336672465404, -11481.84525750223, -35434.95809256531, -4917.204966211912, -26207.107449425155, -0.036000000000000004, 0.92, 0.458, 192.0, 0.0, 0.0, 0.0, 0.0, 0.0, 0.0, 0.0, 0.0, 0.0, 1.6541557221432395E9, 0.0, 2022-06-02 09:42:02.143
199.0, 26016.223551776835, -4730.456141287821, -60655.88422487787, -37236.46399217415, -11472.524580064366, -35425.2127319828, -4905.336189906143, -26192.08707715119, -0.036000000000000004, 0.92, 0.458, 192.0, 0.0, 0.0, 0.0, 0.0, 0.0, 0.0, 0.0, 0.0, 0.0, 1.6541557221432452E9, 0.0, 2022-06-02 09:42:02.143
200.0, 26035.66956945295, -4720.6884289608515, -60650.25158527513, -37231.79247758299, -11462.5557020373, -35421.6588046144, -4900.374102637065, -26173.73629495338, -0.036000000000000004, 0.92, 0.458, 192.0, 0.0, 0.0, 0.0, 0.0, 0.0, 0.0, 0.0, 0.0, 0.0, 1.6541557221432505E9, 0.0, 2022-06-02 09:42:02.143
201.0, 26036.04954910869, -4721.493091761243, -60649.31281200801, -37235.01112878456, -11463.852103215708, -35426.375022694476, -4906.342018406632, -26180.88885317908, -0.036000000000000004, 0.92, 0.458, 192.0, 0.0, 0.0, 0.0, 0.0, 0.0, 0.0, 0.0, 0.0, 0.0, 1.654155722143256E9, 0.0, 2022-06-02 09:42:02.143
202.0, 26036.787156675717, -4727.371600552989, -60654.67723067728, -37239.03444278651, -11470.043536429828, -35429.0125285402, -4910.477091130864, -26180.911204923537, -0.036000000000000004, 0.92, 0.458, 192.0, 0.0, 0.0, 0.0, 0.0, 0.0, 0.0, 0.0, 0.0, 0.0, 1.6541557221432612E9, 0.0, 2022-06-02 09:42:02.143
203.0, 26041.59278173361, -4712.619449212486, -60645.513015450604, -37224.2375879571, -11460.946376436517, -35414.059211499596, -4893.288599644733, -26172.238728074877, -0.036000000000000004, 0.92, 0.458, 192.0, 0.0, 0.0, 0.0, 0.0, 0.0, 0.0, 0.0, 0.0, 0.0, 1.6541557221432664E9, 0.0, 2022-06-02 09:42:02.143
204.0, 26030.171040316945, -4709.7137224332955, -60646.40708522881, -37223.32116643443, -11454.151446122105, -35410.01354575319, -4885.621951296563, -26176.59731824366, -0.036000000000000004, 0.92, 0.458, 192.0, 0.0, 0.0, 0.0, 0.0, 0.0, 0.0, 0.0, 0.0, 0.0, 1.6541557221432717E9, 0.0, 2022-06-02 09:42:02.143
205.0, 26030.841592650606, -4726.276365074678, -60663.21559705921, -37246.879905090325, -11467.249568372914, -35427.47025817278, -4909.024227741269, -26180.061838634236, -0.03, 0.91, 0.452, 192.0, 255.0, 16.0, 28.0, 112.0, 14.0, 32.0, 0.0, 0.0, 0.0, 1.6541557221432767E9, 0.0, 2022-06-02 09:42:02.143
206.0, 26022.68320592442, -4734.993545412248, -60671.6198529744, -37256.33469299492, -11481.46527784649, -35444.50228744773, -4929.856053573615, -26212.941254727994, -0.03, 0.91, 0.452, 192.0, 0.0, 0.0, 0.0, 0.0, 0.0, 0.0, 0.0, 0.0, 0.0, 1.6541557221432824E9, 0.0, 2022-06-02 09:42:02.143
207.0, 26005.67352839393, -4733.3171645781, -60673.5197512531, -37258.413405229265, -11484.102783692215, -35445.06108105911, -4924.513986648797, -26209.90141748207, -0.03, 0.91, 0.452, 192.0, 0.0, 0.0, 0.0, 0.0, 0.0, 0.0, 0.0, 0.0, 0.0, 1.6541557221432877E9, 0.0, 2022-06-02 09:42:02.143
208.0, 26016.0894413101, -4731.797245955139, -60669.40703027332, -37253.69718714919, -11479.118344678682, -35435.58394141006, -4913.561631865697, -26167.120178594614, -0.03, 0.91, 0.452, 192.0, 0.0, 0.0, 0.0, 0.0, 0.0, 0.0, 0.0, 0.0, 0.0, 1.654155722143293E9, 0.0, 2022-06-02 09:42:02.143
209.0, 26037.189488075914, -4723.527100506675, -60656.487721978156, -37244.86824808935, -11466.869588717174, -35421.681156358856, -4908.107806218602, -26177.625498488607, -0.03, 0.91, 0.452, 192.0, 0.0, 0.0, 0.0, 0.0, 0.0, 0.0, 0.0, 0.0, 0.0, 1.654155722143298E9, 0.0, 2022-06-02 09:42:02.143
210.0, 26038.083557854126, -4718.721475448785, -60656.93475686727, -37238.92268406424, -11459.828789213752, -35420.8094383251, -4899.480032858853, -26195.2833766083, -0.03, 0.91, 0.452, 192.0, 0.0, 0.0, 0.0, 0.0, 0.0, 0.0, 0.0, 0.0, 0.0, 1.6541557221433032E9, 0.0, 2022-06-02 09:42:02.143
211.0, 26022.705557668873, -4732.22192909979, -60672.53627449707, -37257.765204640054, -11475.430306843557, -35438.7131856338, -4900.441157870431, -26205.43106859101, -0.03, 0.91, 0.452, 192.0, 0.0, 0.0, 0.0, 0.0, 0.0, 0.0, 0.0, 0.0, 0.0, 1.6541557221433084E9, 0.0, 2022-06-02 09:42:02.143
212.0, 26019.732775656317, -4734.74767622324, -60671.10576285193, -37263.06256807596, -11479.900655734618, -35438.2661507447, -4919.976582524369, -26180.732390967893, -0.03, 0.91, 0.452, 192.0, 0.0, 0.0, 0.0, 0.0, 0.0, 0.0, 0.0, 0.0, 0.0, 1.6541557221433136E9, 0.0, 2022-06-02 09:42:02.143
213.0, 26024.53840071421, -4722.342458050544, -60655.54894871104, -37237.916855563744, -11467.383678839646, -35420.697679602825, -4923.083475003657, -26175.65854497654, -0.03, 0.91, 0.452, 192.0, 0.0, 0.0, 0.0, 0.0, 0.0, 0.0, 0.0, 0.0, 0.0, 1.654155722143319E9, 0.0, 2022-06-02 09:42:02.143
214.0, 26032.54032522921, -4717.514481248198, -60654.27489927709, -37236.68750961871, -11465.372021838668, -35418.57426387957, -4909.135986463545, -26181.358239812642, -0.03, 0.91, 0.452, 192.0, 0.0, 0.0, 0.0, 0.0, 0.0, 0.0, 0.0, 0.0, 0.0, 1.6541557221433263E9, 0.0, 2022-06-02 09:42:02.143
215.0, 26035.4460520084, -4722.342458050544, -60664.19907381524, -37246.5446289235, -11468.165989895582, -35430.48774367425, -4898.138928191534, -26184.196911358467, -0.028, 0.918, 0.456, 192.0, 255.0, 32.0, 28.0, 176.0, 14.0, 64.0, 0.0, 0.0, 0.0, 1.6541557221433315E9, 0.0, 2022-06-02 09:42:02.143
216.0, 26037.569467731653, -4718.721475448785, -60654.85604463292, -37242.27544573253, -11464.70146950501, -35429.75013610723, -4906.16320445099, -26166.114350094125, -0.028, 0.918, 0.456, 192.0, 0.0, 0.0, 0.0, 0.0, 0.0, 0.0, 0.0, 0.0, 0.0, 1.6541557221433368E9, 0.0, 2022-06-02 09:42:02.143
217.0, 26046.15253760249, -4715.078141102569, -60645.870643361886, -37238.050966030474, -11463.874454960163, -35423.290481959644, -4908.01839924078, -26172.998687386356, -0.028, 0.918, 0.456, 192.0, 0.0, 0.0, 0.0, 0.0, 0.0, 0.0, 0.0, 0.0, 0.0, 1.654155722143342E9, 0.0, 2022-06-02 09:42:02.143
218.0, 26051.651066738497, -4705.131614819958, -60633.33131472246, -37225.198712968675, -11450.30694607579, -35411.399353909415, -4882.000968694802, -26181.00061190136, -0.028, 0.918, 0.456, 192.0, 0.0, 0.0, 0.0, 0.0, 0.0, 0.0, 0.0, 0.0, 0.0, 1.6541557221433473E9, 0.0, 2022-06-02 09:42:02.143
219.0, 26043.090348612113, -4709.490204988743, -60643.210785771706, -37227.299776947475, -11450.731629220441, -35414.9085777889, -4877.597675037107, -26165.421446016007, -0.028, 0.918, 0.456, 192.0, 0.0, 0.0, 0.0, 0.0, 0.0, 0.0, 0.0, 0.0, 0.0, 1.6541557221433525E9, 0.0, 2022-06-02 09:42:02.143
220.0, 26067.230232623846, -4703.969324108282, -60642.04849506003, -37226.62922461382, -11452.475065287956, -35416.74142083424, -4895.747291534816, -26177.60314674415, -0.028, 0.918, 0.456, 192.0, 0.0, 0.0, 0.0, 0.0, 0.0, 0.0, 0.0, 0.0, 0.0, 1.6541557221433575E9, 0.0, 2022-06-02 09:42:02.143
221.0, 26064.458616311385, -4712.0606556011035, -60645.66947766179, -37238.31918696394, -11467.406030584101, -35428.1631622509, -4915.953268522414, -26204.55935055725, -0.028, 0.918, 0.456, 192.0, 0.0, 0.0, 0.0, 0.0, 0.0, 0.0, 0.0, 0.0, 0.0, 1.6541557221433628E9, 0.0, 2022-06-02 09:42:02.143
222.0, 26041.324560800145, -4719.727303949274, -60653.47023647669, -37246.5446289235, -11478.492495833934, -35431.9629588083, -4919.887175546548, -26195.395135330575, -0.028, 0.918, 0.456, 192.0, 0.0, 0.0, 0.0, 0.0, 0.0, 0.0, 0.0, 0.0, 0.0, 1.6541557221433702E9, 0.0, 2022-06-02 09:42:02.143
223.0, 26051.718121971862, -4708.3055625326115, -60643.344896238435, -37233.714727606144, -11469.797667240819, -35418.68602260185, -4914.321591177177, -26170.070608862712, -0.028, 0.918, 0.456, 192.0, 0.0, 0.0, 0.0, 0.0, 0.0, 0.0, 0.0, 0.0, 0.0, 1.6541557221433754E9, 0.0, 2022-06-02 09:42:02.143
224.0, 26067.67726751295, -4706.517422976187, -60641.33323923746, -37227.07625950292, -11463.516827048878, -35419.87066505798, -4917.160262723, -26197.026812675813, -0.028, 0.918, 0.456, 192.0, 0.0, 0.0, 0.0, 0.0, 0.0, 0.0, 0.0, 0.0, 0.0, 1.6541557221433806E9, 0.0, 2022-06-02 09:42:02.143
225.0, 26055.16029061798, -4721.828367928072, -60657.09121907845, -37240.66612013175, -11472.166952153082, -35432.231179741764, -4909.11363471909, -26194.434010318997, -0.032, 0.92, 0.462, 192.0, 255.0, 0.0, 28.0, 192.0, 14.0, 112.0, 0.0, 0.0, 0.0, 1.654155722143386E9, 0.0, 2022-06-02 09:42:02.143
226.0, 26045.660799224475, -4729.69618197634, -60662.88032089238, -37253.51837319355, -11480.347690623725, -35439.60725541202, -4915.752102822316, -26177.67020197752, -0.032, 0.92, 0.462, 192.0, 0.0, 0.0, 0.0, 0.0, 0.0, 0.0, 0.0, 0.0, 0.0, 1.654155722143391E9, 0.0, 2022-06-02 09:42:02.143
227.0, 26048.432415536932, -4719.816710927094, -60647.47996896267, -37246.65638764577, -11472.010489941895, -35429.32545296258, -4910.879422531059, -26193.361126585143, -0.032, 0.92, 0.462, 192.0, 0.0, 0.0, 0.0, 0.0, 0.0, 0.0, 0.0, 0.0, 0.0, 1.6541557221433961E9, 0.0, 2022-06-02 09:42:02.143
228.0, 26061.150558132, -4713.98290562426, -60637.689904891246, -37234.07235551743, -11461.326356092259, -35418.14958073492, -4899.904716003503, -26192.64587076257, -0.032, 0.92, 0.462, 192.0, 0.0, 0.0, 0.0, 0.0, 0.0, 0.0, 0.0, 0.0, 0.0, 1.6541557221434011E9, 0.0, 2022-06-02 09:42:02.143
229.0, 26073.175796648957, -4711.45715850081, -60640.23800375915, -37227.25507345856, -11458.353574079702, -35417.277862701165, -4896.887230502037, -26179.88302467859, -0.032, 0.92, 0.462, 192.0, 0.0, 0.0, 0.0, 0.0, 0.0, 0.0, 0.0, 0.0, 0.0, 1.6541557221434064E9, 0.0, 2022-06-02 09:42:02.143
230.0, 26069.577165791652, -4712.284173045656, -60647.882300362864, -37231.85953281636, -11458.867664202175, -35422.08348775905, -4911.728788820361, -26188.622556760616, -0.032, 0.92, 0.462, 192.0, 0.0, 0.0, 0.0, 0.0, 0.0, 0.0, 0.0, 0.0, 0.0, 1.6541557221434116E9, 0.0, 2022-06-02 09:42:02.143
231.0, 26053.662723739475, -4724.801149940628, -60664.668460448804, -37253.67483540474, -11478.98423421195, -35438.86964784499, -4934.013478042302, -26198.971414443426, -0.032, 0.92, 0.462, 192.0, 0.0, 0.0, 0.0, 0.0, 0.0, 0.0, 0.0, 0.0, 0.0, 1.654155722143417E9, 0.0, 2022-06-02 09:42:02.143
232.0, 26068.325468102154, -4719.861414416006, -60661.49451273615, -37252.736062137614, -11486.472068604478, -35435.58394141006, -4944.809370614215, -26198.323213854223, -0.032, 0.92, 0.462, 192.0, 0.0, 0.0, 0.0, 0.0, 0.0, 0.0, 0.0, 0.0, 0.0, 1.654155722143422E9, 0.0, 2022-06-02 09:42:02.143
233.0, 26076.17093040597, -4710.496033489231, -60651.57033819799, -37238.207428241665, -11472.03284168635, -35422.95520579281, -4922.4352744144535, -26172.484597263887, -0.032, 0.92, 0.462, 192.0, 0.0, 0.0, 0.0, 0.0, 0.0, 0.0, 0.0, 0.0, 0.0, 1.6541557221434276E9, 0.0, 2022-06-02 09:42:02.143
234.0, 26062.91634594397, -4709.98194336676, -60644.95422183922, -37229.98198628211, -11462.93568169304, -35417.143752234435, -4891.612218810585, -26183.459303791442, -0.032, 0.92, 0.462, 192.0, 0.0, 0.0, 0.0, 0.0, 0.0, 0.0, 0.0, 0.0, 0.0, 1.6541557221434329E9, 0.0, 2022-06-02 09:42:02.143
235.0, 26057.529575530243, -4716.2851353031565, -60639.299230492026, -37240.867285831846, -11466.98134743945, -35425.659766871904, -4897.222506668867, -26199.731373754905, -0.032, 0.914, 0.46, 192.0, 255.0, 0.0, 28.0, 144.0, 14.0, 96.0, 0.0, 0.0, 0.0, 1.65415572214344E9, 0.0, 2022-06-02 09:42:02.143
236.0, 26059.138901131024, -4721.515443505698, -60641.98143982666, -37248.355120224376, -11477.509019077901, -35434.15342976492, -4919.149567979523, -26188.242577104877, -0.032, 0.914, 0.46, 192.0, 0.0, 0.0, 0.0, 0.0, 0.0, 0.0, 0.0, 0.0, 0.0, 1.6541557221434453E9, 0.0, 2022-06-02 09:42:02.143
237.0, 26056.59080226312, -4719.660248715907, -60643.88133810536, -37244.53297192252, -11483.70045229202, -35428.453734928815, -4922.010591269803, -26188.309632338245, -0.032, 0.914, 0.46, 192.0, 0.0, 0.0, 0.0, 0.0, 0.0, 0.0, 0.0, 0.0, 0.0, 1.6541557221434507E9, 0.0, 2022-06-02 09:42:02.143
238.0, 26061.999924421303, -4708.193803810335, -60636.95229732422, -37230.04904151548, -11476.12321092167, -35420.071830758076, -4923.105826748112, -26189.874254450115, -0.032, 0.914, 0.46, 192.0, 0.0, 0.0, 0.0, 0.0, 0.0, 0.0, 0.0, 0.0, 0.0, 1.654155722143456E9, 0.0, 2022-06-02 09:42:02.143
239.0, 26075.612136794585, -4707.702065432318, -60637.46638744669, -37229.06556475945, -11468.590673040233, -35419.60244412452, -4907.2584399293, -26198.926710954514, -0.032, 0.914, 0.46, 192.0, 0.0, 0.0, 0.0, 0.0, 0.0, 0.0, 0.0, 0.0, 0.0, 1.6541557221434612E9, 0.0, 2022-06-02 09:42:02.143
240.0, 26080.26129964129, -4707.970286365782, -60632.727817622166, -37232.73125085011, -11462.287481103836, -35425.860932572, -4903.101015460613, -26193.830513218705, -0.032, 0.914, 0.46, 192.0, 0.0, 0.0, 0.0, 0.0, 0.0, 0.0, 0.0, 0.0, 0.0, 1.6541557226235552E9, 0.0, 2022-06-02 09:42:02.623
241.0, 26068.571337291163, -4712.954725379315, -60639.47804444767, -37241.11315502085, -11473.083373675749, -35433.080546031066, -4924.603393626618, -26174.920937409515, -0.032, 0.914, 0.46, 192.0, 0.0, 0.0, 0.0, 0.0, 0.0, 0.0, 0.0, 0.0, 0.0, 1.6541557226237495E9, 0.0, 2022-06-02 09:42:02.623
242.0, 26059.854156953596, -4714.854623658017, -60644.2166142722, -37238.02861428602, -11481.241760401936, -35430.48774367425, -4928.850225073126, -26178.005478144347, -0.032, 0.914, 0.46, 192.0, 0.0, 0.0, 0.0, 0.0, 0.0, 0.0, 0.0, 0.0, 0.0, 1.654155722623756E9, 0.0, 2022-06-02 09:42:02.623
243.0, 26058.69186624192, -4710.898364889427, -60640.03683805905, -37230.54077989349, -11473.239835886936, -35424.765697093695, -4916.199137711423, -26190.455399805953, -0.032, 0.914, 0.46, 192.0, 0.0, 0.0, 0.0, 0.0, 0.0, 0.0, 0.0, 0.0, 0.0, 1.6541557226237617E9, 0.0, 2022-06-02 09:42:02.623
244.0, 26073.48872107133, -4706.5397747206425, -60637.77931186907, -37233.111230505856, -11468.948300951517, -35425.615063383, -4911.9299545204585, -26203.978205201412, -0.032, 0.914, 0.46, 192.0, 0.0, 0.0, 0.0, 0.0, 0.0, 0.0, 0.0, 0.0, 0.0, 1.6541557226237674E9, 0.0, 2022-06-02 09:42:02.623
245.0, 26076.193282150423, -4712.015952112192, -60643.769579383086, -37244.26475098905, -11465.349670094212, -35431.44886868583, -4917.048504000724, -26197.719716753927, -0.034, 0.914, 0.458, 192.0, 254.0, 240.0, 28.0, 144.0, 14.0, 80.0, 0.0, 0.0, 0.0, 1.654155722623773E9, 0.0, 2022-06-02 09:42:02.623
246.0, 26066.44792156791, -4719.772007438184, -60652.41970448729, -37250.12090803634, -11476.525542321866, -35439.517848434196, -4920.624783113573, -26180.46417003443, -0.034, 0.914, 0.458, 192.0, 0.0, 0.0, 0.0, 0.0, 0.0, 0.0, 0.0, 0.0, 0.0, 1.6541557226237788E9, 0.0, 2022-06-02 09:42:02.623
247.0, 26076.506206572798, -4706.02568459817, -60640.70739039271, -37232.55243689447, -11471.406992841601, -35425.14567674943, -4915.461530144397, -26177.42433278851, -0.034, 0.914, 0.458, 192.0, 0.0, 0.0, 0.0, 0.0, 0.0, 0.0, 0.0, 0.0, 0.0, 1.6541557226237843E9, 0.0, 2022-06-02 09:42:02.623
248.0, 26068.750151246804, -4708.93141137736, -60642.18260552676, -37233.89354156179, -11474.625644043166, -35419.9600720358, -4934.348754209132, -26180.3300595677, -0.034, 0.914, 0.458, 192.0, 0.0, 0.0, 0.0, 0.0, 0.0, 0.0, 0.0, 0.0, 0.0, 1.65415572262379E9, 0.0, 2022-06-02 09:42:02.623
249.0, 26079.54604381872, -4707.389141009944, -60637.5110909356, -37235.30170146247, -11469.03770792934, -35421.94937729232, -4931.957117552414, -26197.42914407601, -0.034, 0.914, 0.458, 192.0, 0.0, 0.0, 0.0, 0.0, 0.0, 0.0, 0.0, 0.0, 0.0, 1.6541557226237955E9, 0.0, 2022-06-02 09:42:02.623
250.0, 26085.44690435492, -4717.089798103547, -60649.58103294147, -37248.64569290229, -11473.55276030931, -35432.47704893077, -4912.824024298671, -26203.15119065657, -0.034, 0.914, 0.458, 192.0, 0.0, 0.0, 0.0, 0.0, 0.0, 0.0, 0.0, 0.0, 0.0, 1.6541557226238015E9, 0.0, 2022-06-02 09:42:02.623
251.0, 26080.417761852477, -4721.783664439162, -60657.69471617875, -37254.211277271665, -11475.430306843557, -35440.6130839125, -4904.196250938922, -26192.623519018118, -0.034, 0.914, 0.458, 192.0, 0.0, 0.0, 0.0, 0.0, 0.0, 0.0, 0.0, 0.0, 0.0, 1.654155722623807E9, 0.0, 2022-06-02 09:42:02.623
252.0, 26071.499415814807, -4719.235565571256, -60656.30890802252, -37253.85364936038, -11478.246626644925, -35443.65292115843, -4916.690876089439, -26196.400963831064, -0.034, 0.914, 0.458, 192.0, 0.0, 0.0, 0.0, 0.0, 0.0, 0.0, 0.0, 0.0, 0.0, 1.6541557226238127E9, 0.0, 2022-06-02 09:42:02.623
253.0, 26066.894956457014, -4718.833234171061, -60645.49066370615, -37248.757451624566, -11481.55468482431, -35433.25935998671, -4928.805521584216, -26161.196966313957, -0.034, 0.914, 0.458, 192.0, 0.0, 0.0, 0.0, 0.0, 0.0, 0.0, 0.0, 0.0, 0.0, 1.654155722623818E9, 0.0, 2022-06-02 09:42:02.623
254.0, 26081.155369419503, -4709.803129411117, -60636.706428135214, -37238.81092534196, -11472.613987042188, -35422.55287439262, -4926.726809349872, -26180.866501434626, -0.034, 0.914, 0.458, 192.0, 0.0, 0.0, 0.0, 0.0, 0.0, 0.0, 0.0, 0.0, 0.0, 1.6541557226238236E9, 0.0, 2022-06-02 09:42:02.623
255.0, 26077.78025600675, -4713.714684690796, -60647.23409977366, -37250.791460370005, -11470.624681785666, -35434.0640227871, -4911.795844053727, -26222.776022288326, -0.028, 0.918, 0.46, 192.0, 255.0, 32.0, 28.0, 176.0, 14.0, 96.0, 0.0, 0.0, 0.0, 1.654155722623829E9, 0.0, 2022-06-02 09:42:02.623
0.0, 26050.1982033489, -4733.205405855823, -60670.99400412965, -37274.23844030362, -11493.646978574632, -35451.14075555095, -4950.710231150417, -26222.351339143675, -0.028, 0.918, 0.46, 192.0, 0.0, 0.0, 0.0, 0.0, 0.0, 0.0, 0.0, 0.0, 0.0, 1.6541557226238456E9, 0.0, 2022-06-02 09:42:02.623
1.0, 26048.521822514755, -4734.680620989874, -60668.91529189531, -37271.28801003552, -11497.89381002114, -35443.697624647335, -4958.086306820668, -26192.578815529207, -0.028, 0.918, 0.46, 192.0, 0.0, 0.0, 0.0, 0.0, 0.0, 0.0, 0.0, 0.0, 0.0, 1.6541557226238513E9, 0.0, 2022-06-02 09:42:02.623
2.0, 26068.817206480173, -4717.022742870181, -60644.887166605855, -37257.60874242887, -11473.776277753865, -35423.558702893104, -4915.439178399942, -26172.93163215299, -0.028, 0.918, 0.46, 192.0, 0.0, 0.0, 0.0, 0.0, 0.0, 0.0, 0.0, 0.0, 0.0, 1.6541557226238563E9, 0.0, 2022-06-02 09:42:02.623
3.0, 26076.90853797299, -4706.137443320446, -60634.98534381215, -37236.64280612979, -11461.12519039216, -35414.841522555536, -4909.985352752848, -26191.930614940004, -0.028, 0.918, 0.46, 192.0, 0.0, 0.0, 0.0, 0.0, 0.0, 0.0, 0.0, 0.0, 0.0, 1.6541557226238616E9, 0.0, 2022-06-02 09:42:02.623
4.0, 26084.68694504344, -4704.729283419762, -60638.42751245827, -37230.83135257141, -11457.92889093505, -35418.64131911294, -4906.5878875956405, -26198.591434787686, -0.028, 0.918, 0.46, 192.0, 0.0, 0.0, 0.0, 0.0, 0.0, 0.0, 0.0, 0.0, 0.0, 1.654155722623868E9, 0.0, 2022-06-02 09:42:02.623
5.0, 26093.873512014572, -4716.531004492164, -60652.03972483155, -37249.78563186951, -11474.066850431784, -35435.78510711016, -4904.665637572484, -26203.37470810112, -0.028, 0.918, 0.46, 192.0, 0.0, 0.0, 0.0, 0.0, 0.0, 0.0, 0.0, 0.0, 0.0, 1.6541557226238737E9, 0.0, 2022-06-02 09:42:02.623
6.0, 26087.2573956558, -4713.848795157528, -60652.643221931845, -37247.97514056863, -11479.230103400958, -35434.37694720947, -4925.586870382652, -26188.71196373844, -0.028, 0.918, 0.46, 192.0, 0.0, 0.0, 0.0, 0.0, 0.0, 0.0, 0.0, 0.0, 0.0, 1.6541557226238787E9, 0.0, 2022-06-02 09:42:02.623
7.0, 26074.002811193805, -4715.145196335936, -60651.48093122017, -37248.08689929091, -11481.979367968961, -35427.64907212843, -4933.633498386562, -26169.914146651525, -0.028, 0.918, 0.46, 192.0, 0.0, 0.0, 0.0, 0.0, 0.0, 0.0, 0.0, 0.0, 0.0, 1.654155722623884E9, 0.0, 2022-06-02 09:42:02.623
8.0, 26086.78800902224, -4709.199632310824, -60646.02710557308, -37240.8896375763, -11476.771411510876, -35420.51886564718, -4927.844396572637, -26189.76249572784, -0.028, 0.918, 0.46, 192.0, 0.0, 0.0, 0.0, 0.0, 0.0, 0.0, 0.0, 0.0, 0.0, 1.6541557226238892E9, 0.0, 2022-06-02 09:42:02.623
9.0, 26110.07852674467, -4705.086911331047, -60640.70739039271, -37238.833277086414, -11466.131981150149, -35423.782220337656, -4907.213736440389, -26181.067667134725, -0.024, 0.918, 0.454, 192.0, 255.0, 64.0, 28.0, 176.0, 14.0, 48.0, 0.0, 0.0, 0.0, 1.6541557226238945E9, 0.0, 2022-06-02 09:42:02.623
10.0, 26101.20488419591, -4717.581536481564, -60659.214634801705, -37256.446451717195, -11480.302987134814, -35445.32930199258, -4924.4916349043415, -26207.129801169613, -0.024, 0.918, 0.454, 192.0, 0.0, 0.0, 0.0, 0.0, 0.0, 0.0, 0.0, 0.0, 0.0, 1.6541557226238997E9, 0.0, 2022-06-02 09:42:02.623
11.0, 26084.195206665423, -4710.563088722598, -60651.324469008985, -37243.90712307777, -11476.03380394385, -35428.11845876199, -4929.6548878735175, -26190.835379461692, -0.024, 0.918, 0.454, 192.0, 0.0, 0.0, 0.0, 0.0, 0.0, 0.0, 0.0, 0.0, 0.0, 1.6541557226239052E9, 0.0, 2022-06-02 09:42:02.623
12.0, 26075.88035772805, -4704.818690397584, -60630.827919343465, -37230.20550372666, -11465.439077072035, -35416.719069089784, -4908.308971918699, -26176.41850428802, -0.024, 0.918, 0.454, 192.0, 0.0, 0.0, 0.0, 0.0, 0.0, 0.0, 0.0, 0.0, 0.0, 1.6541557226239102E9, 0.0, 2022-06-02 09:42:02.623
13.0, 26085.335145632645, -4700.9071351179045, -60624.94941055172, -37227.09861124738, -11460.678155503054, -35418.21663596829, -4901.759910793294, -26188.197873615965, -0.024, 0.918, 0.454, 192.0, 0.0, 0.0, 0.0, 0.0, 0.0, 0.0, 0.0, 0.0, 0.0, 1.6541557226239154E9, 0.0, 2022-06-02 09:42:02.623
14.0, 26089.939604990435, -4708.752597421718, -60640.10389329242, -37239.16855325324, -11468.83654222924, -35424.765697093695, -4917.07085574518, -26204.9840337019, -0.024, 0.918, 0.454, 192.0, 0.0, 0.0, 0.0, 0.0, 0.0, 0.0, 0.0, 0.0, 0.0, 1.6541557226239207E9, 0.0, 2022-06-02 09:42:02.623
15.0, 26078.87549148506, -4724.130597606969, -60658.63348944587, -37261.56500119746, -11485.935626737552, -35445.374005481484, -4932.515911163797, -26205.453420335463, -0.024, 0.918, 0.454, 192.0, 0.0, 0.0, 0.0, 0.0, 0.0, 0.0, 0.0, 0.0, 0.0, 1.6541557226239257E9, 0.0, 2022-06-02 09:42:02.623
16.0, 26070.53829080323, -4723.79532144014, -60657.135922567366, -37251.618474914845, -11491.948245996029, -35448.57030493859, -4940.383725212065, -26201.51951331133, -0.024, 0.918, 0.454, 192.0, 0.0, 0.0, 0.0, 0.0, 0.0, 0.0, 0.0, 0.0, 0.0, 1.6541557226239307E9, 0.0, 2022-06-02 09:42:02.623
17.0, 26089.134942190045, -4697.934353105349, -60633.44307344474, -37232.91006480576, -11470.825847485763, -35424.49747616023, -4917.4508354009195, -26201.072478422222, -0.024, 0.918, 0.454, 192.0, 0.0, 0.0, 0.0, 0.0, 0.0, 0.0, 0.0, 0.0, 0.0, 1.654155722623936E9, 0.0, 2022-06-02 09:42:02.623
18.0, 26101.60721559611, -4691.206478024302, -60627.94454430873, -37232.395974683284, -11465.46142881649, -35419.87066505798, -4918.948402279425, -26185.381553814597, -0.024, 0.918, 0.454, 192.0, 0.0, 0.0, 0.0, 0.0, 0.0, 0.0, 0.0, 0.0, 0.0, 1.6541557226239412E9, 0.0, 2022-06-02 09:42:02.623
19.0, 26105.78699180925, -4700.773024651173, -60637.064056046496, -37229.80317232647, -11475.989100454939, -35432.00766229721, -4924.066951759691, -26187.2814520933, -0.026000000000000002, 0.92, 0.458, 192.0, 255.0, 48.0, 28.0, 192.0, 14.0, 80.0, 0.0, 0.0, 0.0, 1.6541557226239471E9, 0.0, 2022-06-02 09:42:02.623
20.0, 26107.150448221022, -4709.512556733198, -60646.60825092891, -37237.17924799672, -11488.886057005651, -35436.835639099554, -4928.2467279728335, -26191.61769051763, -0.026000000000000002, 0.92, 0.458, 192.0, 0.0, 0.0, 0.0, 0.0, 0.0, 0.0, 0.0, 0.0, 0.0, 1.6541557226239529E9, 0.0, 2022-06-02 09:42:02.623
21.0, 26107.195151709933, -4708.238507299246, -60646.071809061985, -37240.33084396492, -11489.646016317132, -35435.807458854615, -4935.376934454076, -26189.13664688309, -0.026000000000000002, 0.92, 0.458, 192.0, 0.0, 0.0, 0.0, 0.0, 0.0, 0.0, 0.0, 0.0, 0.0, 1.654155722623958E9, 0.0, 2022-06-02 09:42:02.623
22.0, 26099.439096383943, -4696.302675760112, -60631.677285632766, -37230.56313163795, -11474.357423109703, -35426.017394783186, -4917.83081505666, -26200.603091788664, -0.026000000000000002, 0.92, 0.458, 192.0, 0.0, 0.0, 0.0, 0.0, 0.0, 0.0, 0.0, 0.0, 0.0, 1.6541557226239662E9, 0.0, 2022-06-02 09:42:02.623
23.0, 26103.954148763914, -4698.023760083171, -60629.308000720506, -37228.41736417024, -11469.283577118347, -35425.4138976829, -4910.097111475124, -26195.730411497407, -0.026000000000000002, 0.92, 0.458, 192.0, 0.0, 0.0, 0.0, 0.0, 0.0, 0.0, 0.0, 0.0, 0.0, 1.6541557226239715E9, 0.0, 2022-06-02 09:42:02.623
24.0, 26108.82682905517, -4693.419300725377, -60628.458634431205, -37226.45041065817, -11467.048402672817, -35424.09514476003, -4923.284640703755, -26188.890777694083, -0.026000000000000002, 0.92, 0.458, 192.0, 0.0, 0.0, 0.0, 0.0, 0.0, 0.0, 0.0, 0.0, 0.0, 1.6541557226239765E9, 0.0, 2022-06-02 09:42:02.623
25.0, 26101.07077372918, -4700.527155462165, -60642.093198548944, -37235.79343984049, -11479.386565612145, -35430.979482052266, -4924.35752443761, -26190.56715852823, -0.026000000000000002, 0.92, 0.458, 192.0, 0.0, 0.0, 0.0, 0.0, 0.0, 0.0, 0.0, 0.0, 0.0, 1.6541557226239817E9, 0.0, 2022-06-02 09:42:02.623
26.0, 26092.197131180423, -4703.231716541257, -60645.69182940625, -37238.25213173057, -11484.929798237063, -35429.61602564049, -4939.221434500389, -26178.988954900382, -0.026000000000000002, 0.92, 0.458, 192.0, 0.0, 0.0, 0.0, 0.0, 0.0, 0.0, 0.0, 0.0, 0.0, 1.6541557226239867E9, 0.0, 2022-06-02 09:42:02.623
27.0, 26108.58095986616, -4687.4066814668995, -60627.05047453052, -37224.572864123926, -11470.289405618836, -35412.47223764327, -4937.142722266045, -26171.188196085477, -0.026000000000000002, 0.92, 0.458, 192.0, 0.0, 0.0, 0.0, 0.0, 0.0, 0.0, 0.0, 0.0, 0.0, 1.654155722623992E9, 0.0, 2022-06-02 09:42:02.623
28.0, 26134.017245056304, -4683.584533165042, -60628.302172220014, -37221.98006176711, -11463.740344493432, -35409.097124230524, -4905.962038750892, -26166.248460560855, -0.03, 0.918, 0.46, 192.0, 255.0, 16.0, 28.0, 176.0, 14.0, 96.0, 0.0, 0.0, 0.0, 1.6541557226239974E9, 0.0, 2022-06-02 09:42:02.623
29.0, 26126.26118973031, -4684.523306432165, -60626.17875649676, -37220.32603267742, -11452.855044943697, -35411.98049926526, -4890.785204265739, -26179.2795275783, -0.03, 0.918, 0.46, 192.0, 0.0, 0.0, 0.0, 0.0, 0.0, 0.0, 0.0, 0.0, 0.0, 1.6541557226240044E9, 0.0, 2022-06-02 09:42:02.624
30.0, 26103.44005864144, -4697.68848391634, -60636.19233801274, -37236.82162008544, -11468.523617806866, -35428.92312156238, -4926.97267853888, -26207.91211222555, -0.03, 0.918, 0.46, 192.0, 0.0, 0.0, 0.0, 0.0, 0.0, 0.0, 0.0, 0.0, 0.0, 1.6541557226240096E9, 0.0, 2022-06-02 09:42:02.624
31.0, 26100.579035351162, -4700.705969417807, -60636.61702115739, -37241.336672465404, -11478.93953072304, -35427.559665150606, -4938.394419955543, -26184.442780547477, -0.03, 0.918, 0.46, 192.0, 0.0, 0.0, 0.0, 0.0, 0.0, 0.0, 0.0, 0.0, 0.0, 1.6541557226240149E9, 0.0, 2022-06-02 09:42:02.624
32.0, 26105.675233086975, -4702.225888040768, -60637.84636710243, -37243.3930329553, -11476.257321388402, -35426.30796746111, -4902.765739293783, -26169.109483851134, -0.03, 0.918, 0.46, 192.0, 0.0, 0.0, 0.0, 0.0, 0.0, 0.0, 0.0, 0.0, 0.0, 1.6541557226240199E9, 0.0, 2022-06-02 09:42:02.624
33.0, 26119.153334993523, -4689.999483823715, -60630.64910538783, -37241.336672465404, -11462.26512935938, -35418.82013306858, -4883.878515229048, -26188.890777694083, -0.03, 0.918, 0.46, 192.0, 0.0, 0.0, 0.0, 0.0, 0.0, 0.0, 0.0, 0.0, 0.0, 1.6541557226240256E9, 0.0, 2022-06-02 09:42:02.624
34.0, 26117.812230326206, -4698.582553694553, -60640.30505899252, -37244.220047500145, -11472.636338786644, -35429.10193551802, -4925.184538982456, -26200.871312722127, -0.03, 0.918, 0.46, 192.0, 0.0, 0.0, 0.0, 0.0, 0.0, 0.0, 0.0, 0.0, 0.0, 1.6541557226240308E9, 0.0, 2022-06-02 09:42:02.624
35.0, 26114.191247724444, -4700.54950720662, -60644.35072473893, -37244.37650971133, -11482.627568558166, -35431.24770298573, -4945.412867714509, -26194.165789385534, -0.03, 0.918, 0.46, 192.0, 0.0, 0.0, 0.0, 0.0, 0.0, 0.0, 0.0, 0.0, 0.0, 1.6541557226240363E9, 0.0, 2022-06-02 09:42:02.624
36.0, 26106.010509253803, -4690.4018152239105, -60634.605364156414, -37240.308492220465, -11481.957016224505, -35426.19620873883, -4940.383725212065, -26208.023870947825, -0.03, 0.918, 0.46, 192.0, 0.0, 0.0, 0.0, 0.0, 0.0, 0.0, 0.0, 0.0, 0.0, 1.6541557226240416E9, 0.0, 2022-06-02 09:42:02.624
37.0, 26120.1144600051, -4679.114184273981, -60619.361474437894, -37226.40570716926, -11468.300100362314, -35405.96788000678, -4920.535376135752, -26201.921844711527, -0.03, 0.918, 0.46, 192.0, 0.0, 0.0, 0.0, 0.0, 0.0, 0.0, 0.0, 0.0, 0.0, 1.6541557226240468E9, 0.0, 2022-06-02 09:42:02.624
38.0, 26117.07462275918, -4685.3503209770115, -60622.37895993936, -37229.89257930429, -11463.561530537789, -35411.62287135397, -4926.793864583238, -26181.447646790464, -0.024, 0.92, 0.462, 192.0, 255.0, 64.0, 28.0, 192.0, 14.0, 112.0, 0.0, 0.0, 0.0, 1.654155722624052E9, 0.0, 2022-06-02 09:42:02.624
39.0, 26099.416744639486, -4711.255992800712, -60643.277841005074, -37253.093690048896, -11475.69852777702, -35435.60629315452, -4933.052353030724, -26173.713943208928, -0.024, 0.92, 0.462, 192.0, 0.0, 0.0, 0.0, 0.0, 0.0, 0.0, 0.0, 0.0, 0.0, 1.6541557226240573E9, 0.0, 2022-06-02 09:42:02.624
40.0, 26093.44882886992, -4719.5708417380865, -60651.14565505334, -37262.57082969795, -11479.744193523431, -35446.40218572643, -4929.274908217777, -26219.57972283122, -0.024, 0.92, 0.462, 192.0, 0.0, 0.0, 0.0, 0.0, 0.0, 0.0, 0.0, 0.0, 0.0, 1.6541557226240623E9, 0.0, 2022-06-02 09:42:02.624
41.0, 26098.92500626147, -4714.809920169106, -60649.42457073028, -37262.50377446458, -11478.000757455917, -35445.08343280356, -4929.096094262135, -26230.48737412541, -0.024, 0.92, 0.462, 192.0, 0.0, 0.0, 0.0, 0.0, 0.0, 0.0, 0.0, 0.0, 0.0, 1.6541557226240675E9, 0.0, 2022-06-02 09:42:02.624
42.0, 26104.602349353117, -4711.211289311801, -60648.798721885534, -37255.105347049874, -11478.425440600568, -35434.131078020466, -4926.793864583238, -26198.05499292076, -0.024, 0.92, 0.462, 192.0, 0.0, 0.0, 0.0, 0.0, 0.0, 0.0, 0.0, 0.0, 0.0, 1.6541557226240728E9, 0.0, 2022-06-02 09:42:02.624
43.0, 26092.01831722478, -4706.875050887472, -60646.65295441783, -37256.71467265066, -11475.139734165637, -35432.164124508396, -4923.508158148308, -26179.681858978496, -0.024, 0.92, 0.462, 192.0, 0.0, 0.0, 0.0, 0.0, 0.0, 0.0, 0.0, 0.0, 0.0, 1.6541557226240804E9, 0.0, 2022-06-02 09:42:02.624
44.0, 26096.68983181594, -4709.289039288645, -60645.870643361886, -37252.043158059496, -11474.670347532076, -35432.27588323067, -4924.02224827078, -26172.194024585966, -0.024, 0.92, 0.462, 192.0, 0.0, 0.0, 0.0, 0.0, 0.0, 0.0, 0.0, 0.0, 0.0, 1.6541557226240854E9, 0.0, 2022-06-02 09:42:02.624
45.0, 26094.49936085932, -4716.776873681173, -60658.9687656127, -37262.593181442404, -11486.002681970916, -35444.14465953644, -4931.30891696321, -26211.689557038495, -0.024, 0.92, 0.462, 192.0, 0.0, 0.0, 0.0, 0.0, 0.0, 0.0, 0.0, 0.0, 0.0, 1.6541557226240907E9, 0.0, 2022-06-02 09:42:02.624
46.0, 26121.1649919945, -4699.923658361871, -60657.98528885667, -37257.005245328575, -11483.029899958361, -35438.2661507447, -4933.342925708643, -26209.789658759793, -0.024, 0.92, 0.462, 192.0, 0.0, 0.0, 0.0, 0.0, 0.0, 0.0, 0.0, 0.0, 0.0, 1.654155722624096E9, 0.0, 2022-06-02 09:42:02.624
47.0, 26128.94339906495, -4692.100547802514, -60656.44301848925, -37253.67483540474, -11477.88899873364, -35429.57132215158, -4925.07278026018, -26193.428181818508, -0.024, 0.92, 0.462, 192.0, 0.0, 0.0, 0.0, 0.0, 0.0, 0.0, 0.0, 0.0, 0.0, 1.6541557226241007E9, 0.0, 2022-06-02 09:42:02.624
48.0, 26110.816134311695, -4689.887725101438, -60636.39350371284, -37242.94599806619, -11464.254434615903, -35416.58495862305, -4912.846376043127, -26175.859710676636, -0.03, 0.92, 0.456, 192.0, 255.0, 16.0, 28.0, 192.0, 14.0, 64.0, 0.0, 0.0, 0.0, 1.6541557226241064E9, 0.0, 2022-06-02 09:42:02.624
49.0, 26085.223386910366, -4712.3512282790225, -60650.7656753976, -37250.05385280298, -11479.900655734618, -35433.572284409085, -4935.198120498433, -26189.918957939026, -0.03, 0.92, 0.456, 192.0, 0.0, 0.0, 0.0, 0.0, 0.0, 0.0, 0.0, 0.0, 0.0, 1.6541557226241117E9, 0.0, 2022-06-02 09:42:02.624
50.0, 26075.858005983595, -4733.183054111369, -60670.256396562625, -37268.896373378804, -11499.212562944003, -35452.21363928481, -4962.668414434006, -26225.32412115623, -0.03, 0.92, 0.456, 192.0, 0.0, 0.0, 0.0, 0.0, 0.0, 0.0, 0.0, 0.0, 0.0, 1.654155722624117E9, 0.0, 2022-06-02 09:42:02.624
51.0, 26085.513959588287, -4722.498920261732, -60664.69081219326, -37267.488213478115, -11493.579923341265, -35446.089261304056, -4941.993050812847, -26222.261932165853, -0.03, 0.92, 0.456, 192.0, 0.0, 0.0, 0.0, 0.0, 0.0, 0.0, 0.0, 0.0, 0.0, 1.654155722624122E9, 0.0, 2022-06-02 09:42:02.624
52.0, 26103.39535515253, -4707.255030543212, -60652.03972483155, -37249.9420940807, -11477.285501633347, -35429.81719134059, -4915.193309210934, -26176.999649643858, -0.03, 0.92, 0.456, 192.0, 0.0, 0.0, 0.0, 0.0, 0.0, 0.0, 0.0, 0.0, 0.0, 1.6541557226241271E9, 0.0, 2022-06-02 09:42:02.624
53.0, 26110.793782567238, -4704.326952019567, -60653.3137742655, -37249.0927277914, -11473.686870776042, -35425.97269129428, -4931.286565218755, -26163.253326803846, -0.03, 0.92, 0.456, 192.0, 0.0, 0.0, 0.0, 0.0, 0.0, 0.0, 0.0, 0.0, 0.0, 1.6541557226241324E9, 0.0, 2022-06-02 09:42:02.624
54.0, 26129.50219267633, -4692.905210602905, -60652.88909112085, -37248.042195802, -11469.395335840623, -35419.42363016887, -4922.6140883700955, -26197.093867909178, -0.03, 0.92, 0.456, 192.0, 0.0, 0.0, 0.0, 0.0, 0.0, 0.0, 0.0, 0.0, 0.0, 1.6541557226241376E9, 0.0, 2022-06-02 09:42:02.624
55.0, 26111.21846571189, -4709.087873588547, -60668.58001572848, -37262.41436748676, -11486.494420348934, -35440.68013914587, -4928.380838439565, -26209.56614131524, -0.03, 0.92, 0.456, 192.0, 0.0, 0.0, 0.0, 0.0, 0.0, 0.0, 0.0, 0.0, 0.0, 1.654155722624143E9, 0.0, 2022-06-02 09:42:02.624
56.0, 26094.007622481302, -4716.486301003254, -60670.43521051827, -37267.53291696703, -11496.575057098276, -35448.61500842751, -4945.748143881338, -26203.642929034584, -0.03, 0.92, 0.456, 192.0, 0.0, 0.0, 0.0, 0.0, 0.0, 0.0, 0.0, 0.0, 0.0, 1.654155722624148E9, 0.0, 2022-06-02 09:42:02.624
57.0, 26116.560532636708, -4702.538812463143, -60655.75011441113, -37251.12673653683, -11486.136792437648, -35432.90173207542, -4944.02705955828, -26202.57004530073, -0.03, 0.92, 0.456, 192.0, 0.0, 0.0, 0.0, 0.0, 0.0, 0.0, 0.0, 0.0, 0.0, 1.6541557226241531E9, 0.0, 2022-06-02 09:42:02.624
58.0, 26132.78789911126, -4696.637951926941, -60653.29142252105, -37248.08689929091, -11479.475972589968, -35428.20786573981, -4924.625745371073, -26189.583681772197, -0.034, 0.916, 0.452, 192.0, 254.0, 240.0, 28.0, 160.0, 14.0, 32.0, 0.0, 0.0, 0.0, 1.6541557226241584E9, 0.0, 2022-06-02 09:42:02.624
59.0, 26117.432250670463, -4701.801204896117, -60660.10870457992, -37260.98385584162, -11479.4089173566, -35438.95905482281, -4924.849262815626, -26204.9840337019, -0.034, 0.916, 0.452, 192.0, 0.0, 0.0, 0.0, 0.0, 0.0, 0.0, 0.0, 0.0, 0.0, 1.6541557226241636E9, 0.0, 2022-06-02 09:42:02.624
60.0, 26122.84137282865, -4705.668056686885, -60667.03774536106, -37270.95273386869, -11486.583827326755, -35449.77729913918, -4944.384687469565, -26226.598170590183, -0.034, 0.916, 0.452, 192.0, 0.0, 0.0, 0.0, 0.0, 0.0, 0.0, 0.0, 0.0, 0.0, 1.6541557226241689E9, 0.0, 2022-06-02 09:42:02.624
61.0, 26123.73544260686, -4702.225888040768, -60664.891977893356, -37256.20058252819, -11489.780126783864, -35440.21075251231, -4934.16994025349, -26200.781905744305, -0.034, 0.916, 0.452, 192.0, 0.0, 0.0, 0.0, 0.0, 0.0, 0.0, 0.0, 0.0, 0.0, 1.654155722624174E9, 0.0, 2022-06-02 09:42:02.624
62.0, 26117.923989048482, -4697.912001360894, -60656.95710861172, -37251.99845457059, -11488.908408750107, -35439.27197924518, -4940.294318234243, -26211.242522149387, -0.034, 0.916, 0.452, 192.0, 0.0, 0.0, 0.0, 0.0, 0.0, 0.0, 0.0, 0.0, 0.0, 1.6541557226241796E9, 0.0, 2022-06-02 09:42:02.624
63.0, 26110.88318954506, -4698.694312416829, -60650.87743411987, -37252.22197201514, -11488.886057005651, -35440.1660490234, -4949.324422994187, -26187.884949193594, -0.034, 0.916, 0.452, 192.0, 0.0, 0.0, 0.0, 0.0, 0.0, 0.0, 0.0, 0.0, 0.0, 1.654155722624185E9, 0.0, 2022-06-02 09:42:02.624
64.0, 26110.056175000213, -4703.946972363827, -60658.00764060112, -37258.391053484804, -11488.439022116545, -35441.4177467129, -4947.022193315291, -26189.829550961203, -0.034, 0.916, 0.452, 192.0, 0.0, 0.0, 0.0, 0.0, 0.0, 0.0, 0.0, 0.0, 0.0, 1.6541557226241925E9, 0.0, 2022-06-02 09:42:02.624
65.0, 26119.22039022689, -4704.751635164218, -60667.261262805616, -37267.46586173366, -11493.80344078582, -35450.22433402829, -4946.284585748266, -26214.729394284415, -0.034, 0.916, 0.452, 192.0, 0.0, 0.0, 0.0, 0.0, 0.0, 0.0, 0.0, 0.0, 0.0, 1.6541557226241975E9, 0.0, 2022-06-02 09:42:02.624
66.0, 26143.382625983075, -4690.781794879651, -60652.62087018739, -37255.6417889168, -11488.930760494562, -35440.21075251231, -4935.689858876451, -26210.035527948803, -0.034, 0.916, 0.452, 192.0, 0.0, 0.0, 0.0, 0.0, 0.0, 0.0, 0.0, 0.0, 0.0, 1.6541557226242027E9, 0.0, 2022-06-02 09:42:02.624
67.0, 26148.098844063144, -4686.870239599972, -60645.04362881704, -37244.622378900334, -11484.080431947761, -35429.2136942403, -4920.043637757735, -26182.341716568677, -0.034, 0.916, 0.452, 192.0, 0.0, 0.0, 0.0, 0.0, 0.0, 0.0, 0.0, 0.0, 0.0, 1.654155722624208E9, 0.0, 2022-06-02 09:42:02.624
68.0, 26122.014358283803, -4680.54469591912, -60631.72198912168, -37229.84787581538, -11472.278710875358, -35419.06600225759, -4917.093207489635, -26201.005423188857, -0.032, 0.918, 0.446, 192.0, 255.0, 0.0, 28.0, 176.0, 13.0, 240.0, 0.0, 0.0, 0.0, 1.6541557226242132E9, 0.0, 2022-06-02 09:42:02.624
69.0, 26122.774317595282, -4680.87997208595, -60634.605364156414, -37232.61949212784, -11471.921082964074, -35426.77735409467, -4920.44596915793, -26210.817839004736, -0.032, 0.918, 0.446, 192.0, 0.0, 0.0, 0.0, 0.0, 0.0, 0.0, 0.0, 0.0, 0.0, 1.6541557226242185E9, 0.0, 2022-06-02 09:42:02.624
70.0, 26135.425404956986, -4686.1773355218575, -60644.90951835031, -37243.46008818866, -11482.828734258263, -35438.9143513339, -4929.140797751045, -26200.80425748876, -0.032, 0.918, 0.446, 192.0, 0.0, 0.0, 0.0, 0.0, 0.0, 0.0, 0.0, 0.0, 0.0, 1.6541557226242237E9, 0.0, 2022-06-02 09:42:02.624
71.0, 26143.673198660996, -4684.478602943254, -60639.85802410341, -37238.36389045285, -11487.075565704772, -35435.025147798675, -4928.470245417386, -26179.52539676731, -0.032, 0.918, 0.446, 192.0, 0.0, 0.0, 0.0, 0.0, 0.0, 0.0, 0.0, 0.0, 0.0, 1.6541557226242287E9, 0.0, 2022-06-02 09:42:02.624
72.0, 26136.69945439094, -4680.321178474567, -60632.370189710884, -37229.4902479041, -11484.929798237063, -35424.69864186033, -4932.02417278578, -26174.429199031496, -0.032, 0.918, 0.446, 192.0, 0.0, 0.0, 0.0, 0.0, 0.0, 0.0, 0.0, 0.0, 0.0, 1.654155722624234E9, 0.0, 2022-06-02 09:42:02.624
73.0, 26135.425404956986, -4677.1919342508245, -60633.73364612266, -37231.904236305265, -11483.566341825288, -35429.95130180732, -4937.7015158774275, -26225.257065922866, -0.032, 0.918, 0.446, 192.0, 0.0, 0.0, 0.0, 0.0, 0.0, 0.0, 0.0, 0.0, 0.0, 1.6541557226242392E9, 0.0, 2022-06-02 09:42:02.624
74.0, 26144.74608239485, -4678.041300540126, -60639.14276828084, -37241.493134676595, -11482.873437747174, -35436.03097629917, -4937.634460644062, -26220.47379260943, -0.032, 0.918, 0.446, 192.0, 0.0, 0.0, 0.0, 0.0, 0.0, 0.0, 0.0, 0.0, 0.0, 1.6541557226242445E9, 0.0, 2022-06-02 09:42:02.624
75.0, 26150.26696327531, -4681.282303486145, -60646.13886429535, -37249.383300469315, -11489.288388405846, -35439.92017983439, -4935.35458270962, -26179.614803745128, -0.032, 0.918, 0.446, 192.0, 0.0, 0.0, 0.0, 0.0, 0.0, 0.0, 0.0, 0.0, 0.0, 1.6541557226242497E9, 0.0, 2022-06-02 09:42:02.624
76.0, 26145.528393450786, -4683.986864565238, -60647.30115500703, -37251.57377142594, -11493.289350663346, -35442.021243813186, -4940.853111845626, -26211.689557038495, -0.032, 0.918, 0.446, 192.0, 0.0, 0.0, 0.0, 0.0, 0.0, 0.0, 0.0, 0.0, 0.0, 1.6541557226242547E9, 0.0, 2022-06-02 09:42:02.624
77.0, 26138.107614291624, -4678.421280195866, -60644.10485554992, -37243.12481202183, -11490.98712098445, -35433.52758092017, -4940.003745556324, -26225.14530720059, -0.032, 0.918, 0.446, 192.0, 0.0, 0.0, 0.0, 0.0, 0.0, 0.0, 0.0, 0.0, 0.0, 1.65415572262426E9, 0.0, 2022-06-02 09:42:02.624
78.0, 26146.46716671791, -4671.3804806924445, -60636.505262435116, -37226.91979729173, -11476.302024877314, -35423.73751684875, -4935.488693176352, -26198.300862109765, -0.032, 0.92, 0.452, 192.0, 255.0, 0.0, 28.0, 192.0, 14.0, 32.0, 0.0, 0.0, 0.0, 1.6541557226242652E9, 0.0, 2022-06-02 09:42:02.624
79.0, 26156.90543137854, -4678.868315084972, -60642.83080611597, -37236.97808229662, -11477.061984188795, -35436.8132873551, -4946.083420048168, -26207.174504658524, -0.032, 0.92, 0.452, 192.0, 0.0, 0.0, 0.0, 0.0, 0.0, 0.0, 0.0, 0.0, 0.0, 1.6541557226242707E9, 0.0, 2022-06-02 09:42:02.624
80.0, 26162.068684347712, -4686.490259944232, -60651.168006797794, -37248.60098941338, -11489.46720236149, -35449.75494739472, -4941.255443245822, -26202.815914489736, -0.032, 0.92, 0.452, 192.0, 0.0, 0.0, 0.0, 0.0, 0.0, 0.0, 0.0, 0.0, 0.0, 1.6541557226242757E9, 0.0, 2022-06-02 09:42:02.624
81.0, 26168.863614662125, -4677.393099950922, -60639.075713047474, -37241.783707354516, -11486.60617907121, -35436.232141999266, -4934.92989956497, -26188.957832927448, -0.032, 0.92, 0.452, 192.0, 0.0, 0.0, 0.0, 0.0, 0.0, 0.0, 0.0, 0.0, 0.0, 1.654155722624281E9, 0.0, 2022-06-02 09:42:02.624
82.0, 26170.741161196373, -4672.073384770559, -60634.04657054503, -37236.35223345187, -11478.403088856112, -35427.20203723932, -4923.932841292959, -26205.878103480114, -0.032, 0.92, 0.452, 192.0, 0.0, 0.0, 0.0, 0.0, 0.0, 0.0, 0.0, 0.0, 0.0, 1.6541557226242862E9, 0.0, 2022-06-02 09:42:02.624
83.0, 26163.32038203721, -4671.581646392542, -60632.52665192207, -37235.74873635158, -11468.724783506965, -35427.559665150606, -4909.5830213526515, -26197.56325454274, -0.032, 0.92, 0.452, 192.0, 0.0, 0.0, 0.0, 0.0, 0.0, 0.0, 0.0, 0.0, 0.0, 1.6541557226242914E9, 0.0, 2022-06-02 09:42:02.624
84.0, 26151.585716198173, -4678.868315084972, -60637.57814616897, -37244.980006811624, -11470.915254463585, -35436.52271467718, -4922.2117569699, -26185.47096079242, -0.032, 0.92, 0.452, 192.0, 0.0, 0.0, 0.0, 0.0, 0.0, 0.0, 0.0, 0.0, 0.0, 1.6541557226242967E9, 0.0, 2022-06-02 09:42:02.624
85.0, 26151.74217840936, -4684.612713409986, -60643.769579383086, -37251.70788189267, -11482.5605133248, -35442.98236882476, -4941.344850223643, -26210.504914582365, -0.032, 0.92, 0.452, 192.0, 0.0, 0.0, 0.0, 0.0, 0.0, 0.0, 0.0, 0.0, 0.0, 1.654155722624302E9, 0.0, 2022-06-02 09:42:02.624
86.0, 26158.447701745954, -4688.6360274119415, -60651.57033819799, -37253.9430563382, -11497.044443731838, -35440.59073216805, -4954.353565496632, -26205.00638544636, -0.032, 0.92, 0.452, 192.0, 0.0, 0.0, 0.0, 0.0, 0.0, 0.0, 0.0, 0.0, 0.0, 1.654155722624309E9, 0.0, 2022-06-02 09:42:02.624
87.0, 26160.83933840267, -4675.44849818331, -60642.294364249035, -37239.36971895334, -11490.495382606434, -35428.610197140006, -4947.111600293112, -26192.936443440492, -0.032, 0.92, 0.452, 192.0, 0.0, 0.0, 0.0, 0.0, 0.0, 0.0, 0.0, 0.0, 0.0, 1.6541557226243143E9, 0.0, 2022-06-02 09:42:02.624
88.0, 26154.0220563438, -4670.978149292248, -60638.941602580744, -37239.50382942007, -11480.41474585709, -35424.5645313936, -4928.537300650752, -26198.18910338749, -0.032, 0.916, 0.45, 192.0, 255.0, 0.0, 28.0, 160.0, 14.0, 16.0, 0.0, 0.0, 0.0, 1.6541557226243193E9, 0.0, 2022-06-02 09:42:02.624
89.0, 26162.98510587038, -4670.017024280671, -60638.65102990282, -37238.498000919586, -11473.083373675749, -35424.3633656935, -4916.40030341152, -26207.867408736638, -0.032, 0.916, 0.45, 192.0, 0.0, 0.0, 0.0, 0.0, 0.0, 0.0, 0.0, 0.0, 0.0, 1.6541557226243246E9, 0.0, 2022-06-02 09:42:02.624
90.0, 26157.75479766784, -4689.105414045503, -60660.6674981913, -37258.43575697372, -11493.55757159681, -35447.63153167147, -4944.518797936296, -26218.75270828637, -0.032, 0.916, 0.45, 192.0, 0.0, 0.0, 0.0, 0.0, 0.0, 0.0, 0.0, 0.0, 0.0, 1.6541557226243298E9, 0.0, 2022-06-02 09:42:02.624
91.0, 26166.337867538678, -4692.525230947164, -60667.14950408334, -37268.71755942316, -11499.413728644102, -35451.677197417885, -4938.282661233266, -26224.184182189012, -0.032, 0.916, 0.45, 192.0, 0.0, 0.0, 0.0, 0.0, 0.0, 0.0, 0.0, 0.0, 0.0, 1.654155722624335E9, 0.0, 2022-06-02 09:42:02.624
92.0, 26170.69645770746, -4688.099585545014, -60667.57418722799, -37272.29383853601, -11495.345711153235, -35447.16214503791, -4933.45468443092, -26204.671109279527, -0.032, 0.916, 0.45, 192.0, 0.0, 0.0, 0.0, 0.0, 0.0, 0.0, 0.0, 0.0, 0.0, 1.6541557226243403E9, 0.0, 2022-06-02 09:42:02.624
93.0, 26167.70132395045, -4684.456251198799, -60660.0192976021, -37251.93139933722, -11487.4108418716, -35433.61698789799, -4930.92893730747, -26195.104562652657, -0.032, 0.916, 0.45, 192.0, 0.0, 0.0, 0.0, 0.0, 0.0, 0.0, 0.0, 0.0, 0.0, 1.6541557226243455E9, 0.0, 2022-06-02 09:42:02.624
94.0, 26161.66635294752, -4685.082100043547, -60662.656803447826, -37250.165611525255, -11480.951187724017, -35436.366252465996, -4923.329344192665, -26195.79746673077, -0.032, 0.916, 0.45, 192.0, 0.0, 0.0, 0.0, 0.0, 0.0, 0.0, 0.0, 0.0, 0.0, 1.6541557226243527E9, 0.0, 2022-06-02 09:42:02.624
95.0, 26160.951097124947, -4691.78762338014, -60674.1232483534, -37262.83905063141, -11489.17662968357, -35447.65388341593, -4947.379821226576, -26213.298882639276, -0.032, 0.916, 0.45, 192.0, 0.0, 0.0, 0.0, 0.0, 0.0, 0.0, 0.0, 0.0, 0.0, 1.654155722624358E9, 0.0, 2022-06-02 09:42:02.624
96.0, 26174.85388217615, -4683.584533165042, -60673.475047764194, -37256.46880346165, -11490.69654830653, -35439.42844145637, -4936.762742610305, -26219.04328096429, -0.032, 0.916, 0.45, 192.0, 0.0, 0.0, 0.0, 0.0, 0.0, 0.0, 0.0, 0.0, 0.0, 1.6541557226243632E9, 0.0, 2022-06-02 09:42:02.624
97.0, 26159.006495357335, -4674.129745260447, -60659.75107666863, -37246.32111147894, -11477.218446399982, -35426.55383665011, -4914.54510862173, -26196.71388825344, -0.032, 0.916, 0.45, 192.0, 0.0, 0.0, 0.0, 0.0, 0.0, 0.0, 0.0, 0.0, 0.0, 1.6541557226243684E9, 0.0, 2022-06-02 09:42:02.624
98.0, 26164.639134960074, -4676.051995283603, -60655.90657662232, -37246.119945778846, -11473.239835886936, -35427.20203723932, -4920.691838346939, -26207.91211222555, -0.032, 0.912, 0.456, 192.0, 255.0, 0.0, 28.0, 128.0, 14.0, 64.0, 0.0, 0.0, 0.0, 1.654155722624374E9, 0.0, 2022-06-02 09:42:02.624
99.0, 26159.78880641327, -4686.512611688687, -60676.067850121006, -37261.11796630835, -11481.666443546586, -35439.5625519231, -4936.360411210109, -26202.167713900533, -0.032, 0.912, 0.456, 192.0, 0.0, 0.0, 0.0, 0.0, 0.0, 0.0, 0.0, 0.0, 0.0, 1.654155722624379E9, 0.0, 2022-06-02 09:42:02.624
100.0, 26158.961791868423, -4691.87703035796, -60690.64118750587, -37268.47169023415, -11495.435118131056, -35443.9658455808, -4948.743277638349, -26199.0831731657, -0.032, 0.912, 0.456, 192.0, 0.0, 0.0, 0.0, 0.0, 0.0, 0.0, 0.0, 0.0, 0.0, 1.6541557226243842E9, 0.0, 2022-06-02 09:42:02.624
101.0, 26159.69939943545, -4688.859544856495, -60693.479859051695, -37264.26956227655, -11500.553667611322, -35440.568380423596, -4933.678201875473, -26213.030661705812, -0.032, 0.912, 0.456, 192.0, 0.0, 0.0, 0.0, 0.0, 0.0, 0.0, 0.0, 0.0, 0.0, 1.6541557226243894E9, 0.0, 2022-06-02 09:42:02.624
102.0, 26179.927728167502, -4668.072422513059, -60674.5702832425, -37245.91878007875, -11485.354481381713, -35426.48678141675, -4926.056257016213, -26205.81104824675, -0.032, 0.912, 0.456, 192.0, 0.0, 0.0, 0.0, 0.0, 0.0, 0.0, 0.0, 0.0, 0.0, 1.6541557226243947E9, 0.0, 2022-06-02 09:42:02.624
103.0, 26172.909280408538, -4672.743937104218, -60673.25153031964, -37253.69718714919, -11484.572170325777, -35430.48774367425, -4933.275870475277, -26202.435934833997, -0.032, 0.912, 0.456, 192.0, 0.0, 0.0, 0.0, 0.0, 0.0, 0.0, 0.0, 0.0, 0.0, 1.6541557226244E9, 0.0, 2022-06-02 09:42:02.624
104.0, 26185.694478236972, -4676.186105750336, -60677.58776874397, -37254.18892552721, -11480.995891212928, -35429.95130180732, -4928.850225073126, -26203.0841354232, -0.032, 0.912, 0.456, 192.0, 0.0, 0.0, 0.0, 0.0, 0.0, 0.0, 0.0, 0.0, 0.0, 1.654155722624405E9, 0.0, 2022-06-02 09:42:02.624
105.0, 26187.683783493496, -4684.746823876718, -60686.01437640362, -37265.43185298823, -11490.60714132871, -35442.35651998002, -4929.185501239956, -26211.533094827308, -0.032, 0.912, 0.456, 192.0, 0.0, 0.0, 0.0, 0.0, 0.0, 0.0, 0.0, 0.0, 0.0, 1.654155723104032E9, 0.0, 2022-06-02 09:42:03.104
106.0, 26186.543844526273, -4683.070443042569, -60684.025071147094, -37256.46880346165, -11498.899638521629, -35439.60725541202, -4945.926957836981, -26196.55742604225, -0.032, 0.912, 0.456, 192.0, 0.0, 0.0, 0.0, 0.0, 0.0, 0.0, 0.0, 0.0, 0.0, 1.654155723104144E9, 0.0, 2022-06-02 09:42:03.104
107.0, 26207.219208147435, -4663.06563175507, -60658.320565023496, -37225.757506580056, -11472.569283553277, -35415.06504000009, -4917.204966211912, -26178.385457800086, -0.034, 0.912, 0.456, 192.0, 254.0, 240.0, 28.0, 128.0, 14.0, 64.0, 0.0, 0.0, 0.0, 1.6541557231041667E9, 0.0, 2022-06-02 09:42:03.104
108.0, 26189.091943394178, -4663.959701533282, -60650.98919284216, -37225.22106471313, -11464.79087648283, -35412.62869985446, -4902.452814871409, -26184.688649736483, -0.034, 0.912, 0.456, 192.0, 0.0, 0.0, 0.0, 0.0, 0.0, 0.0, 0.0, 0.0, 0.0, 1.6541557231041725E9, 0.0, 2022-06-02 09:42:03.104
109.0, 26186.163864870534, -4664.585550378031, -60648.37403874088, -37226.36100368035, -11460.544045036322, -35411.06407774259, -4897.870707258071, -26177.066704877223, -0.034, 0.912, 0.456, 192.0, 0.0, 0.0, 0.0, 0.0, 0.0, 0.0, 0.0, 0.0, 0.0, 1.6541557231041777E9, 0.0, 2022-06-02 09:42:03.104
110.0, 26182.14055086858, -4684.679768643352, -60669.988175629165, -37250.38912896981, -11481.040594701839, -35433.59463615354, -4919.64130635754, -26197.295033609276, -0.034, 0.912, 0.456, 192.0, 0.0, 0.0, 0.0, 0.0, 0.0, 0.0, 0.0, 0.0, 0.0, 1.6541557231041832E9, 0.0, 2022-06-02 09:42:03.104
111.0, 26198.4349725765, -4677.63896913993, -60672.37981228588, -37249.33859698041, -11485.063908703794, -35434.891037331945, -4927.419713427987, -26208.85088549267, -0.034, 0.912, 0.456, 192.0, 0.0, 0.0, 0.0, 0.0, 0.0, 0.0, 0.0, 0.0, 0.0, 1.6541557231041884E9, 0.0, 2022-06-02 09:42:03.104
112.0, 26204.60405404616, -4656.583625863031, -60653.7161056657, -37235.99460554059, -11468.143638151127, -35422.41876392588, -4905.984390495347, -26200.446629577476, -0.034, 0.912, 0.456, 192.0, 0.0, 0.0, 0.0, 0.0, 0.0, 0.0, 0.0, 0.0, 0.0, 1.6541557231041937E9, 0.0, 2022-06-02 09:42:03.104
113.0, 26213.23182740591, -4659.534056131131, -60644.261317761106, -37236.732213107614, -11462.153370637105, -35416.920234789875, -4893.288599644733, -26181.157074112547, -0.034, 0.912, 0.456, 192.0, 0.0, 0.0, 0.0, 0.0, 0.0, 0.0, 0.0, 0.0, 0.0, 1.654155723104199E9, 0.0, 2022-06-02 09:42:03.104
114.0, 26224.89943801158, -4673.302730715601, -60660.19811155774, -37249.89739059179, -11473.351594609214, -35424.58688313805, -4912.444044642931, -26172.998687386356, -0.034, 0.912, 0.456, 192.0, 0.0, 0.0, 0.0, 0.0, 0.0, 0.0, 0.0, 0.0, 0.0, 1.6541557231042042E9, 0.0, 2022-06-02 09:42:03.104
115.0, 26176.194986843468, -4693.6875216588405, -60682.572207757505, -37270.72921642414, -11494.205772186015, -35448.167973538395, -4932.717076863894, -26186.163864870534, -0.034, 0.912, 0.456, 192.0, 0.0, 0.0, 0.0, 0.0, 0.0, 0.0, 0.0, 0.0, 0.0, 1.6541557231042097E9, 0.0, 2022-06-02 09:42:03.104
116.0, 26171.054085618747, -4686.534963433142, -60671.84337041895, -37261.900277364286, -11491.925894251573, -35444.323473492084, -4939.31084147821, -26215.444650106987, -0.034, 0.912, 0.456, 192.0, 0.0, 0.0, 0.0, 0.0, 0.0, 0.0, 0.0, 0.0, 0.0, 1.654155723104215E9, 0.0, 2022-06-02 09:42:03.104
117.0, 26190.969489928426, -4674.107393515992, -60665.07079184899, -37252.736062137614, -11483.23106565846, -35431.113592518996, -4933.409980942009, -26201.161885400044, -0.03, 0.912, 0.454, 192.0, 255.0, 16.0, 28.0, 128.0, 14.0, 48.0, 0.0, 0.0, 0.0, 1.65415572310422E9, 0.0, 2022-06-02 09:42:03.104
118.0, 26202.212417389444, -4665.501971900699, -60667.08244884997, -37246.879905090325, -11473.485705075946, -35418.99894702422, -4913.315762676688, -26181.246481090366, -0.03, 0.912, 0.454, 192.0, 0.0, 0.0, 0.0, 0.0, 0.0, 0.0, 0.0, 0.0, 0.0, 1.6541557231042252E9, 0.0, 2022-06-02 09:42:03.104
119.0, 26196.222149875422, -4671.469887670265, -60680.09116412296, -37256.044120317, -11483.32047263628, -35439.83077285657, -4935.131065265067, -26210.460211093454, -0.03, 0.912, 0.454, 192.0, 0.0, 0.0, 0.0, 0.0, 0.0, 0.0, 0.0, 0.0, 0.0, 1.6541557231042304E9, 0.0, 2022-06-02 09:42:03.104
120.0, 26195.909225453048, -4672.721585359763, -60683.35451881344, -37270.10336757939, -11491.568266340288, -35453.8676683745, -4943.3341554801655, -26228.967455502447, -0.03, 0.912, 0.454, 192.0, 0.0, 0.0, 0.0, 0.0, 0.0, 0.0, 0.0, 0.0, 0.0, 1.6541557231042356E9, 0.0, 2022-06-02 09:42:03.104
121.0, 26214.86350475115, -4663.78088757764, -60665.942509882756, -37250.32207373644, -11479.788897012342, -35436.835639099554, -4927.129140750068, -26211.913074483047, -0.03, 0.912, 0.454, 192.0, 0.0, 0.0, 0.0, 0.0, 0.0, 0.0, 0.0, 0.0, 0.0, 1.654155723104241E9, 0.0, 2022-06-02 09:42:03.104
122.0, 26216.29401639629, -4666.016062023171, -60661.24864354714, -37240.77787885402, -11476.03380394385, -35427.894941317434, -4931.375972196576, -26189.695440494474, -0.03, 0.912, 0.454, 192.0, 0.0, 0.0, 0.0, 0.0, 0.0, 0.0, 0.0, 0.0, 0.0, 1.6541557231042461E9, 0.0, 2022-06-02 09:42:03.104
123.0, 26200.580740044206, -4673.615655137975, -60666.47895174968, -37253.47366970464, -11478.157219667104, -35432.54410416414, -4912.645210343028, -26172.819873430715, -0.03, 0.912, 0.454, 192.0, 0.0, 0.0, 0.0, 0.0, 0.0, 0.0, 0.0, 0.0, 0.0, 1.6541557231042514E9, 0.0, 2022-06-02 09:42:03.104
124.0, 26203.352356356667, -4677.437803439832, -60665.29430929355, -37247.32693997943, -11472.725745764465, -35433.68404313136, -4906.945515506925, -26179.100713622658, -0.03, 0.912, 0.454, 192.0, 0.0, 0.0, 0.0, 0.0, 0.0, 0.0, 0.0, 0.0, 0.0, 1.6541557231042569E9, 0.0, 2022-06-02 09:42:03.104
125.0, 26195.305728352756, -4690.871201857472, -60680.49349552316, -37261.65440817528, -11487.209676171504, -35449.53142995017, -4931.331268707665, -26211.398984360574, -0.03, 0.912, 0.454, 192.0, 0.0, 0.0, 0.0, 0.0, 0.0, 0.0, 0.0, 0.0, 0.0, 1.654155723104262E9, 0.0, 2022-06-02 09:42:03.104
126.0, 26200.066649921733, -4692.257010013701, -60681.70048972374, -37267.44350998921, -11491.188286684548, -35451.610142184516, -4933.1194082640895, -26213.276530894822, -0.03, 0.912, 0.454, 192.0, 0.0, 0.0, 0.0, 0.0, 0.0, 0.0, 0.0, 0.0, 0.0, 1.6541557231042676E9, 0.0, 2022-06-02 09:42:03.104
127.0, 26213.343586128187, -4677.348396462011, -60664.40023951534, -37251.28319874802, -11473.597463798222, -35431.40416519692, -4932.515911163797, -26198.725545254416, -0.024, 0.92, 0.456, 192.0, 255.0, 64.0, 28.0, 192.0, 14.0, 64.0, 0.0, 0.0, 0.0, 1.6541557231042728E9, 0.0, 2022-06-02 09:42:03.104
128.0, 26220.831420520713, -4670.39700393641, -60659.371097012896, -37244.86824808935, -11468.098934662215, -35422.32935694807, -4920.870652302582, -26180.240652589877, -0.024, 0.92, 0.456, 192.0, 0.0, 0.0, 0.0, 0.0, 0.0, 0.0, 0.0, 0.0, 0.0, 1.6541557231042829E9, 0.0, 2022-06-02 09:42:03.104
129.0, 26217.56806583024, -4682.958684320293, -60672.424515774794, -37256.155879039274, -11471.496399819422, -35437.059156544114, -4903.235125927345, -26180.218300845423, -0.024, 0.92, 0.456, 192.0, 0.0, 0.0, 0.0, 0.0, 0.0, 0.0, 0.0, 0.0, 0.0, 1.654155723104288E9, 0.0, 2022-06-02 09:42:03.104
130.0, 26218.70800479746, -4697.397911238421, -60695.46916430821, -37269.41046350127, -11488.483725605456, -35457.131023064976, -4936.628632143573, -26217.121030941133, -0.024, 0.92, 0.456, 192.0, 0.0, 0.0, 0.0, 0.0, 0.0, 0.0, 0.0, 0.0, 0.0, 1.654155723104293E9, 0.0, 2022-06-02 09:42:03.104
131.0, 26207.174504658524, -4693.6875216588405, -60688.026033404596, -37264.31426576546, -11492.350577396224, -35451.9677700958, -4956.298167264244, -26223.51362985535, -0.024, 0.92, 0.456, 192.0, 0.0, 0.0, 0.0, 0.0, 0.0, 0.0, 0.0, 0.0, 0.0, 1.6541557231042988E9, 0.0, 2022-06-02 09:42:03.104
132.0, 26196.199798130965, -4696.369730993478, -60686.01437640362, -37263.97898959863, -11496.172725698081, -35447.98915958276, -4947.8492078601375, -26216.42812686302, -0.024, 0.92, 0.456, 192.0, 0.0, 0.0, 0.0, 0.0, 0.0, 0.0, 0.0, 0.0, 0.0, 1.654155723104304E9, 0.0, 2022-06-02 09:42:03.104
133.0, 26198.27851036531, -4684.746823876718, -60677.99010014416, -37250.67970164773, -11482.068774946783, -35433.88520883146, -4915.30506793321, -26193.94227194098, -0.024, 0.92, 0.456, 192.0, 0.0, 0.0, 0.0, 0.0, 0.0, 0.0, 0.0, 0.0, 0.0, 1.654155723104309E9, 0.0, 2022-06-02 09:42:03.104
134.0, 26218.57389433073, -4677.25898948419, -60675.06202162052, -37244.93530332271, -11474.17860915406, -35430.93477856336, -4914.142777221534, -26183.302841580255, -0.024, 0.92, 0.456, 192.0, 0.0, 0.0, 0.0, 0.0, 0.0, 0.0, 0.0, 0.0, 0.0, 1.6541557231043146E9, 0.0, 2022-06-02 09:42:03.104
135.0, 26221.05493796527, -4693.195783280824, -60692.16110612883, -37262.1461465533, -11490.383623884158, -35447.58682818256, -4939.154379267023, -26199.91018771055, -0.024, 0.92, 0.456, 192.0, 0.0, 0.0, 0.0, 0.0, 0.0, 0.0, 0.0, 0.0, 0.0, 1.6541557231043208E9, 0.0, 2022-06-02 09:42:03.104
136.0, 26233.974246260437, -4687.764309378184, -60692.429327062295, -37261.833222130925, -11496.105670464716, -35446.51394444871, -4950.062030561213, -26222.172525188034, -0.024, 0.92, 0.456, 192.0, 0.0, 0.0, 0.0, 0.0, 0.0, 0.0, 0.0, 0.0, 0.0, 1.654155723104326E9, 0.0, 2022-06-02 09:42:03.104
137.0, 26213.23182740591, -4674.465021427277, -60676.96191989922, -37251.79728887049, -11481.152353424115, -35436.27684548817, -4926.235070971856, -26234.37657766063, -0.024, 0.914, 0.45, 192.0, 255.0, 64.0, 28.0, 144.0, 14.0, 16.0, 0.0, 0.0, 0.0, 1.6541557231043313E9, 0.0, 2022-06-02 09:42:03.104
138.0, 26203.307652867756, -4674.219152238268, -60672.53627449707, -37256.53585869502, -11473.642167287133, -35435.315720476596, -4910.655905086506, -26191.058896906245, -0.024, 0.914, 0.45, 192.0, 0.0, 0.0, 0.0, 0.0, 0.0, 0.0, 0.0, 0.0, 0.0, 1.6541557231043365E9, 0.0, 2022-06-02 09:42:03.104
139.0, 26226.061728723256, -4679.44946044081, -60679.711184467225, -37252.35608248187, -11477.486667333445, -35435.91921757689, -4917.093207489635, -26165.868480905116, -0.024, 0.914, 0.45, 192.0, 0.0, 0.0, 0.0, 0.0, 0.0, 0.0, 0.0, 0.0, 0.0, 1.6541557231043415E9, 0.0, 2022-06-02 09:42:03.104
140.0, 26233.23663869341, -4695.855640871006, -60698.26313236513, -37262.97316109815, -11497.267961176392, -35452.63832242946, -4943.669431646995, -26186.454437548455, -0.024, 0.914, 0.45, 192.0, 0.0, 0.0, 0.0, 0.0, 0.0, 0.0, 0.0, 0.0, 0.0, 1.6541557231043468E9, 0.0, 2022-06-02 09:42:03.104
141.0, 26238.28813294031, -4687.4066814668995, -60689.81417296102, -37261.72146340865, -11501.13481296716, -35450.269037517195, -4947.066896804202, -26223.401871133075, -0.024, 0.914, 0.45, 192.0, 0.0, 0.0, 0.0, 0.0, 0.0, 0.0, 0.0, 0.0, 0.0, 1.654155723104352E9, 0.0, 2022-06-02 09:42:03.104
142.0, 26241.14915623059, -4669.949969047305, -60667.01539361661, -37248.60098941338, -11480.638263301644, -35436.25449374372, -4928.626707628573, -26226.15113570108, -0.024, 0.914, 0.45, 192.0, 0.0, 0.0, 0.0, 0.0, 0.0, 0.0, 0.0, 0.0, 0.0, 1.6541557231043572E9, 0.0, 2022-06-02 09:42:03.104
143.0, 26231.023815992336, -4676.096698772514, -60669.9211203958, -37260.8944488638, -11477.710184777998, -35442.69179614685, -4925.743332593838, -26219.535019342307, -0.024, 0.914, 0.45, 192.0, 0.0, 0.0, 0.0, 0.0, 0.0, 0.0, 0.0, 0.0, 0.0, 1.6541557231043625E9, 0.0, 2022-06-02 09:42:03.104
144.0, 26223.603036833174, -4683.517477931676, -60680.046460634054, -37277.92647813875, -11488.819001772286, -35456.39341549795, -4949.547940438741, -26213.097716939177, -0.024, 0.914, 0.45, 192.0, 0.0, 0.0, 0.0, 0.0, 0.0, 0.0, 0.0, 0.0, 0.0, 1.6541557231043675E9, 0.0, 2022-06-02 09:42:03.104
145.0, 26222.574856588228, -4687.518440189176, -60686.550818270545, -37275.93717288222, -11495.077490219772, -35462.20486905633, -4964.255388290333, -26199.70902201045, -0.024, 0.914, 0.45, 192.0, 0.0, 0.0, 0.0, 0.0, 0.0, 0.0, 0.0, 0.0, 0.0, 1.6541557231043727E9, 0.0, 2022-06-02 09:42:03.104
146.0, 26227.112260712656, -4690.826498368561, -60687.6237020044, -37271.89150713581, -11505.13577522466, -35469.40213077094, -4969.418641259509, -26228.43101363552, -0.024, 0.914, 0.45, 192.0, 0.0, 0.0, 0.0, 0.0, 0.0, 0.0, 0.0, 0.0, 0.0, 1.654155723104378E9, 0.0, 2022-06-02 09:42:03.104
147.0, 26243.943124287503, -4671.760460348184, -60663.059134848016, -37257.13935579531, -11486.852048260218, -35456.88515387597, -4942.954175824425, -26233.080176482224, -0.03, 0.918, 0.448, 192.0, 255.0, 16.0, 28.0, 176.0, 14.0, 0.0, 0.0, 0.0, 0.0, 1.6541557231043832E9, 0.0, 2022-06-02 09:42:03.104
148.0, 26233.303693926777, -4664.853771311495, -60654.185492299264, -37247.97514056863, -11474.290367876336, -35447.38566248246, -4936.427466443475, -26195.685708008496, -0.03, 0.918, 0.448, 192.0, 0.0, 0.0, 0.0, 0.0, 0.0, 0.0, 0.0, 0.0, 0.0, 1.6541557231043885E9, 0.0, 2022-06-02 09:42:03.104
