%OpenBCI Raw EEG Data
%Number of channels = 8
%Sample Rate = 250 Hz
%Board = OpenBCI_GUI$BoardCytonSerial
Sample Index, EXG Channel 0, EXG Channel 1, EXG Channel 2, EXG Channel 3, EXG Channel 4, EXG Channel 5, EXG Channel 6, EXG Channel 7, Accel Channel 0, Accel Channel 1, Accel Channel 2, Other, Other, Other, Other, Other, Other, Other, Analog Channel 0, Analog Channel 1, Analog Channel 2, Timestamp, Other, Timestamp (Formatted)
0.0, 0.0, 0.0, 0.0, 0.0, 0.0, 0.0, 0.0, 0.0, -0.062, 0.9460000000000001, 0.386, 192.0, 254.0, 16.0, 29.0, 144.0, 12.0, 16.0, 0.0, 0.0, 0.0, 1.6546755864140317E9, 0.0, 2022-06-08 10:06:26.414
1.0, 29189.388953374502, 28776.105198395875, -19917.61713237967, -17398.01673865518, 4221.909251440675, -2028.286698852384, 28813.767887803067, 2756.886512862028, -0.062, 0.9460000000000001, 0.386, 192.0, 0.0, 0.0, 0.0, 0.0, 0.0, 0.0, 0.0, 0.0, 0.0, 1.6546755868926523E9, 0.0, 2022-06-08 10:06:26.892
2.0, 29166.321953096623, 28759.520204010038, -19945.7579786489, -17425.241163401744, 4191.533230725912, -2046.2351496499957, 28844.6579986403, 2742.871969088551, -0.062, 0.9460000000000001, 0.386, 192.0, 0.0, 0.0, 0.0, 0.0, 0.0, 0.0, 0.0, 0.0, 0.0, 1.6546755868926923E9, 0.0, 2022-06-08 10:06:26.892
3.0, 29172.58044154411, 28766.091616879898, -19932.74926337591, -17415.719320263783, 4195.109509838761, -2041.161303658641, 28831.17989673375, 2751.5667976816653, -0.062, 0.9460000000000001, 0.386, 192.0, 0.0, 0.0, 0.0, 0.0, 0.0, 0.0, 0.0, 0.0, 0.0, 1.6546755868927608E9, 0.0, 2022-06-08 10:06:26.892
4.0, 29214.713479842365, 28803.016698720065, -19882.12256218464, -17369.227691796743, 4235.40970509168, -2001.8222334173006, 28786.02937293403, 2762.183876297936, -0.062, 0.9460000000000001, 0.386, 192.0, 0.0, 0.0, 0.0, 0.0, 0.0, 0.0, 0.0, 0.0, 0.0, 1.6546755868927767E9, 0.0, 2022-06-08 10:06:26.892
5.0, 29229.800907349698, 28806.056535965985, -19870.052620178776, -17355.86134861247, 4259.169609447671, -1984.0525965753313, 28773.02065766104, 2778.7241671948636, -0.062, 0.9460000000000001, 0.386, 192.0, 0.0, 0.0, 0.0, 0.0, 0.0, 0.0, 0.0, 0.0, 0.0, 1.6546755868927884E9, 0.0, 2022-06-08 10:06:26.892
6.0, 29204.92341577094, 28788.17514040174, -19909.838725309222, -17388.137267605933, 4224.725571242043, -2008.4607015205268, 28797.026431206043, 2782.3675015410786, -0.062, 0.9460000000000001, 0.386, 192.0, 0.0, 0.0, 0.0, 0.0, 0.0, 0.0, 0.0, 0.0, 0.0, 1.6546755868927994E9, 0.0, 2022-06-08 10:06:26.892
7.0, 29157.515365781233, 28749.998360872076, -19971.037801627852, -17447.30233517913, 4171.483715949502, -2057.45572536656, 28829.302350199505, 2754.4725244608553, -0.062, 0.9460000000000001, 0.386, 192.0, 0.0, 0.0, 0.0, 0.0, 0.0, 0.0, 0.0, 0.0, 0.0, 1.6546755868928096E9, 0.0, 2022-06-08 10:06:26.892
8.0, 29161.896307694475, 28749.8866021498, -19962.499435245925, -17447.525852623683, 4175.30586425136, -2065.0106149924536, 28826.28486469804, 2723.291840945702, -0.054, 0.9580000000000001, 0.34400000000000003, 192.0, 254.0, 80.0, 29.0, 240.0, 10.0, 192.0, 0.0, 0.0, 0.0, 1.6546755868928185E9, 0.0, 2022-06-08 10:06:26.892
9.0, 29211.025442007238, 28796.668803294757, -19900.696861827, -17396.228599098755, 4228.815940477364, -2024.3751435727054, 28787.236367134617, 2751.253873259291, -0.054, 0.9580000000000001, 0.34400000000000003, 192.0, 0.0, 0.0, 0.0, 0.0, 0.0, 0.0, 0.0, 0.0, 0.0, 1.654675586892826E9, 0.0, 2022-06-08 10:06:26.892
10.0, 29212.478305396835, 28795.528864327534, -19902.820277550254, -17375.10620058849, 4235.0744289248505, -2020.7318092264902, 28784.755323500078, 2771.0128153577825, -0.054, 0.9580000000000001, 0.34400000000000003, 192.0, 0.0, 0.0, 0.0, 0.0, 0.0, 0.0, 0.0, 0.0, 0.0, 1.654675586892834E9, 0.0, 2022-06-08 10:06:26.892
11.0, 29199.87192152404, 28777.111026896364, -19928.681245885044, -17388.91957866187, 4219.02587640594, -2017.4013993026495, 28830.46464091118, 2788.760100455296, -0.054, 0.9580000000000001, 0.34400000000000003, 192.0, 0.0, 0.0, 0.0, 0.0, 0.0, 0.0, 0.0, 0.0, 0.0, 1.654675586892842E9, 0.0, 2022-06-08 10:06:26.892
12.0, 29188.137255685004, 28768.17032911424, -19946.741455404932, -17412.29950336212, 4202.999675631485, -2035.9533472005544, 28863.634629682856, 2769.7164141793746, -0.054, 0.9580000000000001, 0.34400000000000003, 192.0, 0.0, 0.0, 0.0, 0.0, 0.0, 0.0, 0.0, 0.0, 0.0, 1.6546755868928502E9, 0.0, 2022-06-08 10:06:26.892
13.0, 29192.3393836426, 28776.663992007256, -19933.5539261763, -17406.01866317018, 4205.033684376917, -2039.8201989913225, 28842.981617806152, 2749.8457133586066, -0.054, 0.9580000000000001, 0.34400000000000003, 192.0, 0.0, 0.0, 0.0, 0.0, 0.0, 0.0, 0.0, 0.0, 0.0, 1.6546755868928587E9, 0.0, 2022-06-08 10:06:26.892
14.0, 29198.888444768007, 28773.601803016878, -19918.064167268774, -17398.19555261082, 4218.332972327826, -2036.1768646451076, 28796.042954450008, 2766.587169955632, -0.054, 0.9580000000000001, 0.34400000000000003, 192.0, 0.0, 0.0, 0.0, 0.0, 0.0, 0.0, 0.0, 0.0, 0.0, 1.6546755868928678E9, 0.0, 2022-06-08 10:06:26.892
15.0, 29201.30243316918, 28773.780616972523, -19913.124431744152, -17385.320947804565, 4228.570071288356, -2029.0019546749538, 28788.666878779757, 2777.472469505366, -0.054, 0.9580000000000001, 0.34400000000000003, 192.0, 0.0, 0.0, 0.0, 0.0, 0.0, 0.0, 0.0, 0.0, 0.0, 1.654675586892877E9, 0.0, 2022-06-08 10:06:26.892
16.0, 29207.985604761318, 28789.11391366886, -19913.973798033454, -17381.007061124692, 4238.762466759976, -2018.0495998918534, 28821.278073940048, 2799.444234304933, -0.054, 0.9580000000000001, 0.34400000000000003, 192.0, 0.0, 0.0, 0.0, 0.0, 0.0, 0.0, 0.0, 0.0, 0.0, 1.6546755868928869E9, 0.0, 2022-06-08 10:06:26.892
17.0, 29192.741715042797, 28783.816550232954, -19941.46644371348, -17409.661997516396, 4211.158062357672, -2039.1049431687527, 28847.116690530383, 2783.3733300415674, -0.048, 0.97, 0.32, 192.0, 254.0, 128.0, 30.0, 80.0, 10.0, 0.0, 0.0, 0.0, 0.0, 1.654675586892896E9, 0.0, 2022-06-08 10:06:26.892
18.0, 29188.606642318566, 28776.30636409597, -19939.655952412602, -17422.357788367008, 4213.5944025033, -2049.0067659624538, 28832.677463612257, 2762.4297454869447, -0.048, 0.97, 0.32, 192.0, 0.0, 0.0, 0.0, 0.0, 0.0, 0.0, 0.0, 0.0, 0.0, 1.654675586892904E9, 0.0, 2022-06-08 10:06:26.892
19.0, 29205.884540782517, 28788.488064824112, -19910.41987066506, -17379.084811101533, 4236.594347547812, -2022.2070243605406, 28795.573567816446, 2760.0381088302265, -0.048, 0.97, 0.32, 192.0, 0.0, 0.0, 0.0, 0.0, 0.0, 0.0, 0.0, 0.0, 0.0, 1.654675586892913E9, 0.0, 2022-06-08 10:06:26.892
20.0, 29209.617282106556, 28795.059477693976, -19908.631731108635, -17370.278223786143, 4244.775086018453, -2008.5948119872585, 28783.36951534385, 2784.7814899422515, -0.048, 0.97, 0.32, 192.0, 0.0, 0.0, 0.0, 0.0, 0.0, 0.0, 0.0, 0.0, 0.0, 1.6546755868929226E9, 0.0, 2022-06-08 10:06:26.892
21.0, 29181.185863159404, 28773.758265228065, -19944.796853637323, -17399.179029366856, 4218.131806627727, -2040.133123413697, 28811.800934291, 2798.84073720464, -0.048, 0.97, 0.32, 192.0, 0.0, 0.0, 0.0, 0.0, 0.0, 0.0, 0.0, 0.0, 0.0, 1.654675586892931E9, 0.0, 2022-06-08 10:06:26.892
22.0, 29153.559107012643, 28744.052796846965, -19977.475104030982, -17437.86989901899, 4186.369977756736, -2074.4877546415037, 28840.813498593987, 2759.188742540925, -0.048, 0.97, 0.32, 192.0, 0.0, 0.0, 0.0, 0.0, 0.0, 0.0, 0.0, 0.0, 0.0, 1.654675586892949E9, 0.0, 2022-06-08 10:06:26.892
23.0, 29175.195595645382, 28760.034294132507, -19949.24485078393, -17416.278113875167, 4201.457405264068, -2056.7851730329007, 28831.738690345133, 2745.2412540008136, -0.048, 0.97, 0.32, 192.0, 0.0, 0.0, 0.0, 0.0, 0.0, 0.0, 0.0, 0.0, 0.0, 1.654675586892959E9, 0.0, 2022-06-08 10:06:26.892
24.0, 29205.21398844886, 28783.391867088303, -19908.788193319822, -17370.85936914198, 4235.186187647127, -2021.1788441155963, 28791.147922414297, 2765.0448995882157, -0.048, 0.97, 0.32, 192.0, 0.0, 0.0, 0.0, 0.0, 0.0, 0.0, 0.0, 0.0, 0.0, 1.6546755868929667E9, 0.0, 2022-06-08 10:06:26.892
25.0, 29193.479322609823, 28765.778692457523, -19925.32848421675, -17388.070212372568, 4227.36307708777, -2027.9961261744652, 28774.674686750735, 2764.4637542323776, -0.048, 0.97, 0.32, 192.0, 0.0, 0.0, 0.0, 0.0, 0.0, 0.0, 0.0, 0.0, 0.0, 1.6546755868929753E9, 0.0, 2022-06-08 10:06:26.892
26.0, 29181.63289804851, 28762.560041255958, -19943.835728625745, -17401.123631134466, 4216.433074049124, -2035.551015800359, 28808.582283089436, 2773.247989803313, -0.048, 0.97, 0.32, 192.0, 0.0, 0.0, 0.0, 0.0, 0.0, 0.0, 0.0, 0.0, 0.0, 1.654675586892984E9, 0.0, 2022-06-08 10:06:26.892
27.0, 29179.598889303077, 28772.305401838472, -19951.256507784907, -17414.288808618643, 4208.051169878384, -2047.8668269952332, 28845.32855097396, 2777.5171729942767, -0.048, 0.98, 0.31, 192.0, 254.0, 128.0, 30.0, 160.0, 9.0, 176.0, 0.0, 0.0, 0.0, 1.6546755868929932E9, 0.0, 2022-06-08 10:06:26.892
28.0, 29170.993467687786, 28750.110119594352, -19955.0116008534, -17432.371369882985, 4197.836422662309, -2066.6869958266016, 28833.88445781284, 2755.54540819471, -0.048, 0.98, 0.31, 192.0, 0.0, 0.0, 0.0, 0.0, 0.0, 0.0, 0.0, 0.0, 0.0, 1.6546755868930025E9, 0.0, 2022-06-08 10:06:26.893
29.0, 29203.53760761471, 28774.294707094996, -19909.056414253286, -17379.91182564638, 4239.991812705018, -2029.1807686305963, 28798.18872191772, 2757.7582308957853, -0.048, 0.98, 0.31, 192.0, 0.0, 0.0, 0.0, 0.0, 0.0, 0.0, 0.0, 0.0, 0.0, 1.6546755868930109E9, 0.0, 2022-06-08 10:06:26.893
30.0, 29214.57936937563, 28782.006058932075, -19895.041870479807, -17368.043049340613, 4261.337728659836, -1998.6929891935577, 28792.377268359338, 2782.568667241176, -0.048, 0.98, 0.31, 192.0, 0.0, 0.0, 0.0, 0.0, 0.0, 0.0, 0.0, 0.0, 0.0, 1.65467558689302E9, 0.0, 2022-06-08 10:06:26.893
31.0, 29180.649421292477, 28755.496890008082, -19939.678304157056, -17392.697023474815, 4223.093893896806, -2047.486847339493, 28823.22267570766, 2789.3412458111343, -0.048, 0.98, 0.31, 192.0, 0.0, 0.0, 0.0, 0.0, 0.0, 0.0, 0.0, 0.0, 0.0, 1.6546755868930292E9, 0.0, 2022-06-08 10:06:26.893
32.0, 29163.796205973176, 28745.326846280917, -19964.66755445809, -17424.436500601354, 4195.6906551945995, -2070.084460983808, 28844.99327480713, 2767.0118531002827, -0.048, 0.98, 0.31, 192.0, 0.0, 0.0, 0.0, 0.0, 0.0, 0.0, 0.0, 0.0, 0.0, 1.6546755868930366E9, 0.0, 2022-06-08 10:06:26.893
33.0, 29161.605735016554, 28739.02365434452, -19958.27495554387, -17424.05652094561, 4204.296076809893, -2059.7579550454566, 28834.845582824422, 2750.0468790587042, -0.048, 0.98, 0.31, 192.0, 0.0, 0.0, 0.0, 0.0, 0.0, 0.0, 0.0, 0.0, 0.0, 1.6546755868930454E9, 0.0, 2022-06-08 10:06:26.893
34.0, 29195.73684879981, 28764.147015112285, -19913.929094544543, -17384.046898370612, 4237.421362092658, -2017.6249167472026, 28793.070172437452, 2764.4861059768327, -0.048, 0.98, 0.31, 192.0, 0.0, 0.0, 0.0, 0.0, 0.0, 0.0, 0.0, 0.0, 0.0, 1.654675586893054E9, 0.0, 2022-06-08 10:06:26.893
35.0, 29206.890369283006, 28770.249041348583, -19903.066146739264, -17377.564892478575, 4250.608891321289, -2017.6249167472026, 28775.12172163984, 2780.959341640394, -0.048, 0.98, 0.31, 192.0, 0.0, 0.0, 0.0, 0.0, 0.0, 0.0, 0.0, 0.0, 0.0, 1.6546755868930633E9, 0.0, 2022-06-08 10:06:26.893
36.0, 29187.936089984905, 28758.290858064993, -19933.889202343133, -17407.40447132641, 4235.879091725242, -2044.0893821822863, 28809.677518567743, 2785.6755597204638, -0.048, 0.98, 0.31, 192.0, 0.0, 0.0, 0.0, 0.0, 0.0, 0.0, 0.0, 0.0, 0.0, 1.654675586893072E9, 0.0, 2022-06-08 10:06:26.893
37.0, 29168.423017075424, 28747.718482937635, -19955.57039446478, -17418.513288320697, 4204.49724250999, -2073.8842575412104, 28839.070062526473, 2776.3995857715113, -0.038, 0.984, 0.31, 192.0, 254.0, 208.0, 30.0, 192.0, 9.0, 176.0, 0.0, 0.0, 0.0, 1.6546755868930814E9, 0.0, 2022-06-08 10:06:26.893
38.0, 29171.10522641006, 28744.49983173607, -19942.09229255823, -17408.812631227094, 4203.334951798314, -2051.130181685708, 28832.02926302305, 2755.7465738948076, -0.038, 0.984, 0.31, 192.0, 0.0, 0.0, 0.0, 0.0, 0.0, 0.0, 0.0, 0.0, 0.0, 1.6546755868930893E9, 0.0, 2022-06-08 10:06:26.893
39.0, 29208.231473950324, 28777.200433874183, -19893.9466350015, -17372.53574997613, 4250.385373876736, -1996.3013525368397, 28791.326736369938, 2772.4656787473773, -0.038, 0.984, 0.31, 192.0, 0.0, 0.0, 0.0, 0.0, 0.0, 0.0, 0.0, 0.0, 0.0, 1.6546755868930984E9, 0.0, 2022-06-08 10:06:26.893
40.0, 29203.090572725603, 28772.68538149421, -19898.618149592658, -17369.29474703011, 4255.436868123636, -2008.3489427982502, 28780.50849205357, 2779.707643950897, -0.038, 0.984, 0.31, 192.0, 0.0, 0.0, 0.0, 0.0, 0.0, 0.0, 0.0, 0.0, 0.0, 1.6546755868931067E9, 0.0, 2022-06-08 10:06:26.893
41.0, 29172.06635142164, 28750.44539576118, -19942.762844891888, -17400.184857867345, 4218.98117291703, -2037.2050448900516, 28808.783448789534, 2768.1070885785925, -0.038, 0.984, 0.31, 192.0, 0.0, 0.0, 0.0, 0.0, 0.0, 0.0, 0.0, 0.0, 0.0, 1.6546755868931174E9, 0.0, 2022-06-08 10:06:26.893
42.0, 29163.57268852862, 28743.516354980035, -19957.17972006556, -17417.574515053573, 4204.340780298803, -2050.236111907496, 28841.841678838933, 2757.6464721735088, -0.038, 0.984, 0.31, 192.0, 0.0, 0.0, 0.0, 0.0, 0.0, 0.0, 0.0, 0.0, 0.0, 1.6546755868931267E9, 0.0, 2022-06-08 10:06:26.893
43.0, 29180.850586992576, 28757.93323015371, -19934.872679099164, -17400.564837523085, 4217.416550805157, -2029.06900990832, 28834.398547935314, 2764.128478065548, -0.038, 0.984, 0.31, 192.0, 0.0, 0.0, 0.0, 0.0, 0.0, 0.0, 0.0, 0.0, 0.0, 1.6546755868931408E9, 0.0, 2022-06-08 10:06:26.893
44.0, 29203.805828548175, 28770.36080007086, -19899.71338507097, -17367.864235384972, 4246.786743019431, -2017.222585347007, 28795.32769862744, 2784.893248664528, -0.038, 0.984, 0.31, 192.0, 0.0, 0.0, 0.0, 0.0, 0.0, 0.0, 0.0, 0.0, 0.0, 1.6546755868931494E9, 0.0, 2022-06-08 10:06:26.893
45.0, 29212.523008885746, 28772.70773323867, -19889.23041692143, -17354.989630578715, 4259.326071658858, -2009.6676957211132, 28784.084771166417, 2785.1167661090813, -0.038, 0.984, 0.31, 192.0, 0.0, 0.0, 0.0, 0.0, 0.0, 0.0, 0.0, 0.0, 0.0, 1.6546755868931592E9, 0.0, 2022-06-08 10:06:26.893
46.0, 29202.68824132541, 28767.29861108048, -19911.090422998717, -17378.68247970134, 4240.371792360758, -2012.484015522482, 28813.857294780886, 2778.5006497503105, -0.038, 0.984, 0.31, 192.0, 0.0, 0.0, 0.0, 0.0, 0.0, 0.0, 0.0, 0.0, 0.0, 1.65467558689317E9, 0.0, 2022-06-08 10:06:26.893
47.0, 29160.599906516065, 28744.611590458346, -19961.627717212166, -17430.24795415973, 4199.579858729823, -2062.0825364688085, 28845.552068418514, 2752.550274437699, -0.034, 0.974, 0.31, 192.0, 254.0, 240.0, 30.0, 112.0, 9.0, 176.0, 0.0, 0.0, 0.0, 1.6546755868931775E9, 0.0, 2022-06-08 10:06:26.893
48.0, 29167.506595552757, 28752.010017873054, -19949.7589409064, -17430.24795415973, 4205.503071010479, -2051.26429215244, 28838.488917170635, 2742.6931551329085, -0.034, 0.974, 0.31, 192.0, 0.0, 0.0, 0.0, 0.0, 0.0, 0.0, 0.0, 0.0, 0.0, 1.6546755868931866E9, 0.0, 2022-06-08 10:06:26.893
49.0, 29197.994374989794, 28779.21209087516, -19913.21383872197, -17402.554142779605, 4239.589481304823, -2000.9728671279988, 28799.529826585036, 2759.54637045221, -0.034, 0.974, 0.31, 192.0, 0.0, 0.0, 0.0, 0.0, 0.0, 0.0, 0.0, 0.0, 0.0, 1.654675586893195E9, 0.0, 2022-06-08 10:06:26.893
50.0, 29222.20131423489, 28785.135303155817, -19884.693012797, -17338.248173981687, 4266.1880572066375, -1967.9369888230551, 28791.863178236865, 2801.3664843280894, -0.034, 0.974, 0.31, 192.0, 0.0, 0.0, 0.0, 0.0, 0.0, 0.0, 0.0, 0.0, 0.0, 1.6546755868932035E9, 0.0, 2022-06-08 10:06:26.893
51.0, 29204.16345645946, 28769.913765181755, -19907.804716563787, -17358.67766841384, 4256.085068712839, -1999.385893271672, 28823.26737919657, 2792.8281179461624, -0.034, 0.974, 0.31, 192.0, 0.0, 0.0, 0.0, 0.0, 0.0, 0.0, 0.0, 0.0, 0.0, 1.6546755868932147E9, 0.0, 2022-06-08 10:06:26.893
52.0, 29171.10522641006, 28746.511488737047, -19950.51890021788, -17412.992407440237, 4217.751826971988, -2052.8512660087667, 28853.08460629995, 2759.121687307559, -0.034, 0.974, 0.31, 192.0, 0.0, 0.0, 0.0, 0.0, 0.0, 0.0, 0.0, 0.0, 0.0, 1.6546755868932235E9, 0.0, 2022-06-08 10:06:26.893
53.0, 29173.698028766878, 28748.187869571197, -19938.38190297865, -17408.96909343828, 4213.147367614194, -2048.7832485179006, 28845.507364929603, 2754.7407453943188, -0.034, 0.974, 0.31, 192.0, 0.0, 0.0, 0.0, 0.0, 0.0, 0.0, 0.0, 0.0, 0.0, 1.6546755868932326E9, 0.0, 2022-06-08 10:06:26.893
54.0, 29199.20136919038, 28765.55517501297, -19900.8980275271, -17371.976956364746, 4248.12784768675, -2012.126387611197, 28809.47635286765, 2776.9136758939835, -0.034, 0.974, 0.31, 192.0, 0.0, 0.0, 0.0, 0.0, 0.0, 0.0, 0.0, 0.0, 0.0, 1.654675586893242E9, 0.0, 2022-06-08 10:06:26.893
55.0, 29213.573540875142, 28776.93221294072, -19882.815466262757, -17354.654354411883, 4272.267731698481, -1993.7532536689346, 28790.49972182509, 2790.8835161785505, -0.034, 0.974, 0.31, 192.0, 0.0, 0.0, 0.0, 0.0, 0.0, 0.0, 0.0, 0.0, 0.0, 1.6546755868932517E9, 0.0, 2022-06-08 10:06:26.893
56.0, 29195.289813910702, 28767.45507329167, -19912.386824177127, -17378.25779655669, 4249.893635498719, -2008.706570709535, 28815.22075119266, 2792.8728214350726, -0.034, 0.974, 0.31, 192.0, 0.0, 0.0, 0.0, 0.0, 0.0, 0.0, 0.0, 0.0, 0.0, 1.6546755868932605E9, 0.0, 2022-06-08 10:06:26.893
57.0, 29168.601831031065, 28749.8866021498, -19948.57429845027, -17421.77664301117, 4218.35532407228, -2031.9747366875097, 28843.56276316199, 2760.8874751195285, -0.046, 0.978, 0.304, 192.0, 254.0, 144.0, 30.0, 144.0, 9.0, 128.0, 0.0, 0.0, 0.0, 1.6546755868932695E9, 0.0, 2022-06-08 10:06:26.893
58.0, 29163.527985039713, 28745.080977091908, -19948.060208327795, -17424.16827966789, 4206.710065211066, -2047.4421438505822, 28837.013702036587, 2732.768980594752, -0.046, 0.978, 0.304, 192.0, 0.0, 0.0, 0.0, 0.0, 0.0, 0.0, 0.0, 0.0, 0.0, 1.654675586893278E9, 0.0, 2022-06-08 10:06:26.893
59.0, 29192.562901087156, 28766.806872702466, -19908.341158430714, -17389.00898563969, 4236.639051036722, -2020.932974926588, 28792.243157892604, 2738.4910271753106, -0.046, 0.978, 0.304, 192.0, 0.0, 0.0, 0.0, 0.0, 0.0, 0.0, 0.0, 0.0, 0.0, 1.6546755868932867E9, 0.0, 2022-06-08 10:06:26.893
60.0, 29220.457878167377, 28789.73976251361, -19874.433562092014, -17340.90803157187, 4275.307568944403, -1977.2129627720074, 28777.960393185665, 2787.6872167214415, -0.046, 0.978, 0.304, 192.0, 0.0, 0.0, 0.0, 0.0, 0.0, 0.0, 0.0, 0.0, 0.0, 1.6546755868932955E9, 0.0, 2022-06-08 10:06:26.893
61.0, 29192.78641853171, 28770.78548321551, -19913.70557709999, -17371.172293564356, 4244.0598301958835, -2008.1701288426077, 28804.26839640956, 2786.3908155430336, -0.046, 0.978, 0.304, 192.0, 0.0, 0.0, 0.0, 0.0, 0.0, 0.0, 0.0, 0.0, 0.0, 1.6546755868933048E9, 0.0, 2022-06-08 10:06:26.893
62.0, 29167.35013334157, 28755.385131285806, -19944.439225726037, -17406.44334631483, 4214.555527514878, -2033.002916932454, 28847.027283552565, 2768.799992656707, -0.046, 0.978, 0.304, 192.0, 0.0, 0.0, 0.0, 0.0, 0.0, 0.0, 0.0, 0.0, 0.0, 1.654675586893314E9, 0.0, 2022-06-08 10:06:26.893
63.0, 29163.304467595157, 28747.383206770803, -19939.90182160161, -17409.86316321649, 4213.504995525479, -2026.967945929521, 28835.42672818026, 2757.1100303065814, -0.046, 0.978, 0.304, 192.0, 0.0, 0.0, 0.0, 0.0, 0.0, 0.0, 0.0, 0.0, 0.0, 1.6546755868933225E9, 0.0, 2022-06-08 10:06:26.893
64.0, 29176.5367003127, 28752.904087651266, -19917.348911446206, -17394.507514775698, 4229.888824211219, -2012.8639951782222, 28783.54832929949, 2753.578454682643, -0.046, 0.978, 0.304, 192.0, 0.0, 0.0, 0.0, 0.0, 0.0, 0.0, 0.0, 0.0, 0.0, 1.6546755868933353E9, 0.0, 2022-06-08 10:06:26.893
65.0, 29199.558997101667, 28771.254869849072, -19891.778515789334, -17368.53478771863, 4262.008280993496, -1990.646361189647, 28781.670782765246, 2776.712510193886, -0.046, 0.978, 0.304, 192.0, 0.0, 0.0, 0.0, 0.0, 0.0, 0.0, 0.0, 0.0, 0.0, 1.6546755868933446E9, 0.0, 2022-06-08 10:06:26.893
66.0, 29182.839892249096, 28757.374436542326, -19915.76193758988, -17398.799049711117, 4249.401897120702, -2003.6550764626356, 28820.249893695105, 2796.002065658816, -0.046, 0.978, 0.304, 192.0, 0.0, 0.0, 0.0, 0.0, 0.0, 0.0, 0.0, 0.0, 0.0, 1.6546755868933532E9, 0.0, 2022-06-08 10:06:26.893
67.0, 29169.942935698386, 28755.988628386098, -19941.24292626893, -17436.953477496325, 4218.422379305646, -2039.9096059691437, 28851.47528069917, 2770.856353146595, -0.042, 0.974, 0.306, 192.0, 254.0, 176.0, 30.0, 112.0, 9.0, 144.0, 0.0, 0.0, 0.0, 1.6546755868933623E9, 0.0, 2022-06-08 10:06:26.893
68.0, 29165.42788331841, 28743.292837535482, -19940.706484402, -17436.39468388494, 4213.527347269935, -2046.615129305736, 28844.523888173568, 2745.9788615678385, -0.042, 0.974, 0.306, 192.0, 0.0, 0.0, 0.0, 0.0, 0.0, 0.0, 0.0, 0.0, 0.0, 1.6546755868933716E9, 0.0, 2022-06-08 10:06:26.893
69.0, 29185.25388065027, 28750.0877678499, -19906.88829504112, -17389.500724017707, 4238.091914426317, -2017.3343440692836, 28799.41806786276, 2732.321945705646, -0.042, 0.974, 0.306, 192.0, 0.0, 0.0, 0.0, 0.0, 0.0, 0.0, 0.0, 0.0, 0.0, 1.6546755868933804E9, 0.0, 2022-06-08 10:06:26.893
70.0, 29196.809732533664, 28758.424968531726, -19894.214855934963, -17397.703814232806, 4256.330937901847, -1998.447120004549, 28779.972050186643, 2745.5318266787326, -0.042, 0.974, 0.306, 192.0, 0.0, 0.0, 0.0, 0.0, 0.0, 0.0, 0.0, 0.0, 0.0, 1.6546755868933895E9, 0.0, 2022-06-08 10:06:26.893
71.0, 29175.508520067757, 28740.856497389854, -19924.769690605368, -17396.16154386539, 4229.97823118904, -2038.8590739797444, 28810.102201712394, 2772.733899680841, -0.042, 0.974, 0.306, 192.0, 0.0, 0.0, 0.0, 0.0, 0.0, 0.0, 0.0, 0.0, 0.0, 1.6546755868933988E9, 0.0, 2022-06-08 10:06:26.893
72.0, 29158.632953004, 28728.518334450524, -19949.17779555056, -17422.290733133643, 4204.854870421275, -2064.4741731255262, 28841.305236972006, 2764.0167193432712, -0.042, 0.974, 0.306, 192.0, 0.0, 0.0, 0.0, 0.0, 0.0, 0.0, 0.0, 0.0, 0.0, 1.654675586893408E9, 0.0, 2022-06-08 10:06:26.893
73.0, 29167.95363044186, 28735.26856127603, -19935.43147271055, -17415.67461677487, 4207.1347483557165, -2060.8755422682216, 28826.32956818695, 2757.154733795492, -0.042, 0.974, 0.306, 192.0, 0.0, 0.0, 0.0, 0.0, 0.0, 0.0, 0.0, 0.0, 0.0, 1.6546755868934171E9, 0.0, 2022-06-08 10:06:26.893
74.0, 29197.569691845143, 28762.135358111307, -19899.109887970673, -17385.92444490486, 4233.778027746443, -2021.5364720268813, 28781.581375787424, 2774.745556681819, -0.042, 0.974, 0.306, 192.0, 0.0, 0.0, 0.0, 0.0, 0.0, 0.0, 0.0, 0.0, 0.0, 1.6546755868934262E9, 0.0, 2022-06-08 10:06:26.893
75.0, 29200.25190117978, 28763.36470405635, -19896.494733869404, -17392.83113394155, 4251.79353377742, -2013.579251000792, 28769.332619825916, 2788.2683620772796, -0.042, 0.974, 0.306, 192.0, 0.0, 0.0, 0.0, 0.0, 0.0, 0.0, 0.0, 0.0, 0.0, 1.6546755868934352E9, 0.0, 2022-06-08 10:06:26.893
76.0, 29177.654287535464, 28743.181078813206, -19931.13993777513, -17455.72894283878, 4229.55354804439, -2032.9582134435432, 28799.641585307312, 2783.3286265526567, -0.042, 0.974, 0.306, 192.0, 0.0, 0.0, 0.0, 0.0, 0.0, 0.0, 0.0, 0.0, 0.0, 1.6546755868934443E9, 0.0, 2022-06-08 10:06:26.893
77.0, 29167.260726363747, 28737.97312235512, -19943.679266414558, -17446.78824505666, 4215.628411248733, -2048.4479723510713, 28837.125460758863, 2770.319911279668, -0.052000000000000005, 0.974, 0.308, 192.0, 254.0, 96.0, 30.0, 112.0, 9.0, 160.0, 0.0, 0.0, 0.0, 1.6546755868934531E9, 0.0, 2022-06-08 10:06:26.893
78.0, 29162.611563517043, 28730.887619362788, -19940.840594868732, -17397.256779343697, 4212.901498425186, -2057.969815489032, 28833.683292112746, 2728.7903700817074, -0.052000000000000005, 0.974, 0.308, 192.0, 0.0, 0.0, 0.0, 0.0, 0.0, 0.0, 0.0, 0.0, 0.0, 1.6546755868934631E9, 0.0, 2022-06-08 10:06:26.893
79.0, 29166.210194374347, 28731.40170948526, -19924.18854524953, -17396.228599098755, 4226.245489865004, -2047.6880130395907, 28787.526939812535, 2728.3656869370566, -0.052000000000000005, 0.974, 0.308, 192.0, 0.0, 0.0, 0.0, 0.0, 0.0, 0.0, 0.0, 0.0, 0.0, 1.6546755868934727E9, 0.0, 2022-06-08 10:06:26.893
80.0, 29182.325802126623, 28747.45026200417, -19900.853324038188, -17395.513343276187, 4253.380507633747, -2002.0233991173982, 28767.388018058304, 2779.3053125507013, -0.052000000000000005, 0.974, 0.308, 192.0, 0.0, 0.0, 0.0, 0.0, 0.0, 0.0, 0.0, 0.0, 0.0, 1.6546755868934815E9, 0.0, 2022-06-08 10:06:26.893
81.0, 29180.49295908129, 28751.764148684044, -19912.85621081069, -17405.035186414145, 4246.295004641414, -2014.8309486902892, 28800.80387601899, 2802.439368061944, -0.052000000000000005, 0.974, 0.308, 192.0, 0.0, 0.0, 0.0, 0.0, 0.0, 0.0, 0.0, 0.0, 0.0, 1.6546755868934913E9, 0.0, 2022-06-08 10:06:26.893
82.0, 29163.460929806344, 28741.057663089952, -19938.963048334488, -17410.48901206124, 4221.864547951764, -2030.6336320201913, 28836.74548110312, 2788.5812864996537, -0.052000000000000005, 0.974, 0.308, 192.0, 0.0, 0.0, 0.0, 0.0, 0.0, 0.0, 0.0, 0.0, 0.0, 1.6546755868935003E9, 0.0, 2022-06-08 10:06:26.893
83.0, 29154.788452957688, 28728.428927472705, -19945.266240270885, -17423.318913378585, 4213.102664125284, -2042.770629259423, 28828.341225187927, 2756.864161117573, -0.052000000000000005, 0.974, 0.308, 192.0, 0.0, 0.0, 0.0, 0.0, 0.0, 0.0, 0.0, 0.0, 0.0, 1.65467558689351E9, 0.0, 2022-06-08 10:06:26.893
84.0, 29179.82240674763, 28749.573677727425, -19908.36351017517, -17386.885569916438, 4242.472856339557, -2012.931050411588, 28783.771846744043, 2783.3286265526567, -0.052000000000000005, 0.974, 0.308, 192.0, 0.0, 0.0, 0.0, 0.0, 0.0, 0.0, 0.0, 0.0, 0.0, 1.654675586893519E9, 0.0, 2022-06-08 10:06:26.893
85.0, 29201.794171547197, 28764.862270934853, -19886.235283164417, -17364.600880694496, 4267.1268304737605, -1994.5355647248705, 28758.626134231825, 2798.3042953377126, -0.052000000000000005, 0.974, 0.308, 192.0, 0.0, 0.0, 0.0, 0.0, 0.0, 0.0, 0.0, 0.0, 0.0, 1.6546755868935277E9, 0.0, 2022-06-08 10:06:26.893
86.0, 29194.239281921302, 28755.943924897187, -19899.825143793245, -17385.43270652684, 4259.862513525786, -1992.099224579242, 28793.159579415274, 2814.50931006781, -0.052000000000000005, 0.974, 0.308, 192.0, 0.0, 0.0, 0.0, 0.0, 0.0, 0.0, 0.0, 0.0, 0.0, 1.6546755868935401E9, 0.0, 2022-06-08 10:06:26.893
87.0, 29154.229659346303, 28727.11017454984, -19955.0116008534, -17437.489919363252, 4210.711027468566, -2050.6607950521466, 28837.304274714505, 2782.546315496721, -0.046, 0.976, 0.31, 192.0, 254.0, 144.0, 30.0, 128.0, 9.0, 176.0, 0.0, 0.0, 0.0, 1.6546755868935492E9, 0.0, 2022-06-08 10:06:26.893
88.0, 29140.908019650942, 28702.947938793655, -19961.38184802316, -17448.330515424077, 4198.9763616295295, -2068.4080801496602, 28827.290693198527, 2739.8544835870844, -0.046, 0.976, 0.31, 192.0, 0.0, 0.0, 0.0, 0.0, 0.0, 0.0, 0.0, 0.0, 0.0, 1.6546755868935573E9, 0.0, 2022-06-08 10:06:26.893
89.0, 29155.86133669154, 28714.526142421502, -19936.392597722126, -17441.937916509858, 4212.387408302714, -2054.102963698264, 28785.26941362255, 2735.4958934182996, -0.046, 0.976, 0.31, 192.0, 0.0, 0.0, 0.0, 0.0, 0.0, 0.0, 0.0, 0.0, 0.0, 1.6546755868935657E9, 0.0, 2022-06-08 10:06:26.893
90.0, 29168.668886264433, 28722.952750081153, -19910.710443342978, -17392.607616496996, 4249.781876776442, -2028.3314023412947, 28759.587259243403, 2776.354882282601, -0.046, 0.976, 0.31, 192.0, 0.0, 0.0, 0.0, 0.0, 0.0, 0.0, 0.0, 0.0, 0.0, 1.6546755868935747E9, 0.0, 2022-06-08 10:06:26.893
91.0, 29177.944860213385, 28739.940075867187, -19907.625902608146, -17389.858351928993, 4251.480609355046, -2009.220660832007, 28793.22663464864, 2806.3062198527123, -0.046, 0.976, 0.31, 192.0, 0.0, 0.0, 0.0, 0.0, 0.0, 0.0, 0.0, 0.0, 0.0, 1.6546755868935847E9, 0.0, 2022-06-08 10:06:26.893
92.0, 29150.832194189097, 28722.706880892147, -19950.831824640256, -17437.624029829985, 4211.806262946876, -2043.128257170708, 28834.08562351294, 2784.580324242154, -0.046, 0.976, 0.31, 192.0, 0.0, 0.0, 0.0, 0.0, 0.0, 0.0, 0.0, 0.0, 0.0, 1.6546755868935935E9, 0.0, 2022-06-08 10:06:26.893
93.0, 29128.61456020052, 28700.73511609258, -19970.300194060826, -17463.574405142594, 4187.73343416851, -2070.397385406183, 28827.625969365356, 2749.577492425143, -0.046, 0.976, 0.31, 192.0, 0.0, 0.0, 0.0, 0.0, 0.0, 0.0, 0.0, 0.0, 0.0, 1.6546755868936024E9, 0.0, 2022-06-08 10:06:26.893
94.0, 29152.888554678986, 28720.427002957706, -19928.569487162767, -17434.07010246159, 4217.282440338426, -2045.8104665053447, 28784.822378733443, 2757.3335477511346, -0.046, 0.976, 0.31, 192.0, 0.0, 0.0, 0.0, 0.0, 0.0, 0.0, 0.0, 0.0, 0.0, 1.6546755868936143E9, 0.0, 2022-06-08 10:06:26.893
95.0, 29186.930261484416, 28746.422081759225, -19887.285815153817, -17385.030375126647, 4265.472801384068, -2008.192480587063, 28755.02750337452, 2784.1332893530475, -0.046, 0.976, 0.31, 192.0, 0.0, 0.0, 0.0, 0.0, 0.0, 0.0, 0.0, 0.0, 0.0, 1.6546755868936236E9, 0.0, 2022-06-08 10:06:26.893
96.0, 29175.620278790033, 28740.297703778473, -19910.41987066506, -17418.759157509703, 4249.357193631791, -2018.2284138474959, 28781.73783799861, 2790.5705917561763, -0.048, 0.982, 0.306, 192.0, 254.0, 128.0, 30.0, 176.0, 9.0, 144.0, 0.0, 0.0, 0.0, 1.654675586893634E9, 0.0, 2022-06-08 10:06:26.893
97.0, 29157.828290203608, 28731.11113680734, -19937.063150055787, -17429.30918089261, 4220.143463628705, -2035.0592774223421, 28827.625969365356, 2784.2673998197797, -0.048, 0.982, 0.306, 192.0, 0.0, 0.0, 0.0, 0.0, 0.0, 0.0, 0.0, 0.0, 0.0, 1.6546755868936424E9, 0.0, 2022-06-08 10:06:26.893
98.0, 29173.854490978065, 28739.873020633822, -19917.438318424025, -17411.025453928167, 4233.956841702085, -2022.3634865717277, 28830.151716488806, 2783.574495741665, -0.048, 0.982, 0.306, 192.0, 0.0, 0.0, 0.0, 0.0, 0.0, 0.0, 0.0, 0.0, 0.0, 1.6546755868936503E9, 0.0, 2022-06-08 10:06:26.893
99.0, 29189.947746985883, 28747.874945148822, -19890.929149500033, -17382.258758814187, 4254.632205323244, -2008.036018375876, 28790.097390424897, 2773.3150450366793, -0.048, 0.982, 0.306, 192.0, 0.0, 0.0, 0.0, 0.0, 0.0, 0.0, 0.0, 0.0, 0.0, 1.6546755868936594E9, 0.0, 2022-06-08 10:06:26.893
100.0, 29192.45114236488, 28747.22674455962, -19888.85043726569, -17385.544465249117, 4261.293025170926, -2005.934954397077, 28765.26460233505, 2773.180934569947, -0.048, 0.982, 0.306, 192.0, 0.0, 0.0, 0.0, 0.0, 0.0, 0.0, 0.0, 0.0, 0.0, 1.6546755868936667E9, 0.0, 2022-06-08 10:06:26.893
101.0, 29176.559052057157, 28733.927456608708, -19913.571466633257, -17409.12555564947, 4245.400934863203, -2024.35279182825, 28789.002154946586, 2783.59684748612, -0.048, 0.982, 0.306, 192.0, 0.0, 0.0, 0.0, 0.0, 0.0, 0.0, 0.0, 0.0, 0.0, 1.6546755868936753E9, 0.0, 2022-06-08 10:06:26.893
102.0, 29160.86812744953, 28725.098517548864, -19939.790062879332, -17464.289660965165, 4224.949088686596, -2036.6686030231242, 28826.46367865368, 2796.605562759109, -0.048, 0.982, 0.306, 192.0, 0.0, 0.0, 0.0, 0.0, 0.0, 0.0, 0.0, 0.0, 0.0, 1.6546755868936827E9, 0.0, 2022-06-08 10:06:26.893
103.0, 29149.04405463267, 28713.766183110023, -19948.79781589482, -17485.523818197707, 4211.381579802225, -2032.1982541320629, 28822.395661162816, 2765.313120521679, -0.048, 0.982, 0.306, 192.0, 0.0, 0.0, 0.0, 0.0, 0.0, 0.0, 0.0, 0.0, 0.0, 1.6546755868936925E9, 0.0, 2022-06-08 10:06:26.893
104.0, 29171.753426999265, 28722.371604725315, -19912.02919626584, -17376.939043633825, 4236.303774869893, -2026.9902976739763, 28780.46378856466, 2761.0215855862602, -0.048, 0.982, 0.306, 192.0, 0.0, 0.0, 0.0, 0.0, 0.0, 0.0, 0.0, 0.0, 0.0, 1.6546755868937013E9, 0.0, 2022-06-08 10:06:26.893
105.0, 29188.696049296388, 28734.732119409102, -19893.052565223286, -17370.81466565307, 4258.253187925004, -2015.6579632351356, 28759.475500521126, 2778.83592591714, -0.048, 0.982, 0.306, 192.0, 0.0, 0.0, 0.0, 0.0, 0.0, 0.0, 0.0, 0.0, 0.0, 1.65467558689371E9, 0.0, 2022-06-08 10:06:26.893
106.0, 29178.704819524864, 28736.855535132356, -19906.329501429736, -17390.81947694057, 4253.000527978007, -2015.9708876575098, 28794.36657361586, 2796.2032313589134, -0.05, 0.98, 0.304, 192.0, 254.0, 112.0, 30.0, 160.0, 9.0, 128.0, 0.0, 0.0, 0.0, 1.6546755868937185E9, 0.0, 2022-06-08 10:06:26.893
107.0, 29151.77096745622, 28718.728270379102, -19945.28859201534, -17433.77952978367, 4210.509861768468, -2050.3925741186827, 28829.458812410692, 2759.6804809189416, -0.05, 0.98, 0.304, 192.0, 0.0, 0.0, 0.0, 0.0, 0.0, 0.0, 0.0, 0.0, 0.0, 1.6546755868937683E9, 0.0, 2022-06-08 10:06:26.893
108.0, 29152.553278512154, 28712.894465076264, -19941.645257669123, -17435.679428062373, 4210.934544913119, -2054.5276468429147, 28831.71633860068, 2744.5259981782438, -0.05, 0.98, 0.304, 192.0, 0.0, 0.0, 0.0, 0.0, 0.0, 0.0, 0.0, 0.0, 0.0, 1.6546755868937817E9, 0.0, 2022-06-08 10:06:26.893
109.0, 29168.870051964528, 28722.393956469772, -19913.437356166527, -17424.861183746005, 4230.917004456163, -2039.0155361909315, 28780.910823453763, 2751.633852915031, -0.05, 0.98, 0.304, 192.0, 0.0, 0.0, 0.0, 0.0, 0.0, 0.0, 0.0, 0.0, 0.0, 1.654675586893788E9, 0.0, 2022-06-08 10:06:26.893
110.0, 29174.793264245185, 28724.383261726292, -19905.21191420697, -17413.81942198508, 4238.963632460074, -2014.585079501281, 28760.74954995508, 2772.1080508360924, -0.05, 0.98, 0.304, 192.0, 0.0, 0.0, 0.0, 0.0, 0.0, 0.0, 0.0, 0.0, 0.0, 1.654675586893794E9, 0.0, 2022-06-08 10:06:26.893
111.0, 29172.401627588468, 28725.746718138067, -19916.790117834822, -17403.29175034663, 4237.957803959585, -2002.515137495415, 28786.990497945608, 2785.608504487098, -0.05, 0.98, 0.304, 192.0, 0.0, 0.0, 0.0, 0.0, 0.0, 0.0, 0.0, 0.0, 0.0, 1.6546755868937998E9, 0.0, 2022-06-08 10:06:26.893
112.0, 29168.82534847562, 28726.104346049353, -19928.94946681851, -17438.383989141465, 4225.373771831247, -2015.032114390387, 28816.04776573751, 2782.769832941274, -0.05, 0.98, 0.304, 192.0, 0.0, 0.0, 0.0, 0.0, 0.0, 0.0, 0.0, 0.0, 0.0, 1.6546755868938055E9, 0.0, 2022-06-08 10:06:26.893
113.0, 29157.269496592224, 28712.91681682072, -19936.549059933313, -17435.45591061782, 4208.989943145507, -2041.965966459032, 28815.444268637213, 2761.468620475366, -0.05, 0.98, 0.304, 192.0, 0.0, 0.0, 0.0, 0.0, 0.0, 0.0, 0.0, 0.0, 0.0, 1.6546755868938112E9, 0.0, 2022-06-08 10:06:26.893
114.0, 29162.902136194964, 28713.11798252082, -19918.578257391247, -17409.326721349564, 4214.399065303692, -2045.1175624272303, 28771.187814615707, 2737.999288797294, -0.05, 0.98, 0.304, 192.0, 0.0, 0.0, 0.0, 0.0, 0.0, 0.0, 0.0, 0.0, 0.0, 1.6546755868938172E9, 0.0, 2022-06-08 10:06:26.893
115.0, 29182.54931957118, 28732.854572874854, -19892.65023382309, -17409.86316321649, 4247.345536630814, -2022.9669836720211, 28738.39780549977, 2749.7563063807856, -0.05, 0.98, 0.304, 192.0, 0.0, 0.0, 0.0, 0.0, 0.0, 0.0, 0.0, 0.0, 0.0, 1.654675586893823E9, 0.0, 2022-06-08 10:06:26.893
116.0, 29178.749523013776, 28731.5805234409, -19904.98839676242, -17398.284959588644, 4251.45825761059, -2032.935861699088, 28764.191718601196, 2761.73684140883, -0.05, 0.974, 0.306, 192.0, 254.0, 112.0, 30.0, 112.0, 9.0, 144.0, 0.0, 0.0, 0.0, 1.6546755868938289E9, 0.0, 2022-06-08 10:06:26.893
117.0, 29152.218002345326, 28712.290967975972, -19943.254583269907, -17427.722207036284, 4217.975344416541, -2049.520856084926, 28818.28294018304, 2768.4647164898774, -0.05, 0.974, 0.306, 192.0, 0.0, 0.0, 0.0, 0.0, 0.0, 0.0, 0.0, 0.0, 0.0, 1.6546755868938348E9, 0.0, 2022-06-08 10:06:26.893
118.0, 29150.47456627781, 28708.8264475854, -19937.800757622812, -17431.611410571506, 4213.348533314292, -2037.8532454792555, 28820.965149517677, 2755.768925639263, -0.05, 0.974, 0.306, 192.0, 0.0, 0.0, 0.0, 0.0, 0.0, 0.0, 0.0, 0.0, 0.0, 1.6546755868938406E9, 0.0, 2022-06-08 10:06:26.893
119.0, 29166.85839496355, 28719.354119223848, -19909.302283442295, -17429.59975357053, 4228.9724026885515, -2036.221568134018, 28777.535710041015, 2752.4832192043327, -0.05, 0.974, 0.306, 192.0, 0.0, 0.0, 0.0, 0.0, 0.0, 0.0, 0.0, 0.0, 0.0, 1.6546755868938465E9, 0.0, 2022-06-08 10:06:26.893
120.0, 29168.445368819877, 28718.370642467817, -19907.335329930225, -17455.147797482943, 4232.392219590213, -2031.550053542859, 28755.496890008082, 2776.131364838048, -0.05, 0.974, 0.306, 192.0, 0.0, 0.0, 0.0, 0.0, 0.0, 0.0, 0.0, 0.0, 0.0, 1.6546755868938525E9, 0.0, 2022-06-08 10:06:26.893
121.0, 29180.62706954802, 28731.245247274073, -19899.802792048788, -17378.190741323324, 4244.551568573901, -2014.3392103122726, 28780.50849205357, 2798.7513302268185, -0.05, 0.974, 0.306, 192.0, 0.0, 0.0, 0.0, 0.0, 0.0, 0.0, 0.0, 0.0, 0.0, 1.6546755873752103E9, 0.0, 2022-06-08 10:06:27.375
122.0, 29164.779682729208, 28719.555284923947, -19929.351798218704, -17410.041977172135, 4217.483606038524, -2034.1652076441299, 28812.22561743565, 2786.3908155430336, -0.05, 0.974, 0.306, 192.0, 0.0, 0.0, 0.0, 0.0, 0.0, 0.0, 0.0, 0.0, 0.0, 1.6546755873753817E9, 0.0, 2022-06-08 10:06:27.375
123.0, 29144.506650508243, 28694.96836602311, -19948.149615305618, -17444.44131188885, 4191.086195836806, -2061.2108184350514, 28804.17898943174, 2745.2412540008136, -0.05, 0.974, 0.306, 192.0, 0.0, 0.0, 0.0, 0.0, 0.0, 0.0, 0.0, 0.0, 0.0, 1.6546755873754423E9, 0.0, 2022-06-08 10:06:27.375
124.0, 29167.81951997513, 28712.738002865077, -19910.03989100932, -17407.359767837497, 4224.010315419473, -2035.1486844001633, 28764.102311623374, 2748.9516435803944, -0.05, 0.974, 0.306, 192.0, 0.0, 0.0, 0.0, 0.0, 0.0, 0.0, 0.0, 0.0, 0.0, 1.6546755873754623E9, 0.0, 2022-06-08 10:06:27.375
125.0, 29186.907909739963, 28726.64078791628, -19889.520989599347, -17401.280093345653, 4247.144370930716, -2007.231355575485, 28747.338503281895, 2767.1012600781037, -0.05, 0.974, 0.306, 192.0, 0.0, 0.0, 0.0, 0.0, 0.0, 0.0, 0.0, 0.0, 0.0, 1.65467558737547E9, 0.0, 2022-06-08 10:06:27.375
126.0, 29171.39579908798, 28717.83420060089, -19914.08555675573, -17407.225657370767, 4228.994754433007, -2018.0719516363088, 28771.858366949367, 2776.734861938341, -0.048, 0.98, 0.312, 192.0, 254.0, 128.0, 30.0, 160.0, 9.0, 192.0, 0.0, 0.0, 0.0, 1.6546755873754773E9, 0.0, 2022-06-08 10:06:27.375
127.0, 29151.569801756123, 28704.512560905525, -19940.12533904616, -17435.38885538445, 4201.949143642085, -2037.8532454792555, 28807.97878598914, 2760.485143719333, -0.048, 0.98, 0.312, 192.0, 0.0, 0.0, 0.0, 0.0, 0.0, 0.0, 0.0, 0.0, 0.0, 1.6546755873754847E9, 0.0, 2022-06-08 10:06:27.375
128.0, 29155.794281458177, 28708.021784785007, -19928.45772844049, -17424.145927923433, 4204.676056465632, -2048.0679926953308, 28809.52105635656, 2748.8175331136626, -0.048, 0.98, 0.312, 192.0, 0.0, 0.0, 0.0, 0.0, 0.0, 0.0, 0.0, 0.0, 0.0, 1.654675587375501E9, 0.0, 2022-06-08 10:06:27.375
129.0, 29183.868072494042, 28729.792383884476, -19890.616225077658, -17392.339395563533, 4235.186187647127, -2019.3907045591718, 28774.13824488381, 2744.6377569005203, -0.048, 0.98, 0.312, 192.0, 0.0, 0.0, 0.0, 0.0, 0.0, 0.0, 0.0, 0.0, 0.0, 1.6546755873755076E9, 0.0, 2022-06-08 10:06:27.375
130.0, 29180.15768291446, 28725.992587327077, -19894.259559423874, -17396.943854921326, 4235.655574280689, -2015.680314979591, 28751.808852172955, 2770.7445944243186, -0.048, 0.98, 0.312, 192.0, 0.0, 0.0, 0.0, 0.0, 0.0, 0.0, 0.0, 0.0, 0.0, 1.6546755873755133E9, 0.0, 2022-06-08 10:06:27.375
131.0, 29183.510444582756, 28735.916761865232, -19904.250789195394, -17421.754291266716, 4237.644879537211, -2012.6628294781244, 28772.03718090501, 2790.9058679230056, -0.048, 0.98, 0.312, 192.0, 0.0, 0.0, 0.0, 0.0, 0.0, 0.0, 0.0, 0.0, 0.0, 1.6546755873755195E9, 0.0, 2022-06-08 10:06:27.375
132.0, 29158.029455903707, 28711.44160168667, -19928.971818562964, -17439.92625950888, 4221.261050851471, -2040.8260274918114, 28812.203265691194, 2782.635722474542, -0.048, 0.98, 0.312, 192.0, 0.0, 0.0, 0.0, 0.0, 0.0, 0.0, 0.0, 0.0, 0.0, 1.6546755873755252E9, 0.0, 2022-06-08 10:06:27.375
133.0, 29148.261743576735, 28698.902273047242, -19938.001923322907, -17421.329608122065, 4201.680922708621, -2060.8084870348557, 28816.18187620424, 2750.695079647908, -0.048, 0.98, 0.312, 192.0, 0.0, 0.0, 0.0, 0.0, 0.0, 0.0, 0.0, 0.0, 0.0, 1.6546755873755307E9, 0.0, 2022-06-08 10:06:27.375
134.0, 29171.328743854614, 28713.900293576753, -19907.290626441318, -17394.395756053418, 4218.534138027923, -2042.3459461147722, 28772.484215794113, 2739.4074486979785, -0.048, 0.98, 0.312, 192.0, 0.0, 0.0, 0.0, 0.0, 0.0, 0.0, 0.0, 0.0, 0.0, 1.6546755873755364E9, 0.0, 2022-06-08 10:06:27.375
135.0, 29193.367563887547, 28730.842915873876, -19882.323727884737, -17387.466715272276, 4249.357193631791, -1994.0438263468536, 28746.667950948235, 2763.413222242978, -0.048, 0.98, 0.312, 192.0, 0.0, 0.0, 0.0, 0.0, 0.0, 0.0, 0.0, 0.0, 0.0, 1.6546755873755424E9, 0.0, 2022-06-08 10:06:27.375
136.0, 29195.558034844165, 28742.01878810153, -19886.95053898699, -17414.422919085377, 4254.408687878691, -1995.1390618251637, 28767.186852358205, 2774.097356092615, -0.04, 0.98, 0.31, 192.0, 254.0, 192.0, 30.0, 160.0, 9.0, 176.0, 0.0, 0.0, 0.0, 1.654675587375548E9, 0.0, 2022-06-08 10:06:27.375
137.0, 29178.280136380214, 28729.390052484283, -19907.71530958597, -17382.325814047555, 4234.381524846736, -2029.739562241979, 28808.247006922604, 2772.420975258467, -0.04, 0.98, 0.31, 192.0, 0.0, 0.0, 0.0, 0.0, 0.0, 0.0, 0.0, 0.0, 0.0, 1.654675587375554E9, 0.0, 2022-06-08 10:06:27.375
138.0, 29160.398740815966, 28710.614587141823, -19921.998074292907, -17411.87482021747, 4216.745998471499, -2050.0349462073978, 28808.694041811712, 2746.6047104125873, -0.04, 0.98, 0.31, 192.0, 0.0, 0.0, 0.0, 0.0, 0.0, 0.0, 0.0, 0.0, 0.0, 1.6546755873755598E9, 0.0, 2022-06-08 10:06:27.375
139.0, 29179.82240674763, 28723.06450880343, -19891.55499834478, -17399.693119489326, 4241.422324350157, -2028.9572511860433, 28768.393846558793, 2754.874855861051, -0.04, 0.98, 0.31, 192.0, 0.0, 0.0, 0.0, 0.0, 0.0, 0.0, 0.0, 0.0, 0.0, 1.654675587375566E9, 0.0, 2022-06-08 10:06:27.375
140.0, 29179.06244743615, 28721.11990703582, -19891.51029485587, -17398.955511922304, 4245.959728474585, -2029.3372308417836, 28743.628113702314, 2761.35686175309, -0.04, 0.98, 0.31, 192.0, 0.0, 0.0, 0.0, 0.0, 0.0, 0.0, 0.0, 0.0, 0.0, 1.6546755873755715E9, 0.0, 2022-06-08 10:06:27.375
141.0, 29154.743749468777, 28697.15883697973, -19924.12149001616, -17420.189669154843, 4216.50012928249, -2042.7035740260571, 28757.955581898164, 2751.678556403942, -0.04, 0.98, 0.31, 192.0, 0.0, 0.0, 0.0, 0.0, 0.0, 0.0, 0.0, 0.0, 0.0, 1.6546755873755774E9, 0.0, 2022-06-08 10:06:27.375
142.0, 29131.609693957533, 28681.82554028339, -19957.80556891031, -17459.88636730747, 4190.236829547504, -2060.9202457571323, 28789.4938933246, 2724.655297357476, -0.04, 0.98, 0.31, 192.0, 0.0, 0.0, 0.0, 0.0, 0.0, 0.0, 0.0, 0.0, 0.0, 1.6546755873755832E9, 0.0, 2022-06-08 10:06:27.375
143.0, 29133.33077828059, 28686.29588917445, -19953.71519967499, -17455.75129458324, 4188.180469057616, -2069.190391205596, 28793.628966048836, 2722.978916523328, -0.04, 0.98, 0.31, 192.0, 0.0, 0.0, 0.0, 0.0, 0.0, 0.0, 0.0, 0.0, 0.0, 1.6546755873755891E9, 0.0, 2022-06-08 10:06:27.375
144.0, 29156.62129600302, 28698.7234590916, -19918.578257391247, -17406.666863759383, 4215.337838570814, -2038.970832702021, 28758.156747598263, 2745.3306609786346, -0.04, 0.98, 0.31, 192.0, 0.0, 0.0, 0.0, 0.0, 0.0, 0.0, 0.0, 0.0, 0.0, 1.6546755873755949E9, 0.0, 2022-06-08 10:06:27.375
145.0, 29188.338421385102, 28726.88665710529, -19880.110905183665, -17380.73884019123, 4249.915987243175, -2001.1740328280966, 28730.328825751407, 2772.3315682806456, -0.04, 0.98, 0.31, 192.0, 0.0, 0.0, 0.0, 0.0, 0.0, 0.0, 0.0, 0.0, 0.0, 1.6546755873756008E9, 0.0, 2022-06-08 10:06:27.375
146.0, 29184.069238194137, 28730.35117749586, -19891.197370433496, -17407.359767837497, 4243.143408673216, -2017.2002336025519, 28757.173270842228, 2791.375254556567, -0.04, 0.982, 0.31, 192.0, 254.0, 192.0, 30.0, 176.0, 9.0, 176.0, 0.0, 0.0, 0.0, 1.6546755873756063E9, 0.0, 2022-06-08 10:06:27.375
147.0, 29150.38515929999, 28709.005261541042, -19938.225440767463, -17426.805785513614, 4199.624562218733, -2054.2817776539064, 28801.966166730665, 2765.3354722661343, -0.04, 0.982, 0.31, 192.0, 0.0, 0.0, 0.0, 0.0, 0.0, 0.0, 0.0, 0.0, 0.0, 1.6546755873756123E9, 0.0, 2022-06-08 10:06:27.375
148.0, 29154.6319907465, 28711.19573249766, -19930.022350552365, -17417.55216330912, 4198.618733718245, -2051.0407747078866, 28811.30919591298, 2749.73395463633, -0.04, 0.982, 0.31, 192.0, 0.0, 0.0, 0.0, 0.0, 0.0, 0.0, 0.0, 0.0, 0.0, 1.654675587375618E9, 0.0, 2022-06-08 10:06:27.375
149.0, 29176.11201716805, 28717.431869200693, -19896.450030380493, -17399.357843322498, 4227.810111976875, -2041.4295245921046, 28772.6406780053, 2748.8845883470285, -0.04, 0.982, 0.31, 192.0, 0.0, 0.0, 0.0, 0.0, 0.0, 0.0, 0.0, 0.0, 0.0, 1.6546755873756237E9, 0.0, 2022-06-08 10:06:27.375
150.0, 29175.463816578846, 28709.429944685693, -19893.70076581249, -17404.901075947415, 4233.1968823906045, -2031.3041843538506, 28745.818584658933, 2750.583320925632, -0.04, 0.982, 0.31, 192.0, 0.0, 0.0, 0.0, 0.0, 0.0, 0.0, 0.0, 0.0, 0.0, 1.6546755873756316E9, 0.0, 2022-06-08 10:06:27.375
151.0, 29179.889461980994, 28716.53779942248, -19896.78530654732, -17404.610503269494, 4237.533120814935, -2017.9378411695768, 28776.060494906964, 2777.092489849626, -0.04, 0.982, 0.31, 192.0, 0.0, 0.0, 0.0, 0.0, 0.0, 0.0, 0.0, 0.0, 0.0, 1.6546755873756373E9, 0.0, 2022-06-08 10:06:27.375
152.0, 29156.06250239164, 28707.083011517887, -19932.14576627562, -17461.607451630527, 4208.297039067393, -2038.7920187463785, 28813.834943036432, 2771.2363328023357, -0.04, 0.982, 0.31, 192.0, 0.0, 0.0, 0.0, 0.0, 0.0, 0.0, 0.0, 0.0, 0.0, 1.6546755873756435E9, 0.0, 2022-06-08 10:06:27.375
153.0, 29143.90315340795, 28695.504807890036, -19945.28859201534, -17450.945669525347, 4187.241695790493, -2054.2147224205405, 28812.27032092456, 2736.4346666854226, -0.04, 0.982, 0.31, 192.0, 0.0, 0.0, 0.0, 0.0, 0.0, 0.0, 0.0, 0.0, 0.0, 1.6546755873756497E9, 0.0, 2022-06-08 10:06:27.375
154.0, 29171.082874665604, 28715.44256394417, -19905.65894909608, -17399.380195066955, 4212.096835624795, -2045.8104665053447, 28772.08188439392, 2730.734971849319, -0.04, 0.982, 0.31, 192.0, 0.0, 0.0, 0.0, 0.0, 0.0, 0.0, 0.0, 0.0, 0.0, 1.6546755873756557E9, 0.0, 2022-06-08 10:06:27.375
155.0, 29170.948764198874, 28713.520313921013, -19897.7464315589, -17406.39864282592, 4226.69252475411, -2039.350812357761, 28744.611590458346, 2743.4084109554783, -0.04, 0.982, 0.31, 192.0, 0.0, 0.0, 0.0, 0.0, 0.0, 0.0, 0.0, 0.0, 0.0, 1.6546755873756611E9, 0.0, 2022-06-08 10:06:27.375
156.0, 29158.141214625983, 28705.607796383836, -19914.778460833844, -17435.59002108455, 4223.496225297002, -2037.8085419903448, 28764.41523604575, 2747.3423179796123, -0.034, 0.976, 0.316, 192.0, 254.0, 240.0, 30.0, 128.0, 9.0, 224.0, 0.0, 0.0, 0.0, 1.654675587375667E9, 0.0, 2022-06-08 10:06:27.375
157.0, 29140.39392952847, 28689.559243864926, -19938.001923322907, -17429.912677992903, 4201.166832586149, -2054.840571265289, 28797.74168702861, 2729.6173846265538, -0.034, 0.976, 0.316, 192.0, 0.0, 0.0, 0.0, 0.0, 0.0, 0.0, 0.0, 0.0, 0.0, 1.6546755873756728E9, 0.0, 2022-06-08 10:06:27.375
158.0, 29149.3793307995, 28697.382354424284, -19928.390673207126, -17420.502593577217, 4202.016198875452, -2075.2700656974393, 28799.261605651573, 2699.4872331008, -0.034, 0.976, 0.316, 192.0, 0.0, 0.0, 0.0, 0.0, 0.0, 0.0, 0.0, 0.0, 0.0, 1.6546755873756788E9, 0.0, 2022-06-08 10:06:27.375
159.0, 29166.791339730185, 28710.100497019353, -19904.78723106232, -17410.421956827875, 4221.149292129194, -2064.809449292356, 28763.252945334072, 2725.3034979466797, -0.034, 0.976, 0.316, 192.0, 0.0, 0.0, 0.0, 0.0, 0.0, 0.0, 0.0, 0.0, 0.0, 1.6546755873756845E9, 0.0, 2022-06-08 10:06:27.375
160.0, 29172.66984852193, 28707.261825473528, -19897.433507136528, -17429.800919270627, 4234.001545190996, -2025.7162482400238, 28733.189849041686, 2772.9127136364837, -0.034, 0.976, 0.316, 192.0, 0.0, 0.0, 0.0, 0.0, 0.0, 0.0, 0.0, 0.0, 0.0, 1.6546755873756902E9, 0.0, 2022-06-08 10:06:27.375
161.0, 29181.789360259696, 28726.59608442737, -19892.918454756553, -17384.15865709289, 4241.511731327979, -2002.9621723845212, 28753.619343473834, 2797.231411603858, -0.034, 0.976, 0.316, 192.0, 0.0, 0.0, 0.0, 0.0, 0.0, 0.0, 0.0, 0.0, 0.0, 1.654675587375696E9, 0.0, 2022-06-08 10:06:27.375
162.0, 29156.01779890273, 28710.905159819744, -19927.965990062476, -17407.963264937793, 4210.867489679753, -2040.9154344696326, 28792.869006737354, 2766.922446122461, -0.034, 0.976, 0.316, 192.0, 0.0, 0.0, 0.0, 0.0, 0.0, 0.0, 0.0, 0.0, 0.0, 1.6546755873757017E9, 0.0, 2022-06-08 10:06:27.375
163.0, 29147.94881915436, 28698.87992130279, -19937.107853544698, -17435.500614106728, 4195.265972049949, -2075.001844763976, 28795.998250961096, 2727.605727625576, -0.034, 0.976, 0.316, 192.0, 0.0, 0.0, 0.0, 0.0, 0.0, 0.0, 0.0, 0.0, 0.0, 1.654675587375708E9, 0.0, 2022-06-08 10:06:27.375
164.0, 29174.77091250073, 28715.084936032887, -19896.092402469207, -17399.938988678336, 4232.615737034766, -2038.479094324004, 28756.055683619463, 2744.503646433788, -0.034, 0.976, 0.316, 192.0, 0.0, 0.0, 0.0, 0.0, 0.0, 0.0, 0.0, 0.0, 0.0, 1.6546755873757138E9, 0.0, 2022-06-08 10:06:27.375
165.0, 29182.124636426528, 28714.414383699226, -19883.150742429585, -17381.409392524885, 4242.070524939361, -2021.3129545823283, 28721.186962269185, 2762.5191524647657, -0.034, 0.976, 0.316, 192.0, 0.0, 0.0, 0.0, 0.0, 0.0, 0.0, 0.0, 0.0, 0.0, 1.6546755873757195E9, 0.0, 2022-06-08 10:06:27.375
166.0, 29173.63097353351, 28711.06162203093, -19902.015614749864, -17417.01572144219, 4227.117207898761, -2026.1409313846746, 28741.504697979057, 2779.8417544176286, -0.038, 0.974, 0.318, 192.0, 254.0, 208.0, 30.0, 112.0, 9.0, 240.0, 0.0, 0.0, 0.0, 1.6546755873757255E9, 0.0, 2022-06-08 10:06:27.375
167.0, 29158.141214625983, 28705.25016847255, -19928.301266229304, -17474.482056436784, 4202.284419808915, -2042.6365187926913, 28777.84863446339, 2765.8719141330616, -0.038, 0.974, 0.318, 192.0, 0.0, 0.0, 0.0, 0.0, 0.0, 0.0, 0.0, 0.0, 0.0, 1.6546755873757312E9, 0.0, 2022-06-08 10:06:27.375
168.0, 29148.306447065646, 28693.627261355792, -19938.31484774528, -17411.58424753955, 4185.744128911988, -2058.5733125893253, 28786.23053863413, 2734.713582362364, -0.038, 0.974, 0.318, 192.0, 0.0, 0.0, 0.0, 0.0, 0.0, 0.0, 0.0, 0.0, 0.0, 1.6546755873757367E9, 0.0, 2022-06-08 10:06:27.375
169.0, 29166.657229263456, 28711.732174364588, -19910.576332876248, -17405.191648625332, 4207.715893711555, -2043.7988095043672, 28749.39486377178, 2723.9176897904504, -0.038, 0.974, 0.318, 192.0, 0.0, 0.0, 0.0, 0.0, 0.0, 0.0, 0.0, 0.0, 0.0, 1.654675587375743E9, 0.0, 2022-06-08 10:06:27.375
170.0, 29191.78059003122, 28732.653407174756, -19875.573501059236, -17387.176142594355, 4242.852835995297, -1995.4966897364486, 28719.935264579686, 2756.4394779729223, -0.038, 0.974, 0.318, 192.0, 0.0, 0.0, 0.0, 0.0, 0.0, 0.0, 0.0, 0.0, 0.0, 1.6546755873757484E9, 0.0, 2022-06-08 10:06:27.375
171.0, 29192.071162709137, 28733.25690427505, -19881.36260287316, -17392.272340330164, 4245.624452307756, -2000.7269979389905, 28743.516354980035, 2795.7114929808968, -0.038, 0.974, 0.318, 192.0, 0.0, 0.0, 0.0, 0.0, 0.0, 0.0, 0.0, 0.0, 0.0, 1.6546755873757565E9, 0.0, 2022-06-08 10:06:27.375
172.0, 29148.48526102129, 28703.864360316322, -19936.23613551094, -17431.83492801606, 4196.987056373007, -2058.7968300338785, 28790.879701480833, 2767.2353705448354, -0.038, 0.974, 0.318, 192.0, 0.0, 0.0, 0.0, 0.0, 0.0, 0.0, 0.0, 0.0, 0.0, 1.654675587375762E9, 0.0, 2022-06-08 10:06:27.375
173.0, 29144.551353997154, 28699.01403176952, -19934.8056238658, -17438.428692630376, 4198.238754062504, -2068.184562705107, 28799.105143440385, 2737.976937052839, -0.038, 0.974, 0.318, 192.0, 0.0, 0.0, 0.0, 0.0, 0.0, 0.0, 0.0, 0.0, 0.0, 1.6546755873757677E9, 0.0, 2022-06-08 10:06:27.375
174.0, 29164.91379319594, 28705.183113239185, -19902.12737347214, -17425.218811657287, 4220.88107119573, -2047.8444752507778, 28759.631962732314, 2740.3685737095566, -0.038, 0.974, 0.318, 192.0, 0.0, 0.0, 0.0, 0.0, 0.0, 0.0, 0.0, 0.0, 0.0, 1.6546755873757737E9, 0.0, 2022-06-08 10:06:27.375
175.0, 29167.52894729721, 28702.25503471554, -19900.74156531591, -17438.853375775027, 4227.3854288322245, -2041.742449014479, 28724.58442742639, 2746.9176348349615, -0.038, 0.974, 0.318, 192.0, 0.0, 0.0, 0.0, 0.0, 0.0, 0.0, 0.0, 0.0, 0.0, 1.6546755873757792E9, 0.0, 2022-06-08 10:06:27.375
176.0, 29157.537717525687, 28697.985851524576, -19915.381957934136, -17424.861183746005, 4210.822786190843, -2045.4081351051493, 28744.29866603597, 2755.321890750157, -0.044, 0.974, 0.32, 192.0, 254.0, 160.0, 30.0, 112.0, 10.0, 0.0, 0.0, 0.0, 0.0, 1.654675587375785E9, 0.0, 2022-06-08 10:06:27.375
177.0, 29143.500822007754, 28691.325031676894, -19938.89599310112, -17430.02443671518, 4189.119242324739, -2073.034891251909, 28785.18000664473, 2744.928329578439, -0.044, 0.974, 0.32, 192.0, 0.0, 0.0, 0.0, 0.0, 0.0, 0.0, 0.0, 0.0, 0.0, 1.6546755873757908E9, 0.0, 2022-06-08 10:06:27.375
178.0, 29144.998388886263, 28690.542720620957, -19936.750225633412, -17436.34998039603, 4185.833535889809, -2077.5946471207913, 28798.56870157346, 2740.3685737095566, -0.044, 0.974, 0.32, 192.0, 0.0, 0.0, 0.0, 0.0, 0.0, 0.0, 0.0, 0.0, 0.0, 1.6546755873757963E9, 0.0, 2022-06-08 10:06:27.375
179.0, 29160.510499538246, 28701.71859284861, -19907.93882703052, -17418.35682610951, 4209.593440245801, -2057.165152688641, 28765.711637224154, 2738.6921928754086, -0.044, 0.974, 0.32, 192.0, 0.0, 0.0, 0.0, 0.0, 0.0, 0.0, 0.0, 0.0, 0.0, 1.6546755873758023E9, 0.0, 2022-06-08 10:06:27.375
180.0, 29173.452159577868, 28712.6262441428, -19892.94080650101, -17408.87968646046, 4231.7887224899205, -2033.8522832217554, 28733.34631125287, 2753.01966107126, -0.044, 0.974, 0.32, 192.0, 0.0, 0.0, 0.0, 0.0, 0.0, 0.0, 0.0, 0.0, 0.0, 1.654675587375808E9, 0.0, 2022-06-08 10:06:27.375
181.0, 29157.24714484777, 28694.476627645094, -19917.281856212838, -17448.486977635264, 4216.45542579358, -2042.5918153037805, 28747.53966898199, 2760.999233841805, -0.044, 0.974, 0.32, 192.0, 0.0, 0.0, 0.0, 0.0, 0.0, 0.0, 0.0, 0.0, 0.0, 1.6546755873758135E9, 0.0, 2022-06-08 10:06:27.375
182.0, 29151.77096745622, 28695.862435801322, -19935.56558317728, -17440.59681184254, 4198.194050573594, -2053.2759491534175, 28778.049800163484, 2756.6629954174755, -0.044, 0.974, 0.32, 192.0, 0.0, 0.0, 0.0, 0.0, 0.0, 0.0, 0.0, 0.0, 0.0, 1.6546755873758197E9, 0.0, 2022-06-08 10:06:27.375
183.0, 29160.644610004976, 28701.740944593068, -19922.579219648745, -17447.011762501214, 4208.185280345116, -2027.616146518725, 28783.883605466322, 2762.1391728090257, -0.044, 0.974, 0.32, 192.0, 0.0, 0.0, 0.0, 0.0, 0.0, 0.0, 0.0, 0.0, 0.0, 1.6546755873758252E9, 0.0, 2022-06-08 10:06:27.375
184.0, 29162.835080961595, 28698.49994164705, -19907.46944039696, -17413.171221395878, 4217.014219404962, -2036.8250652343113, 28751.898259150777, 2755.4336494724334, -0.044, 0.974, 0.32, 192.0, 0.0, 0.0, 0.0, 0.0, 0.0, 0.0, 0.0, 0.0, 0.0, 1.654675587375831E9, 0.0, 2022-06-08 10:06:27.375
185.0, 29160.465796049335, 28691.325031676894, -19902.641463594613, -17385.097430360012, 4227.340725343314, -2045.542245571881, 28723.95857858164, 2745.442419700911, -0.05, 0.974, 0.316, 192.0, 254.0, 112.0, 30.0, 112.0, 9.0, 224.0, 0.0, 0.0, 0.0, 1.6546755873758368E9, 0.0, 2022-06-08 10:06:27.375
186.0, 29164.176185628916, 28695.34834567885, -19904.742527573413, -17409.706701005307, 4230.782893989432, -2045.7434112719789, 28736.654369432257, 2756.841809373118, -0.05, 0.974, 0.316, 192.0, 0.0, 0.0, 0.0, 0.0, 0.0, 0.0, 0.0, 0.0, 0.0, 1.6546755873758426E9, 0.0, 2022-06-08 10:06:27.375
187.0, 29152.843851190075, 28695.415400912214, -19924.12149001616, -17434.472433861785, 4214.622582748244, -2055.5558270878587, 28775.009962917564, 2752.7737918822518, -0.05, 0.974, 0.316, 192.0, 0.0, 0.0, 0.0, 0.0, 0.0, 0.0, 0.0, 0.0, 0.0, 1.6546755873758483E9, 0.0, 2022-06-08 10:06:27.375
188.0, 29139.499859750256, 28681.758485050024, -19931.922248831066, -17443.860166533013, 4202.2620680644595, -2072.1631732181518, 28786.498759567592, 2740.1674080094585, -0.05, 0.974, 0.316, 192.0, 0.0, 0.0, 0.0, 0.0, 0.0, 0.0, 0.0, 0.0, 0.0, 1.654675587375854E9, 0.0, 2022-06-08 10:06:27.375
189.0, 29155.883688435995, 28689.715706076113, -19904.161382217575, -17430.158547181913, 4222.959783430074, -2053.544170086881, 28757.8885266648, 2751.700908148397, -0.05, 0.974, 0.316, 192.0, 0.0, 0.0, 0.0, 0.0, 0.0, 0.0, 0.0, 0.0, 0.0, 1.6546755873758597E9, 0.0, 2022-06-08 10:06:27.375
190.0, 29169.562956042646, 28698.47758990259, -19885.050640708287, -17410.53371555015, 4240.975289461051, -2034.8357599777892, 28725.8808286048, 2754.7854488832295, -0.05, 0.974, 0.316, 192.0, 0.0, 0.0, 0.0, 0.0, 0.0, 0.0, 0.0, 0.0, 0.0, 1.6546755873758657E9, 0.0, 2022-06-08 10:06:27.375
191.0, 29164.757330984754, 28694.9236625342, -19893.99133849041, -17399.424898555862, 4237.957803959585, -2026.453855807049, 28743.31518927994, 2773.6503212035086, -0.05, 0.974, 0.316, 192.0, 0.0, 0.0, 0.0, 0.0, 0.0, 0.0, 0.0, 0.0, 0.0, 1.6546755873758717E9, 0.0, 2022-06-08 10:06:27.375
192.0, 29146.227734831304, 28683.032534483977, -19920.679321370044, -17435.098282706535, 4217.707123483076, -2045.676356038613, 28780.530843798024, 2775.438460759933, -0.05, 0.974, 0.316, 192.0, 0.0, 0.0, 0.0, 0.0, 0.0, 0.0, 0.0, 0.0, 0.0, 1.6546755873758793E9, 0.0, 2022-06-08 10:06:27.375
193.0, 29124.43478398738, 28662.7147987741, -19934.403292465602, -17472.35864071353, 4201.412701775158, -2043.7988095043672, 28792.578434059436, 2752.907902348984, -0.05, 0.974, 0.316, 192.0, 0.0, 0.0, 0.0, 0.0, 0.0, 0.0, 0.0, 0.0, 0.0, 1.6546755873758855E9, 0.0, 2022-06-08 10:06:27.375
194.0, 29126.37938575499, 28657.484490571558, -19917.773594590857, -17432.147852438433, 4207.73824545601, -2055.578178832314, 28759.631962732314, 2735.764114351763, -0.05, 0.974, 0.316, 192.0, 0.0, 0.0, 0.0, 0.0, 0.0, 0.0, 0.0, 0.0, 0.0, 1.6546755873758912E9, 0.0, 2022-06-08 10:06:27.375
195.0, 29153.693217479376, 28674.29300240195, -19877.49575108239, -17394.1051833755, 4237.801341748398, -2036.1098094117415, 28723.35508148135, 2758.6523006739976, -0.038, 0.978, 0.312, 192.0, 254.0, 208.0, 30.0, 144.0, 9.0, 192.0, 0.0, 0.0, 0.0, 1.654675587375897E9, 0.0, 2022-06-08 10:06:27.375
196.0, 29131.319121279616, 28653.707045758612, -19898.551094359293, -17425.35292212402, 4230.894652711708, -2042.1894839035851, 28741.6835119347, 2765.715451921875, -0.038, 0.978, 0.312, 192.0, 0.0, 0.0, 0.0, 0.0, 0.0, 0.0, 0.0, 0.0, 0.0, 1.654675587375903E9, 0.0, 2022-06-08 10:06:27.375
197.0, 29109.52617043569, 28623.06280411039, -19936.347894233215, -17461.473341163797, 4200.2057075745715, -2072.7219668295347, 28781.06728566495, 2747.2752627462464, -0.038, 0.978, 0.312, 192.0, 0.0, 0.0, 0.0, 0.0, 0.0, 0.0, 0.0, 0.0, 0.0, 1.6546755873759089E9, 0.0, 2022-06-08 10:06:27.375
198.0, 29119.4726967183, 28610.94815861561, -19939.454786712504, -17457.58413762857, 4190.437995247602, -2078.488716899004, 28781.715486254157, 2735.3394312071123, -0.038, 0.978, 0.312, 192.0, 0.0, 0.0, 0.0, 0.0, 0.0, 0.0, 0.0, 0.0, 0.0, 1.6546755873759155E9, 0.0, 2022-06-08 10:06:27.375
199.0, 29134.224848058802, 28631.109432114295, -19914.309074200282, -17436.417035629398, 4209.615791990255, -2061.2331701795065, 28755.429834774714, 2739.16157950897, -0.038, 0.978, 0.312, 192.0, 0.0, 0.0, 0.0, 0.0, 0.0, 0.0, 0.0, 0.0, 0.0, 1.6546755873759212E9, 0.0, 2022-06-08 10:06:27.375
200.0, 29119.316234507114, 28621.05114710941, -19905.815411307267, -17435.679428062373, 4224.613812519767, -2042.5918153037805, 28733.659235675244, 2746.671765645953, -0.038, 0.978, 0.312, 192.0, 0.0, 0.0, 0.0, 0.0, 0.0, 0.0, 0.0, 0.0, 0.0, 1.654675587375927E9, 0.0, 2022-06-08 10:06:27.375
201.0, 29089.968394037296, 28596.75480088649, -19930.581144163745, -17465.720172610305, 4207.179451844627, -2051.3760508747164, 28745.751529425568, 2750.7844866257296, -0.038, 0.978, 0.312, 192.0, 0.0, 0.0, 0.0, 0.0, 0.0, 0.0, 0.0, 0.0, 0.0, 1.6546755873759327E9, 0.0, 2022-06-08 10:06:27.375
202.0, 29063.4592251133, 28573.218413975053, -19941.868775113675, -17417.954494709313, 4201.5915157308, -2064.161248703152, 28779.860291464367, 2754.673690160953, -0.038, 0.978, 0.312, 192.0, 0.0, 0.0, 0.0, 0.0, 0.0, 0.0, 0.0, 0.0, 0.0, 1.6546755873759384E9, 0.0, 2022-06-08 10:06:27.375
203.0, 29035.161916632882, 28538.99789321398, -19959.48194974446, -17445.804768300626, 4186.660550434655, -2078.0640337543527, 28793.137227670817, 2744.816570856163, -0.038, 0.978, 0.312, 192.0, 0.0, 0.0, 0.0, 0.0, 0.0, 0.0, 0.0, 0.0, 0.0, 1.6546755873759444E9, 0.0, 2022-06-08 10:06:27.375
204.0, 29033.820811965565, 28524.15633489565, -19934.872679099164, -17434.83006177307, 4207.693541967099, -2061.993129490987, 28773.26652685005, 2737.999288797294, -0.038, 0.978, 0.312, 192.0, 0.0, 0.0, 0.0, 0.0, 0.0, 0.0, 0.0, 0.0, 0.0, 1.65467558737595E9, 0.0, 2022-06-08 10:06:27.375
205.0, 29047.433024338847, 28514.187456868585, -19905.994225262908, -17420.16731741039, 4244.46216159608, -2031.9076814541438, 28744.29866603597, 2750.963300581372, -0.024, 0.978, 0.314, 192.0, 255.0, 64.0, 30.0, 144.0, 9.0, 208.0, 0.0, 0.0, 0.0, 1.6546755873759634E9, 0.0, 2022-06-08 10:06:27.375
206.0, 29012.4972477552, 28486.761866421923, -19917.9524085465, -17427.40928261391, 4246.786743019431, -2025.4927307954706, 28760.12370111033, 2784.669731219975, -0.024, 0.978, 0.314, 192.0, 0.0, 0.0, 0.0, 0.0, 0.0, 0.0, 0.0, 0.0, 0.0, 1.6546755873759696E9, 0.0, 2022-06-08 10:06:27.375
207.0, 28960.663552363345, 28435.419909408083, -19963.61702246869, -17451.951498025835, 4206.68771346661, -2058.8638852672443, 28797.51816958406, 2768.7105856788858, -0.024, 0.978, 0.314, 192.0, 0.0, 0.0, 0.0, 0.0, 0.0, 0.0, 0.0, 0.0, 0.0, 1.6546755873759756E9, 0.0, 2022-06-08 10:06:27.375
208.0, 28961.132938996907, 28426.009824992398, -19946.406179238104, -17435.522965851185, 4217.796530460898, -2049.252635151462, 28799.909806240776, 2763.480277476344, -0.024, 0.978, 0.314, 192.0, 0.0, 0.0, 0.0, 0.0, 0.0, 0.0, 0.0, 0.0, 0.0, 1.654675587375981E9, 0.0, 2022-06-08 10:06:27.375
209.0, 28953.95802902675, 28409.804810262303, -19918.712367857977, -17407.58328528205, 4240.774123760953, -2030.1195418977193, 28767.231555847116, 2774.700853192908, -0.024, 0.978, 0.314, 192.0, 0.0, 0.0, 0.0, 0.0, 0.0, 0.0, 0.0, 0.0, 0.0, 1.654675587375987E9, 0.0, 2022-06-08 10:06:27.375
210.0, 28944.369130655425, 28387.65423150709, -19909.92813228704, -17404.364634080488, 4259.2590164254925, -2019.2118906035294, 28748.679607949212, 2782.2333910743464, -0.024, 0.978, 0.314, 192.0, 0.0, 0.0, 0.0, 0.0, 0.0, 0.0, 0.0, 0.0, 0.0, 1.6546755873759935E9, 0.0, 2022-06-08 10:06:27.375
211.0, 28933.461479361235, 28376.411304046072, -19915.27019921186, -17402.28592184614, 4265.338690917336, -2008.4607015205268, 28764.88462267931, 2803.869879707084, -0.024, 0.978, 0.314, 192.0, 0.0, 0.0, 0.0, 0.0, 0.0, 0.0, 0.0, 0.0, 0.0, 1.6546755873759992E9, 0.0, 2022-06-08 10:06:27.375
212.0, 28891.06022012952, 28345.834117631213, -19957.649106699122, -17440.999143242734, 4232.101646912294, -2035.7298297560014, 28805.833018521433, 2798.6842749934526, -0.024, 0.978, 0.314, 192.0, 0.0, 0.0, 0.0, 0.0, 0.0, 0.0, 0.0, 0.0, 0.0, 1.6546755873760047E9, 0.0, 2022-06-08 10:06:27.376
213.0, 28873.04471409854, 28324.667015632036, -19961.672420701077, -17451.370352669997, 4222.892728196708, -2044.067030437831, 28820.071079739464, 2787.418995787978, -0.024, 0.978, 0.314, 192.0, 0.0, 0.0, 0.0, 0.0, 0.0, 0.0, 0.0, 0.0, 0.0, 1.654675587376011E9, 0.0, 2022-06-08 10:06:27.376
214.0, 28881.560728736014, 28330.27730349032, -19935.56558317728, -17433.17603268338, 4243.545740073412, -2020.2177191040182, 28787.88456772382, 2796.382045314556, -0.024, 0.978, 0.314, 192.0, 0.0, 0.0, 0.0, 0.0, 0.0, 0.0, 0.0, 0.0, 0.0, 1.6546755873760185E9, 0.0, 2022-06-08 10:06:27.376
215.0, 28899.48682778917, 28343.554239696772, -19908.005882263886, -17422.536602322652, 4272.7594700764985, -1984.0749483197867, 28757.06151211995, 2825.4616648509104, -0.02, 0.982, 0.314, 192.0, 255.0, 96.0, 30.0, 176.0, 9.0, 208.0, 0.0, 0.0, 0.0, 1.6546755873760245E9, 0.0, 2022-06-08 10:06:27.376
216.0, 28895.75408646513, 28348.248106032384, -19914.28672245583, -17402.710604990792, 4268.758507818998, -1975.1789540265745, 28773.780616972523, 2846.762877316818, -0.02, 0.982, 0.314, 192.0, 0.0, 0.0, 0.0, 0.0, 0.0, 0.0, 0.0, 0.0, 0.0, 1.6546755873760302E9, 0.0, 2022-06-08 10:06:27.376
217.0, 28864.729865161167, 28334.21121051445, -19945.914440860088, -17399.737822978237, 4233.8450829798085, -2006.4043410306385, 28812.35972790238, 2836.1905021894577, -0.02, 0.982, 0.314, 192.0, 0.0, 0.0, 0.0, 0.0, 0.0, 0.0, 0.0, 0.0, 0.0, 1.654675587376036E9, 0.0, 2022-06-08 10:06:27.376
218.0, 28827.73772808763, 28304.17046596652, -19985.365269823706, -17457.11475099501, 4195.265972049949, -2034.8581117222443, 28818.349995416404, 2798.639571504542, -0.02, 0.982, 0.314, 192.0, 0.0, 0.0, 0.0, 0.0, 0.0, 0.0, 0.0, 0.0, 0.0, 1.6546755873760417E9, 0.0, 2022-06-08 10:06:27.376
219.0, 28851.05059755452, 28326.27634123282, -19955.123359575675, -17469.74348661226, 4204.161966343161, -2022.6093557607362, 28765.823395946434, 2784.937952153439, -0.02, 0.982, 0.314, 192.0, 0.0, 0.0, 0.0, 0.0, 0.0, 0.0, 0.0, 0.0, 0.0, 1.6546755873760474E9, 0.0, 2022-06-08 10:06:27.376
220.0, 28874.274060043583, 28349.23158278842, -19922.199239993006, -17398.284959588644, 4231.36403934527, -1998.2459543044515, 28718.035366300985, 2796.6502662480198, -0.02, 0.982, 0.314, 192.0, 0.0, 0.0, 0.0, 0.0, 0.0, 0.0, 0.0, 0.0, 0.0, 1.654675587376053E9, 0.0, 2022-06-08 10:06:27.376
221.0, 28871.90477513132, 28356.51825148085, -19934.09036804323, -17387.24319782772, 4228.257146865982, -2000.2799630498844, 28729.859439117845, 2818.756141514318, -0.02, 0.982, 0.314, 192.0, 0.0, 0.0, 0.0, 0.0, 0.0, 0.0, 0.0, 0.0, 0.0, 1.6546755873760593E9, 0.0, 2022-06-08 10:06:27.376
222.0, 28836.23139098065, 28340.626161173128, -19978.302118575826, -17437.624029829985, 4188.694559180089, -2011.321724810806, 28782.967183943652, 2829.6861445529635, -0.02, 0.982, 0.314, 192.0, 0.0, 0.0, 0.0, 0.0, 0.0, 0.0, 0.0, 0.0, 0.0, 1.6546755873760676E9, 0.0, 2022-06-08 10:06:27.376
223.0, 28830.7552135891, 28339.061539061255, -19993.724822249987, -17452.331477681575, 4170.589646171289, -2035.707478011546, 28801.98851847512, 2811.6259350330756, -0.02, 0.982, 0.314, 192.0, 0.0, 0.0, 0.0, 0.0, 0.0, 0.0, 0.0, 0.0, 0.0, 1.6546755873760738E9, 0.0, 2022-06-08 10:06:27.376
224.0, 28867.18855705125, 28377.95357441349, -19955.346877020227, -17425.35292212402, 4201.122129097239, -2001.196384572552, 28770.316096581948, 2817.2585746358127, -0.02, 0.982, 0.314, 192.0, 0.0, 0.0, 0.0, 0.0, 0.0, 0.0, 0.0, 0.0, 0.0, 1.6546755873760793E9, 0.0, 2022-06-08 10:06:27.376
225.0, 28885.9193189048, 28395.410286833085, -19930.75995811939, -17395.334529320542, 4212.745036213999, -1969.9933493129433, 28736.050872331965, 2822.3324206271677, -0.028, 0.982, 0.31, 192.0, 255.0, 32.0, 30.0, 176.0, 9.0, 176.0, 0.0, 0.0, 0.0, 1.6546755873760853E9, 0.0, 2022-06-08 10:06:27.376
226.0, 28885.852263671433, 28397.51135081188, -19942.762844891888, -17415.942837708335, 4214.376713559236, -1986.0419018318537, 28746.667950948235, 2807.5132140532987, -0.028, 0.982, 0.31, 192.0, 0.0, 0.0, 0.0, 0.0, 0.0, 0.0, 0.0, 0.0, 0.0, 1.654675587376091E9, 0.0, 2022-06-08 10:06:27.376
227.0, 28877.67152520079, 28401.71347876948, -19960.398371267125, -17430.806747771116, 4210.68867572411, -2003.7444834404569, 28792.824303248442, 2835.8552260226284, -0.028, 0.982, 0.31, 192.0, 0.0, 0.0, 0.0, 0.0, 0.0, 0.0, 0.0, 0.0, 0.0, 1.6546755873760977E9, 0.0, 2022-06-08 10:06:27.376
228.0, 28874.43052225477, 28405.915606727078, -19978.123304620185, -17438.607506586017, 4180.916152109641, -2017.4461027915602, 28797.875797495344, 2836.972813245394, -0.028, 0.982, 0.31, 192.0, 0.0, 0.0, 0.0, 0.0, 0.0, 0.0, 0.0, 0.0, 0.0, 1.6546755873761032E9, 0.0, 2022-06-08 10:06:27.376
229.0, 28894.90472017583, 28428.893200027134, -19959.459598, -17412.4112620844, 4187.6887306796, -2008.3265910537948, 28751.630038217314, 2825.1040369396255, -0.028, 0.982, 0.31, 192.0, 0.0, 0.0, 0.0, 0.0, 0.0, 0.0, 0.0, 0.0, 0.0, 1.6546755873761091E9, 0.0, 2022-06-08 10:06:27.376
230.0, 28912.29437736206, 28445.567601390794, -19936.66081865559, -17408.030320171158, 4208.028818133929, -1979.5375441953595, 28714.414383699226, 2846.89698778355, -0.028, 0.982, 0.31, 192.0, 0.0, 0.0, 0.0, 0.0, 0.0, 0.0, 0.0, 0.0, 0.0, 1.6546755873761148E9, 0.0, 2022-06-08 10:06:27.376
231.0, 28918.06112743153, 28465.371246978197, -19950.988286851443, -17418.289770876145, 4198.998713373985, -1987.8300413882782, 28732.139317052286, 2837.866883023606, -0.028, 0.982, 0.31, 192.0, 0.0, 0.0, 0.0, 0.0, 0.0, 0.0, 0.0, 0.0, 0.0, 1.6546755873761206E9, 0.0, 2022-06-08 10:06:27.376
232.0, 28907.131124392883, 28462.24200275445, -19975.686964474557, -17423.609486056506, 4175.484678207002, -2021.2458993489624, 28781.51432055406, 2820.70074328193, -0.028, 0.982, 0.31, 192.0, 0.0, 0.0, 0.0, 0.0, 0.0, 0.0, 0.0, 0.0, 0.0, 1.6546755873761263E9, 0.0, 2022-06-08 10:06:27.376
233.0, 28918.262293131625, 28475.54129070536, -19975.865778430198, -17433.891288505947, 4176.266989262937, -2023.1457976276636, 28807.732916800134, 2812.2070803889133, -0.028, 0.982, 0.31, 192.0, 0.0, 0.0, 0.0, 0.0, 0.0, 0.0, 0.0, 0.0, 0.0, 1.6546755873761327E9, 0.0, 2022-06-08 10:06:27.376
234.0, 28938.9823602417, 28494.78614268138, -19959.14667357763, -17419.474413332275, 4185.833535889809, -2011.3664282997167, 28773.93707918371, 2810.2401268768463, -0.028, 0.982, 0.31, 192.0, 0.0, 0.0, 0.0, 0.0, 0.0, 0.0, 0.0, 0.0, 0.0, 1.6546755873761387E9, 0.0, 2022-06-08 10:06:27.376
235.0, 28987.26212826516, 28532.02414894392, -19914.26437071137, -17375.95556687779, 4227.161911387671, -1969.0545760458203, 28725.702014649156, 2844.9076825270276, -0.03, 0.982, 0.318, 192.0, 255.0, 16.0, 30.0, 176.0, 9.0, 240.0, 0.0, 0.0, 0.0, 1.6546755873761492E9, 0.0, 2022-06-08 10:06:27.376
236.0, 28998.54975921509, 28543.0882624493, -19915.806641078787, -17395.78156420965, 4233.487455068524, -1961.7679073533902, 28734.486250220092, 2876.3789387201, -0.03, 0.982, 0.318, 192.0, 0.0, 0.0, 0.0, 0.0, 0.0, 0.0, 0.0, 0.0, 0.0, 1.654675587376155E9, 0.0, 2022-06-08 10:06:27.376
237.0, 28984.758732886166, 28535.399262356674, -19944.28276351485, -17469.251748234245, 4215.471949037546, -1984.5890384422587, 28780.732009498122, 2864.219589736413, -0.03, 0.982, 0.318, 192.0, 0.0, 0.0, 0.0, 0.0, 0.0, 0.0, 0.0, 0.0, 0.0, 1.6546755873761606E9, 0.0, 2022-06-08 10:06:27.376
238.0, 28973.158177513862, 28522.055270916855, -19964.265223057893, -17418.06625343159, 4187.219344046038, -2015.9261841685993, 28806.525922599547, 2829.149702686036, -0.03, 0.982, 0.318, 192.0, 0.0, 0.0, 0.0, 0.0, 0.0, 0.0, 0.0, 0.0, 0.0, 1.6546755873761668E9, 0.0, 2022-06-08 10:06:27.376
239.0, 29010.329128543035, 28558.108634723263, -19925.507298172393, -17370.524092975153, 4213.5944025033, -1995.0273031028871, 28771.545442526993, 2822.064199693704, -0.03, 0.982, 0.318, 192.0, 0.0, 0.0, 0.0, 0.0, 0.0, 0.0, 0.0, 0.0, 0.0, 1.6546755873761728E9, 0.0, 2022-06-08 10:06:27.376
240.0, 29037.955884689796, 28577.97933554403, -19906.03892875182, -17365.651412683896, 4240.818827249865, -1978.710529650513, 28733.0333868305, 2831.116656198103, -0.03, 0.982, 0.318, 192.0, 0.0, 0.0, 0.0, 0.0, 0.0, 0.0, 0.0, 0.0, 0.0, 1.6546755873761785E9, 0.0, 2022-06-08 10:06:27.376
241.0, 29042.13566090294, 28581.55561465688, -19908.4976206419, -17378.347203534508, 4245.177417418649, -1973.0778900477756, 28750.221878316628, 2848.640423851064, -0.03, 0.982, 0.318, 192.0, 0.0, 0.0, 0.0, 0.0, 0.0, 0.0, 0.0, 0.0, 0.0, 1.6546755878518617E9, 0.0, 2022-06-08 10:06:27.851
242.0, 29034.26784685467, 28577.688762866113, -19938.18073727855, -17421.419015099887, 4219.137635128216, -1996.480166492482, 28793.539559071014, 2846.472304638899, -0.03, 0.982, 0.318, 192.0, 0.0, 0.0, 0.0, 0.0, 0.0, 0.0, 0.0, 0.0, 0.0, 1.654675587851925E9, 0.0, 2022-06-08 10:06:27.851
243.0, 29016.40880303488, 28557.236916689508, -19967.774446937376, -17451.146835225445, 4186.2358672900045, -2024.933937184088, 28809.789277290023, 2810.016609432293, -0.03, 0.982, 0.318, 192.0, 0.0, 0.0, 0.0, 0.0, 0.0, 0.0, 0.0, 0.0, 0.0, 1.6546755878520763E9, 0.0, 2022-06-08 10:06:27.852
244.0, 29014.106573355984, 28554.688817821603, -19960.554833478313, -17420.480241832764, 4179.798564886876, -2032.2206058765182, 28774.9429076842, 2782.859239919095, -0.03, 0.982, 0.318, 192.0, 0.0, 0.0, 0.0, 0.0, 0.0, 0.0, 0.0, 0.0, 0.0, 1.6546755878520875E9, 0.0, 2022-06-08 10:06:27.852
245.0, 29055.211431409294, 28590.876292094745, -19917.728891101946, -17386.572645494063, 4223.339763085814, -1988.7241111664905, 28733.480421719603, 2803.869879707084, -0.05, 0.968, 0.324, 192.0, 254.0, 112.0, 30.0, 64.0, 10.0, 32.0, 0.0, 0.0, 0.0, 1.6546755878520975E9, 0.0, 2022-06-08 10:06:27.852
246.0, 29064.08507395805, 28600.487542210525, -19928.547135418314, -17415.719320263783, 4222.669210752155, -1993.7532536689346, 28736.184982798695, 2809.1448913985364, -0.05, 0.968, 0.324, 192.0, 0.0, 0.0, 0.0, 0.0, 0.0, 0.0, 0.0, 0.0, 0.0, 1.6546755878521063E9, 0.0, 2022-06-08 10:06:27.852
247.0, 29034.98310267724, 28576.146492498698, -19972.714182462, -17439.92625950888, 4180.849096876275, -2024.2633848504288, 28771.567794271446, 2787.284885321246, -0.05, 0.968, 0.324, 192.0, 0.0, 0.0, 0.0, 0.0, 0.0, 0.0, 0.0, 0.0, 0.0, 1.6546755878521159E9, 0.0, 2022-06-08 10:06:27.852
248.0, 29038.358216089993, 28581.89089082371, -19973.67530747358, -17437.847547274538, 4169.673224648622, -2020.9776784154988, 28792.153750914786, 2781.02639687376, -0.05, 0.968, 0.324, 192.0, 0.0, 0.0, 0.0, 0.0, 0.0, 0.0, 0.0, 0.0, 0.0, 1.6546755878521252E9, 0.0, 2022-06-08 10:06:27.852
249.0, 29073.741027562744, 28617.29605404092, -19931.74343487542, -17409.30436960511, 4200.339818041303, -2007.1643003421188, 28764.6387534903, 2789.900039422517, -0.05, 0.968, 0.324, 192.0, 0.0, 0.0, 0.0, 0.0, 0.0, 0.0, 0.0, 0.0, 0.0, 1.654675587852134E9, 0.0, 2022-06-08 10:06:27.852
250.0, 29116.81283912812, 28656.56806904889, -19885.69884129749, -17382.102296603, 4243.07635343985, -1974.1060702927198, 28721.477534947102, 2812.8105774892065, -0.05, 0.968, 0.324, 192.0, 0.0, 0.0, 0.0, 0.0, 0.0, 0.0, 0.0, 0.0, 0.0, 1.6546755878521433E9, 0.0, 2022-06-08 10:06:27.852
251.0, 29106.08400178957, 28648.186164878152, -19904.98839676242, -17421.173145910878, 4227.676001510144, -1991.518079223404, 28736.609665943346, 2818.51027232531, -0.05, 0.968, 0.324, 192.0, 0.0, 0.0, 0.0, 0.0, 0.0, 0.0, 0.0, 0.0, 0.0, 1.654675587852152E9, 0.0, 2022-06-08 10:06:27.852
252.0, 29081.541786377646, 28632.964626904086, -19943.880432114653, -17402.48708754624, 4189.387463258203, -2025.8280069623004, 28781.73783799861, 2788.8495074331177, -0.05, 0.968, 0.324, 192.0, 0.0, 0.0, 0.0, 0.0, 0.0, 0.0, 0.0, 0.0, 0.0, 1.6546755878521616E9, 0.0, 2022-06-08 10:06:27.852
253.0, 29076.780864808665, 28632.875219926267, -19957.358534021205, -17437.132291451966, 4164.599378657267, -2039.7978472468671, 28795.528864327534, 2775.9525508824054, -0.05, 0.968, 0.324, 192.0, 0.0, 0.0, 0.0, 0.0, 0.0, 0.0, 0.0, 0.0, 0.0, 1.654675587852171E9, 0.0, 2022-06-08 10:06:27.852
254.0, 29098.082077274572, 28649.035531167454, -19932.212821508983, -17423.095395934033, 4173.003634572463, -2018.518986525415, 28755.720407452634, 2761.468620475366, -0.05, 0.968, 0.324, 192.0, 0.0, 0.0, 0.0, 0.0, 0.0, 0.0, 0.0, 0.0, 0.0, 1.6546755878521805E9, 0.0, 2022-06-08 10:06:27.852
255.0, 29117.885722861975, 28662.96066796311, -19905.61424560717, -17404.319930591577, 4199.892783152197, -1989.0146838444095, 28714.9284738217, 2776.0419578602264, -0.074, 0.96, 0.322, 192.0, 253.0, 176.0, 30.0, 0.0, 10.0, 16.0, 0.0, 0.0, 0.0, 1.6546755878521895E9, 0.0, 2022-06-08 10:06:27.852
0.0, 29109.61557741351, 28658.80324349442, -19920.18758299203, -17401.280093345653, 4192.583762715311, -1987.0477303323426, 28726.663139660734, 2804.31691459619, -0.074, 0.96, 0.322, 192.0, 0.0, 0.0, 0.0, 0.0, 0.0, 0.0, 0.0, 0.0, 0.0, 1.6546755878522089E9, 0.0, 2022-06-08 10:06:27.852
1.0, 29106.754554123232, 28662.737150518555, -19937.823109367266, -17427.11870993599, 4181.698463165577, -1993.4626809910158, 28782.07311416544, 2825.998106717838, -0.074, 0.96, 0.322, 192.0, 0.0, 0.0, 0.0, 0.0, 0.0, 0.0, 0.0, 0.0, 0.0, 1.654675587852218E9, 0.0, 2022-06-08 10:06:27.852
2.0, 29081.318268933093, 28641.39123456374, -19970.590766738747, -17464.93786155437, 4144.214587714027, -2029.3372308417836, 28805.27422491005, 2786.167298098481, -0.074, 0.96, 0.322, 192.0, 0.0, 0.0, 0.0, 0.0, 0.0, 0.0, 0.0, 0.0, 0.0, 1.6546755878522272E9, 0.0, 2022-06-08 10:06:27.852
3.0, 29124.501839220746, 28677.846929770345, -19915.605475378692, -17417.574515053573, 4181.8996288656745, -1994.6026199582363, 28766.98568665811, 2780.8475829181175, -0.074, 0.96, 0.322, 192.0, 0.0, 0.0, 0.0, 0.0, 0.0, 0.0, 0.0, 0.0, 0.0, 1.6546755878522358E9, 0.0, 2022-06-08 10:06:27.852
4.0, 29155.704874480354, 28705.20546498364, -19881.072030195242, -17406.130421892456, 4208.922887912141, -1975.0224918153874, 28726.59608442737, 2784.513269008788, -0.074, 0.96, 0.322, 192.0, 0.0, 0.0, 0.0, 0.0, 0.0, 0.0, 0.0, 0.0, 0.0, 1.6546755878522449E9, 0.0, 2022-06-08 10:06:27.852
5.0, 29163.416226317433, 28709.54170340797, -19883.26250115186, -17401.369500323475, 4206.508899510968, -1978.5764191837811, 28738.666026433235, 2790.0788533781592, -0.074, 0.96, 0.322, 192.0, 0.0, 0.0, 0.0, 0.0, 0.0, 0.0, 0.0, 0.0, 0.0, 1.6546755878522534E9, 0.0, 2022-06-08 10:06:27.852
6.0, 29158.565897770633, 28705.54074115047, -19904.094326984206, -17421.977808711268, 4191.443823748091, -2000.615239216714, 28787.057553178973, 2804.7192459963853, -0.074, 0.96, 0.322, 192.0, 0.0, 0.0, 0.0, 0.0, 0.0, 0.0, 0.0, 0.0, 0.0, 1.6546755878522615E9, 0.0, 2022-06-08 10:06:27.852
7.0, 29143.791394685675, 28693.33668867787, -19924.881449327644, -17444.106035722023, 4155.636329130689, -2027.906719196644, 28805.60950107688, 2775.6172747155756, -0.074, 0.96, 0.322, 192.0, 0.0, 0.0, 0.0, 0.0, 0.0, 0.0, 0.0, 0.0, 0.0, 1.6546755878522692E9, 0.0, 2022-06-08 10:06:27.852
8.0, 29157.113034381036, 28701.405668426236, -19900.249826937896, -17408.87968646046, 4160.687823377589, -2024.35279182825, 28762.269468578037, 2738.938062064417, -0.10200000000000001, 0.9500000000000001, 0.334, 192.0, 252.0, 208.0, 29.0, 176.0, 10.0, 112.0, 0.0, 0.0, 0.0, 1.654675587852276E9, 0.0, 2022-06-08 10:06:27.852
9.0, 29199.626052335032, 28740.856497389854, -19850.56189901375, -17377.408430267387, 4205.100739610283, -1980.1186895511973, 28717.051889544953, 2768.1070885785925, -0.10200000000000001, 0.9500000000000001, 0.334, 192.0, 0.0, 0.0, 0.0, 0.0, 0.0, 0.0, 0.0, 0.0, 0.0, 1.6546755878522832E9, 0.0, 2022-06-08 10:06:27.852
10.0, 29181.007049203763, 28725.746718138067, -19877.562806315756, -17410.48901206124, 4181.519649209935, -1987.7629861549124, 28718.504752934547, 2779.6852922064418, -0.10200000000000001, 0.9500000000000001, 0.334, 192.0, 0.0, 0.0, 0.0, 0.0, 0.0, 0.0, 0.0, 0.0, 0.0, 1.6546755878522904E9, 0.0, 2022-06-08 10:06:27.852
11.0, 29172.781607244207, 28724.91970359322, -19900.182771704527, -17468.469437178308, 4161.023099544418, -1989.1711460555966, 28759.11787260984, 2796.158527870003, -0.10200000000000001, 0.9500000000000001, 0.334, 192.0, 0.0, 0.0, 0.0, 0.0, 0.0, 0.0, 0.0, 0.0, 0.0, 1.6546755878522985E9, 0.0, 2022-06-08 10:06:27.852
12.0, 29148.23939183228, 28704.914892305722, -19930.223516252463, -17467.50831216673, 4131.362334652225, -2021.0447336488646, 28773.244175105596, 2763.5920361986205, -0.10200000000000001, 0.9500000000000001, 0.334, 192.0, 0.0, 0.0, 0.0, 0.0, 0.0, 0.0, 0.0, 0.0, 0.0, 1.654675587852306E9, 0.0, 2022-06-08 10:06:27.852
13.0, 29157.984752414795, 28712.894465076264, -19910.352815431692, -17405.929256192358, 4139.900701034153, -2009.354771298739, 28730.10530830685, 2729.259756715269, -0.10200000000000001, 0.9500000000000001, 0.334, 192.0, 0.0, 0.0, 0.0, 0.0, 0.0, 0.0, 0.0, 0.0, 0.0, 1.6546755878523135E9, 0.0, 2022-06-08 10:06:27.852
14.0, 29202.174151202937, 28751.898259150777, -19856.038076405297, -17376.492008744717, 4193.9248673826305, -1950.681442103558, 28685.223005440595, 2775.796088671218, -0.10200000000000001, 0.9500000000000001, 0.334, 192.0, 0.0, 0.0, 0.0, 0.0, 0.0, 0.0, 0.0, 0.0, 0.0, 1.6546755878523211E9, 0.0, 2022-06-08 10:06:27.852
15.0, 29187.31024114016, 28739.06835783343, -19881.36260287316, -17412.34420685103, 4179.619750931233, -1975.4248232155828, 28696.689450346166, 2792.9175249239834, -0.10200000000000001, 0.9500000000000001, 0.334, 192.0, 0.0, 0.0, 0.0, 0.0, 0.0, 0.0, 0.0, 0.0, 0.0, 1.654675587852329E9, 0.0, 2022-06-08 10:06:27.852
16.0, 29177.5872323021, 28740.40946250075, -19902.37324266115, -17446.02828574518, 4161.470134433524, -1989.4393669890603, 28739.895372378276, 2783.0380538747377, -0.10200000000000001, 0.9500000000000001, 0.334, 192.0, 0.0, 0.0, 0.0, 0.0, 0.0, 0.0, 0.0, 0.0, 0.0, 1.6546755878523366E9, 0.0, 2022-06-08 10:06:27.852
17.0, 29156.375426814015, 28723.042157058975, -19928.7035976295, -17469.49761742325, 4127.093151461262, -2015.032114390387, 28754.5357649965, 2752.907902348984, -0.10200000000000001, 0.9500000000000001, 0.334, 192.0, 0.0, 0.0, 0.0, 0.0, 0.0, 0.0, 0.0, 0.0, 0.0, 1.6546755878523445E9, 0.0, 2022-06-08 10:06:27.852
18.0, 29164.69027575139, 28729.54651469547, -19910.956312531987, -17458.478207406784, 4128.456607873036, -2012.3499050557502, 28712.335671464883, 2727.2704514587467, -0.14, 0.9560000000000001, 0.34, 192.0, 251.0, 160.0, 29.0, 224.0, 10.0, 160.0, 0.0, 0.0, 0.0, 1.654675587852352E9, 0.0, 2022-06-08 10:06:27.852
19.0, 29201.01186049126, 28761.21893658864, -19866.856320721665, -17423.654189545417, 4169.047375803873, -1976.6094656717141, 28671.834310511866, 2752.25970175978, -0.14, 0.9560000000000001, 0.34, 192.0, 0.0, 0.0, 0.0, 0.0, 0.0, 0.0, 0.0, 0.0, 0.0, 1.6546755878523598E9, 0.0, 2022-06-08 10:06:27.852
20.0, 29196.29564241119, 28759.229631332117, -19871.863111479655, -17437.288753663153, 4172.981282828007, -1974.7989743708342, 28673.175415179187, 2769.1352688235365, -0.14, 0.9560000000000001, 0.34, 192.0, 0.0, 0.0, 0.0, 0.0, 0.0, 0.0, 0.0, 0.0, 0.0, 1.6546755878523676E9, 0.0, 2022-06-08 10:06:27.852
21.0, 29180.358848614556, 28755.11691035234, -19896.114754213664, -17468.380030200486, 4153.289395962882, -1985.3713494981946, 28711.955691809144, 2770.901056635506, -0.14, 0.9560000000000001, 0.34, 192.0, 0.0, 0.0, 0.0, 0.0, 0.0, 0.0, 0.0, 0.0, 0.0, 1.6546755878523753E9, 0.0, 2022-06-08 10:06:27.852
22.0, 29172.69220026639, 28746.757357926057, -19902.46264963897, -17451.102131736534, 4141.130046979195, -2005.8678991637112, 28731.625226929813, 2763.4355739874336, -0.14, 0.9560000000000001, 0.34, 192.0, 0.0, 0.0, 0.0, 0.0, 0.0, 0.0, 0.0, 0.0, 0.0, 1.654675587852386E9, 0.0, 2022-06-08 10:06:27.852
23.0, 29196.608566833565, 28766.337486068904, -19873.584195802712, -17439.12159670849, 4156.709212864544, -1981.1468697961416, 28685.312412418418, 2761.781544897741, -0.14, 0.9560000000000001, 0.34, 192.0, 0.0, 0.0, 0.0, 0.0, 0.0, 0.0, 0.0, 0.0, 0.0, 1.6546755878523936E9, 0.0, 2022-06-08 10:06:27.852
24.0, 29231.343177717114, 28798.769867273557, -19831.987599371387, -17399.514305533685, 4194.7518819274765, -1940.712564076491, 28629.76832744698, 2790.145908611525, -0.14, 0.9560000000000001, 0.34, 192.0, 0.0, 0.0, 0.0, 0.0, 0.0, 0.0, 0.0, 0.0, 0.0, 1.6546755878524013E9, 0.0, 2022-06-08 10:06:27.852
25.0, 29234.427718451945, 28801.60853881938, -19829.059520847743, -17389.277206573155, 4211.716855969054, -1936.8233605412677, 28639.066653140388, 2813.4140745895, -0.14, 0.9560000000000001, 0.34, 192.0, 0.0, 0.0, 0.0, 0.0, 0.0, 0.0, 0.0, 0.0, 0.0, 1.654675587852409E9, 0.0, 2022-06-08 10:06:27.852
26.0, 29203.895235525997, 28777.446303063192, -19879.26153889436, -17426.82813725807, 4167.907436836653, -1972.1391167806528, 28669.576784321882, 2792.1352138680477, -0.14, 0.9560000000000001, 0.34, 192.0, 0.0, 0.0, 0.0, 0.0, 0.0, 0.0, 0.0, 0.0, 0.0, 1.6546755878524168E9, 0.0, 2022-06-08 10:06:27.852
27.0, 29195.423924377435, 28770.36080007086, -19894.103097212686, -17468.603547645038, 4152.507084906946, -1990.1769745560855, 28674.67298205769, 2765.35782401059, -0.14, 0.9560000000000001, 0.34, 192.0, 0.0, 0.0, 0.0, 0.0, 0.0, 0.0, 0.0, 0.0, 0.0, 1.6546755878524249E9, 0.0, 2022-06-08 10:06:27.852
28.0, 29196.608566833565, 28768.773826214532, -19884.156570930074, -17441.267364176198, 4155.993957041974, -1991.6968931790464, 28635.5574292609, 2754.0701930606597, -0.148, 0.96, 0.34400000000000003, 192.0, 251.0, 96.0, 30.0, 0.0, 10.0, 192.0, 0.0, 0.0, 0.0, 1.6546755878524325E9, 0.0, 2022-06-08 10:06:27.852
29.0, 29211.204255962883, 28780.352029842383, -19858.36265782865, -17405.97395968127, 4185.230038789516, -1961.812610842301, 28601.962757344576, 2769.1129170790814, -0.148, 0.96, 0.34400000000000003, 192.0, 0.0, 0.0, 0.0, 0.0, 0.0, 0.0, 0.0, 0.0, 0.0, 1.65467558785244E9, 0.0, 2022-06-08 10:06:27.852
30.0, 29196.832084278118, 28770.919593682243, -19871.617242290646, -17432.25961116071, 4180.692634665088, -1982.8232506302895, 28621.05114710941, 2776.377234027056, -0.148, 0.96, 0.34400000000000003, 192.0, 0.0, 0.0, 0.0, 0.0, 0.0, 0.0, 0.0, 0.0, 0.0, 1.6546755878524477E9, 0.0, 2022-06-08 10:06:27.852
31.0, 29182.258746893258, 28761.59891624438, -19899.981606004432, -17452.040905003658, 4154.228169230005, -2000.5034804944373, 28672.661325056713, 2776.667806704975, -0.148, 0.96, 0.34400000000000003, 192.0, 0.0, 0.0, 0.0, 0.0, 0.0, 0.0, 0.0, 0.0, 0.0, 1.6546755878524556E9, 0.0, 2022-06-08 10:06:27.852
32.0, 29178.503653824766, 28761.956544155666, -19912.520934643857, -17458.07587600659, 4140.683012090089, -2011.8134631888229, 28692.91200553322, 2756.1042018060925, -0.148, 0.96, 0.34400000000000003, 192.0, 0.0, 0.0, 0.0, 0.0, 0.0, 0.0, 0.0, 0.0, 0.0, 1.6546755878524635E9, 0.0, 2022-06-08 10:06:27.852
33.0, 29193.278156909724, 28768.55030876998, -19887.35287038718, -17416.278113875167, 4157.0668407758285, -1999.609410716225, 28653.170603891685, 2744.3471842226013, -0.148, 0.96, 0.34400000000000003, 192.0, 0.0, 0.0, 0.0, 0.0, 0.0, 0.0, 0.0, 0.0, 0.0, 1.654675587852471E9, 0.0, 2022-06-08 10:06:27.852
34.0, 29206.376279160533, 28771.232518104618, -19866.141064899097, -17411.628951028462, 4180.245599775983, -1980.1186895511973, 28601.04633582191, 2765.3354722661343, -0.148, 0.96, 0.34400000000000003, 192.0, 0.0, 0.0, 0.0, 0.0, 0.0, 0.0, 0.0, 0.0, 0.0, 1.6546755878524792E9, 0.0, 2022-06-08 10:06:27.852
35.0, 29207.762087316765, 28773.914727439253, -19877.808675504766, -17434.9641722398, 4182.100794565773, -1990.8251751452894, 28600.37578348825, 2747.901111590995, -0.148, 0.96, 0.34400000000000003, 192.0, 0.0, 0.0, 0.0, 0.0, 0.0, 0.0, 0.0, 0.0, 0.0, 1.654675587852487E9, 0.0, 2022-06-08 10:06:27.852
36.0, 29193.993412732296, 28762.515337767047, -19898.774611803845, -17440.865032776004, 4163.235922245493, -2004.5267944963928, 28640.027778151965, 2765.9166176219724, -0.148, 0.96, 0.34400000000000003, 192.0, 0.0, 0.0, 0.0, 0.0, 0.0, 0.0, 0.0, 0.0, 0.0, 1.6546755878524947E9, 0.0, 2022-06-08 10:06:27.852
37.0, 29176.35788635706, 28743.963389869143, -19916.007806778885, -17462.836797575572, 4141.5100266349355, -2008.0583701203311, 28674.225947168583, 2791.9787516568604, -0.148, 0.96, 0.34400000000000003, 192.0, 0.0, 0.0, 0.0, 0.0, 0.0, 0.0, 0.0, 0.0, 0.0, 1.6546755878525023E9, 0.0, 2022-06-08 10:06:27.852
38.0, 29192.518197598245, 28757.285029564504, -19889.208065176972, -17448.464625890807, 4157.223302987016, -1999.1176723382084, 28655.025798681476, 2778.545353239221, -0.146, 0.9500000000000001, 0.34800000000000003, 192.0, 251.0, 112.0, 29.0, 176.0, 10.0, 224.0, 0.0, 0.0, 0.0, 1.6546755878525107E9, 0.0, 2022-06-08 10:06:27.852
39.0, 29203.627014592534, 28764.41523604575, -19871.281966123817, -17406.733918992748, 4175.998768329474, -1987.7629861549124, 28608.645928936712, 2783.55214399721, -0.146, 0.9500000000000001, 0.34800000000000003, 192.0, 0.0, 0.0, 0.0, 0.0, 0.0, 0.0, 0.0, 0.0, 0.0, 1.6546755878525188E9, 0.0, 2022-06-08 10:06:27.852
40.0, 29215.384032176025, 28774.048837905986, -19866.20812013246, -17401.771831723672, 4192.136727826206, -1978.129384294675, 28601.26985326646, 2802.3052575952124, -0.146, 0.9500000000000001, 0.34800000000000003, 192.0, 0.0, 0.0, 0.0, 0.0, 0.0, 0.0, 0.0, 0.0, 0.0, 1.6546755878525264E9, 0.0, 2022-06-08 10:06:27.852
41.0, 29192.92052899844, 28759.654314476767, -19899.243998437407, -17438.428692630376, 4165.15817226865, -2003.6550764626356, 28646.62154276628, 2812.877632722573, -0.146, 0.9500000000000001, 0.34800000000000003, 192.0, 0.0, 0.0, 0.0, 0.0, 0.0, 0.0, 0.0, 0.0, 0.0, 1.654675587852534E9, 0.0, 2022-06-08 10:06:27.852
42.0, 29161.941011183386, 28729.904142606752, -19931.475213941958, -17481.83578036258, 4133.128122464195, -2040.1778269026074, 28671.38727562276, 2774.477335748355, -0.146, 0.9500000000000001, 0.34800000000000003, 192.0, 0.0, 0.0, 0.0, 0.0, 0.0, 0.0, 0.0, 0.0, 0.0, 1.654675587852542E9, 0.0, 2022-06-08 10:06:27.852
43.0, 29172.647496777477, 28735.335616509394, -19913.549114888803, -17500.18656256039, 4142.20293071305, -2027.8620157077332, 28638.150231617718, 2752.5279226932435, -0.146, 0.9500000000000001, 0.34800000000000003, 192.0, 0.0, 0.0, 0.0, 0.0, 0.0, 0.0, 0.0, 0.0, 0.0, 1.6546755878525548E9, 0.0, 2022-06-08 10:06:27.852
44.0, 29211.24895945179, 28769.891413437297, -19861.558957285757, -17384.87391291546, 4191.466175492546, -1982.6891401635578, 28594.832550863335, 2778.701815450408, -0.146, 0.9500000000000001, 0.34800000000000003, 192.0, 0.0, 0.0, 0.0, 0.0, 0.0, 0.0, 0.0, 0.0, 0.0, 1.6546755878525627E9, 0.0, 2022-06-08 10:06:27.852
45.0, 29212.25478795228, 28772.46186404966, -19867.54922479978, -17387.891398416927, 4195.847117405787, -1972.072061547287, 28596.106600297288, 2797.4996325373213, -0.146, 0.9500000000000001, 0.34800000000000003, 192.0, 0.0, 0.0, 0.0, 0.0, 0.0, 0.0, 0.0, 0.0, 0.0, 1.6546755878525703E9, 0.0, 2022-06-08 10:06:27.852
46.0, 29195.602738333077, 28760.79425344399, -19900.74156531591, -17425.73290177976, 4173.473021206024, -1986.1089570652196, 28640.96655141909, 2800.4277110609664, -0.146, 0.9500000000000001, 0.34800000000000003, 192.0, 0.0, 0.0, 0.0, 0.0, 0.0, 0.0, 0.0, 0.0, 0.0, 1.654675587852578E9, 0.0, 2022-06-08 10:06:27.852
47.0, 29196.16153194446, 28757.374436542326, -19916.76776609037, -17454.231375960277, 4160.218436744027, -2008.2371840759736, 28672.326048889885, 2796.4938040368324, -0.146, 0.9500000000000001, 0.34800000000000003, 192.0, 0.0, 0.0, 0.0, 0.0, 0.0, 0.0, 0.0, 0.0, 0.0, 1.6546755878525856E9, 0.0, 2022-06-08 10:06:27.852
48.0, 29193.501674354276, 28740.811793900943, -19928.99417030742, -17465.563710399118, 4144.214587714027, -2035.3722018447165, 28633.90340017121, 2759.792239641218, -0.13, 0.936, 0.36, 192.0, 251.0, 240.0, 29.0, 64.0, 11.0, 64.0, 0.0, 0.0, 0.0, 1.6546755878525932E9, 0.0, 2022-06-08 10:06:27.852
49.0, 29209.01378500626, 28755.16161384125, -19890.63857682211, -17435.500614106728, 4180.089137564795, -2002.4704340065045, 28575.967678543053, 2766.2295420443465, -0.13, 0.936, 0.36, 192.0, 0.0, 0.0, 0.0, 0.0, 0.0, 0.0, 0.0, 0.0, 0.0, 1.654675587852601E9, 0.0, 2022-06-08 10:06:27.852
50.0, 29220.815506078663, 28772.46186404966, -19874.97000395894, -17392.2052850968, 4200.652742463678, -1972.8543726032226, 28565.171785971143, 2800.606525016609, -0.13, 0.936, 0.36, 192.0, 0.0, 0.0, 0.0, 0.0, 0.0, 0.0, 0.0, 0.0, 0.0, 1.6546755878526087E9, 0.0, 2022-06-08 10:06:27.852
51.0, 29205.52691287123, 28767.11979712484, -19914.08555675573, -17434.092454206046, 4169.114431037239, -1997.8436229042559, 28597.80533287589, 2791.151737112014, -0.13, 0.936, 0.36, 192.0, 0.0, 0.0, 0.0, 0.0, 0.0, 0.0, 0.0, 0.0, 0.0, 1.6546755878526163E9, 0.0, 2022-06-08 10:06:27.852
52.0, 29213.819410064152, 28782.654259521278, -19909.771670075854, -17439.523928108683, 4173.942407839586, -2004.0797596072866, 28639.46898454058, 2775.147888082014, -0.13, 0.936, 0.36, 192.0, 0.0, 0.0, 0.0, 0.0, 0.0, 0.0, 0.0, 0.0, 0.0, 1.6546755878526242E9, 0.0, 2022-06-08 10:06:27.852
53.0, 29222.871866568552, 28784.911785711265, -19907.111812485673, -17422.424843600376, 4171.439012460592, -2021.3576580712388, 28612.892760383224, 2746.4482482014, -0.13, 0.936, 0.36, 192.0, 0.0, 0.0, 0.0, 0.0, 0.0, 0.0, 0.0, 0.0, 0.0, 1.654675587852632E9, 0.0, 2022-06-08 10:06:27.852
54.0, 29251.012712837783, 28812.091506968918, -19874.41121034756, -17400.944817178824, 4200.764501185954, -1993.7309019244794, 28569.686838351114, 2754.7183936498636, -0.13, 0.936, 0.36, 192.0, 0.0, 0.0, 0.0, 0.0, 0.0, 0.0, 0.0, 0.0, 0.0, 1.65467558785264E9, 0.0, 2022-06-08 10:06:27.852
55.0, 29267.865928157084, 28827.290693198527, -19862.609489275157, -17401.458907301298, 4222.110417140772, -1990.9592856120214, 28592.61972816226, 2770.0516903462044, -0.13, 0.936, 0.36, 192.0, 0.0, 0.0, 0.0, 0.0, 0.0, 0.0, 0.0, 0.0, 0.0, 1.6546755878526475E9, 0.0, 2022-06-08 10:06:27.852
56.0, 29245.491831957323, 28810.52688485705, -19899.623978093146, -17406.465698059284, 4198.462271507057, -2014.2498033344514, 28655.405778337215, 2787.2401818323356, -0.13, 0.936, 0.36, 192.0, 0.0, 0.0, 0.0, 0.0, 0.0, 0.0, 0.0, 0.0, 0.0, 1.6546755878526556E9, 0.0, 2022-06-08 10:06:27.852
57.0, 29224.414136935968, 28789.4938933246, -19919.56173414728, -17407.560933537596, 4172.310730494348, -2023.7716464724122, 28694.364868922818, 2807.066179164193, -0.13, 0.936, 0.36, 192.0, 0.0, 0.0, 0.0, 0.0, 0.0, 0.0, 0.0, 0.0, 0.0, 1.6546755878526635E9, 0.0, 2022-06-08 10:06:27.852
58.0, 29238.473384198354, 28788.778637502033, -19900.51804787136, -17400.788354967637, 4179.418585231136, -2019.1448353701635, 28661.396045851237, 2787.441347532433, -0.098, 0.9420000000000001, 0.376, 192.0, 252.0, 240.0, 29.0, 112.0, 11.0, 192.0, 0.0, 0.0, 0.0, 1.6546755878526711E9, 0.0, 2022-06-08 10:06:27.852
59.0, 29259.953410619906, 28799.50747484058, -19874.97000395894, -17385.790334438127, 4203.40200703168, -1993.1050530797309, 28607.260120780484, 2775.058481104193, -0.098, 0.9420000000000001, 0.376, 192.0, 0.0, 0.0, 0.0, 0.0, 0.0, 0.0, 0.0, 0.0, 0.0, 1.6546755878526788E9, 0.0, 2022-06-08 10:06:27.852
60.0, 29267.731817690354, 28802.83788476442, -19870.186730645506, -17418.3121226206, 4212.767387958454, -1993.6191432022028, 28599.32525149885, 2783.485088763844, -0.098, 0.9420000000000001, 0.376, 192.0, 0.0, 0.0, 0.0, 0.0, 0.0, 0.0, 0.0, 0.0, 0.0, 1.6546755878526864E9, 0.0, 2022-06-08 10:06:27.852
61.0, 29248.285800014237, 28791.304384625484, -19899.802792048788, -17406.800974226117, 4193.209611560061, -2008.9747916429988, 28638.396100806727, 2799.3548273271117, -0.098, 0.9420000000000001, 0.376, 192.0, 0.0, 0.0, 0.0, 0.0, 0.0, 0.0, 0.0, 0.0, 0.0, 1.654675587852694E9, 0.0, 2022-06-08 10:06:27.852
62.0, 29229.01859629376, 28771.254869849072, -19925.775519105857, -17392.92054091937, 4165.292282735381, -2008.3489427982502, 28667.81099650991, 2804.093397151637, -0.098, 0.9420000000000001, 0.376, 192.0, 0.0, 0.0, 0.0, 0.0, 0.0, 0.0, 0.0, 0.0, 0.0, 1.6546755878527017E9, 0.0, 2022-06-08 10:06:27.852
63.0, 29237.333445231136, 28767.96916341414, -19921.349873703704, -17391.758250207695, 4169.248541503971, -2013.4674922785155, 28633.299903070918, 2779.640588717531, -0.098, 0.9420000000000001, 0.376, 192.0, 0.0, 0.0, 0.0, 0.0, 0.0, 0.0, 0.0, 0.0, 0.0, 1.6546755878527093E9, 0.0, 2022-06-08 10:06:27.852
64.0, 29255.371303006566, 28781.581375787424, -19893.56665534576, -17372.11106683148, 4198.6410854627, -1990.780471656379, 28580.41567568966, 2780.1323270955477, -0.098, 0.9420000000000001, 0.376, 192.0, 0.0, 0.0, 0.0, 0.0, 0.0, 0.0, 0.0, 0.0, 0.0, 1.6546755878527205E9, 0.0, 2022-06-08 10:06:27.852
65.0, 29251.236230282335, 28777.893337952297, -19879.55211157228, -17385.477410015752, 4203.670227965144, -1996.547221725848, 28585.288355980916, 2792.2022691014135, -0.098, 0.9420000000000001, 0.376, 192.0, 0.0, 0.0, 0.0, 0.0, 0.0, 0.0, 0.0, 0.0, 0.0, 1.6546755878527281E9, 0.0, 2022-06-08 10:06:27.852
66.0, 29236.953465575396, 28766.9409831692, -19914.04085326682, -17421.21784939979, 4182.0113875879515, -2022.1399691271747, 28632.09290887033, 2790.8164609451846, -0.098, 0.9420000000000001, 0.376, 192.0, 0.0, 0.0, 0.0, 0.0, 0.0, 0.0, 0.0, 0.0, 0.0, 1.654675587852736E9, 0.0, 2022-06-08 10:06:27.852
67.0, 29228.459802682377, 28755.854517919364, -19933.151594776107, -17438.585154841563, 4163.660605390144, -2047.0174607059314, 28648.72260674508, 2738.871006831051, -0.098, 0.9420000000000001, 0.376, 192.0, 0.0, 0.0, 0.0, 0.0, 0.0, 0.0, 0.0, 0.0, 0.0, 1.6546755878527436E9, 0.0, 2022-06-08 10:06:27.852
68.0, 29241.93790458893, 28764.571698256936, -19910.46457415397, -17414.914657463392, 4176.78107938541, -2023.1457976276636, 28616.24552205152, 2733.193663739403, -0.084, 0.9400000000000001, 0.378, 192.0, 253.0, 96.0, 29.0, 96.0, 11.0, 208.0, 0.0, 0.0, 0.0, 1.6546755878527513E9, 0.0, 2022-06-08 10:06:27.852
69.0, 29290.195320867937, 28806.212998177172, -19854.182881615507, -17353.447360211296, 4223.496225297002, -1951.9554915375104, 28580.974469301043, 2805.121577396581, -0.084, 0.9400000000000001, 0.378, 192.0, 0.0, 0.0, 0.0, 0.0, 0.0, 0.0, 0.0, 0.0, 0.0, 1.6546755878527596E9, 0.0, 2022-06-08 10:06:27.852
70.0, 29300.812399484206, 28809.07402146745, -19853.087646137195, -17356.174273034845, 4233.040420179417, -1958.1916282405411, 28585.578928658837, 2822.645345049542, -0.084, 0.9400000000000001, 0.378, 192.0, 0.0, 0.0, 0.0, 0.0, 0.0, 0.0, 0.0, 0.0, 0.0, 1.6546755878527677E9, 0.0, 2022-06-08 10:06:27.852
71.0, 29272.5597944927, 28787.012849690065, -19898.618149592658, -17403.1576398799, 4190.862678392253, -2002.1351578396748, 28626.28145531195, 2799.0195511602824, -0.084, 0.9400000000000001, 0.378, 192.0, 0.0, 0.0, 0.0, 0.0, 0.0, 0.0, 0.0, 0.0, 0.0, 1.654675587852775E9, 0.0, 2022-06-08 10:06:27.852
72.0, 29266.12249208957, 28784.88943396681, -19907.380033419136, -17407.40447132641, 4174.769422384432, -2001.576364228292, 28651.851850968822, 2780.4228997734667, -0.084, 0.9400000000000001, 0.378, 192.0, 0.0, 0.0, 0.0, 0.0, 0.0, 0.0, 0.0, 0.0, 0.0, 1.6546755878527832E9, 0.0, 2022-06-08 10:06:27.852
73.0, 29283.04276264224, 28797.853445750887, -19887.330518642728, -17393.92636941986, 4185.16298355615, -1991.741596667957, 28624.403908777706, 2758.965225096372, -0.084, 0.9400000000000001, 0.378, 192.0, 0.0, 0.0, 0.0, 0.0, 0.0, 0.0, 0.0, 0.0, 0.0, 1.6546755878527913E9, 0.0, 2022-06-08 10:06:27.852
74.0, 29294.263338358804, 28805.94477724371, -19869.717344011944, -17378.794238423616, 4209.25816407897, -1991.5404309678593, 28578.962812300066, 2749.0186988137602, -0.084, 0.9400000000000001, 0.378, 192.0, 0.0, 0.0, 0.0, 0.0, 0.0, 0.0, 0.0, 0.0, 0.0, 1.6546755878527997E9, 0.0, 2022-06-08 10:06:27.852
75.0, 29297.83961747165, 28810.482181368137, -19871.706649268468, -17378.570720979063, 4213.057960636373, -1988.67940767758, 28579.566309400358, 2766.944797866917, -0.084, 0.9400000000000001, 0.378, 192.0, 0.0, 0.0, 0.0, 0.0, 0.0, 0.0, 0.0, 0.0, 0.0, 1.6546755878528078E9, 0.0, 2022-06-08 10:06:27.852
76.0, 29288.206015611413, 28802.971995231153, -19885.341213386204, -17409.572590538573, 4196.651780206177, -2001.2634398059179, 28631.08708036984, 2777.316007294179, -0.084, 0.9400000000000001, 0.378, 192.0, 0.0, 0.0, 0.0, 0.0, 0.0, 0.0, 0.0, 0.0, 0.0, 1.6546755878528156E9, 0.0, 2022-06-08 10:06:27.852
77.0, 29274.996134638328, 28794.27716663804, -19906.485963640924, -17437.802843785626, 4175.954064840564, -2018.9213179256105, 28660.211403395107, 2783.0827573636484, -0.084, 0.9400000000000001, 0.378, 192.0, 0.0, 0.0, 0.0, 0.0, 0.0, 0.0, 0.0, 0.0, 0.0, 1.6546755878528235E9, 0.0, 2022-06-08 10:06:27.852
78.0, 29274.347934049125, 28792.55608231498, -19902.574408361248, -17407.337416093043, 4170.075556048818, -2023.9281086835992, 28631.91409491469, 2762.6309111870423, -0.08, 0.9440000000000001, 0.386, 192.0, 253.0, 128.0, 29.0, 128.0, 12.0, 16.0, 0.0, 0.0, 0.0, 1.654675587852832E9, 0.0, 2022-06-08 10:06:27.852
79.0, 29315.206922913425, 28826.061347253486, -19853.40057055957, -17352.709752644274, 4213.728512970032, -1973.2790557478734, 28583.902547824688, 2781.696949207419, -0.08, 0.9440000000000001, 0.386, 192.0, 0.0, 0.0, 0.0, 0.0, 0.0, 0.0, 0.0, 0.0, 0.0, 1.65467558785284E9, 0.0, 2022-06-08 10:06:27.852
80.0, 29320.504286349333, 28829.704681599702, -19853.959364170954, -17369.495912730206, 4219.629373506234, -1957.163447995597, 28582.13676001272, 2808.5190425537876, -0.08, 0.9440000000000001, 0.386, 192.0, 0.0, 0.0, 0.0, 0.0, 0.0, 0.0, 0.0, 0.0, 0.0, 1.654675587852848E9, 0.0, 2022-06-08 10:06:27.852
81.0, 29296.27499535978, 28812.851466280397, -19886.034117464318, -17395.088660131536, 4192.717873182043, -1995.1837653140744, 28620.470001753572, 2806.373275086078, -0.08, 0.9440000000000001, 0.386, 192.0, 0.0, 0.0, 0.0, 0.0, 0.0, 0.0, 0.0, 0.0, 0.0, 1.654675587852856E9, 0.0, 2022-06-08 10:06:27.852
82.0, 29273.431512526455, 28795.12653292734, -19913.616170122168, -17421.910753477903, 4163.414736201136, -2028.9796029304987, 28646.733301488555, 2771.0128153577825, -0.08, 0.9440000000000001, 0.386, 192.0, 0.0, 0.0, 0.0, 0.0, 0.0, 0.0, 0.0, 0.0, 0.0, 1.654675587852864E9, 0.0, 2022-06-08 10:06:27.852
83.0, 29271.062227614195, 28787.21401539016, -19908.229399708438, -17420.189669154843, 4159.905512321653, -2044.4917135824817, 28619.978263375553, 2712.96533500735, -0.08, 0.9440000000000001, 0.386, 192.0, 0.0, 0.0, 0.0, 0.0, 0.0, 0.0, 0.0, 0.0, 0.0, 1.654675587852872E9, 0.0, 2022-06-08 10:06:27.852
84.0, 29292.922233691483, 28807.710565055677, -19872.958346957963, -17389.34426180652, 4186.213515545549, -1998.1118438377196, 28577.353486699285, 2765.35782401059, -0.08, 0.9440000000000001, 0.386, 192.0, 0.0, 0.0, 0.0, 0.0, 0.0, 0.0, 0.0, 0.0, 0.0, 1.6546755878528795E9, 0.0, 2022-06-08 10:06:27.852
85.0, 29305.37215535309, 28822.84269605192, -19861.46955030794, -17374.636813954927, 4206.464196022057, -1968.652244645625, 28574.045428519898, 2805.836833219151, -0.08, 0.9440000000000001, 0.386, 192.0, 0.0, 0.0, 0.0, 0.0, 0.0, 0.0, 0.0, 0.0, 0.0, 1.6546755878528876E9, 0.0, 2022-06-08 10:06:27.852
86.0, 29302.019393684794, 28820.249893695105, -19876.758143515366, -17399.02256715567, 4207.067693122351, -1992.1886315570632, 28619.19595231962, 2802.417016317489, -0.08, 0.9440000000000001, 0.386, 192.0, 0.0, 0.0, 0.0, 0.0, 0.0, 0.0, 0.0, 0.0, 0.0, 1.6546755878528984E9, 0.0, 2022-06-08 10:06:27.852
87.0, 29279.08650387365, 28800.334489385426, -19909.12346948665, -17456.332439939077, 4175.842306118287, -2022.9669836720211, 28649.415510823193, 2772.488030491833, -0.08, 0.9440000000000001, 0.386, 192.0, 0.0, 0.0, 0.0, 0.0, 0.0, 0.0, 0.0, 0.0, 0.0, 1.654675587852908E9, 0.0, 2022-06-08 10:06:27.852
88.0, 29282.551024264223, 28800.356841129884, -19893.70076581249, -17386.39383153842, 4177.384576485703, -2017.647268491658, 28622.168734332176, 2756.283015761735, -0.074, 0.9440000000000001, 0.392, 192.0, 253.0, 176.0, 29.0, 128.0, 12.0, 64.0, 0.0, 0.0, 0.0, 1.654675587852916E9, 0.0, 2022-06-08 10:06:27.852
89.0, 29322.359481139123, 28838.444213681727, -19847.387951301094, -17349.0440665536, 4215.06961763735, -1976.005968571421, 28574.6936291091, 2770.1410973240254, -0.074, 0.9440000000000001, 0.392, 192.0, 0.0, 0.0, 0.0, 0.0, 0.0, 0.0, 0.0, 0.0, 0.0, 1.654675587852924E9, 0.0, 2022-06-08 10:06:27.852
90.0, 29328.193286441958, 28841.08171952745, -19848.8855181796, -17354.76611313416, 4223.831501463831, -1969.0769277902757, 28570.13387324022, 2776.734861938341, -0.074, 0.9440000000000001, 0.392, 192.0, 0.0, 0.0, 0.0, 0.0, 0.0, 0.0, 0.0, 0.0, 0.0, 1.6546755878529325E9, 0.0, 2022-06-08 10:06:27.852
91.0, 29296.23029187087, 28818.88643728333, -19892.784344289823, -17401.458907301298, 4189.812146402854, -2002.582192728781, 28606.00842309099, 2762.4297454869447, -0.074, 0.9440000000000001, 0.392, 192.0, 0.0, 0.0, 0.0, 0.0, 0.0, 0.0, 0.0, 0.0, 0.0, 1.65467558785294E9, 0.0, 2022-06-08 10:06:27.852
92.0, 29264.379056022055, 28788.89039622431, -19920.61226613668, -17435.142986195446, 4160.486657677491, -2018.4072278031383, 28642.508821786505, 2766.676576933453, -0.074, 0.9440000000000001, 0.392, 192.0, 0.0, 0.0, 0.0, 0.0, 0.0, 0.0, 0.0, 0.0, 0.0, 1.6546755878529477E9, 0.0, 2022-06-08 10:06:27.852
93.0, 29262.345047276624, 28781.73783799861, -19912.297417199305, -17435.746483295738, 4160.598416399767, -2015.9708876575098, 28628.918961157677, 2749.5327889362325, -0.074, 0.9440000000000001, 0.392, 192.0, 0.0, 0.0, 0.0, 0.0, 0.0, 0.0, 0.0, 0.0, 0.0, 1.6546755878529556E9, 0.0, 2022-06-08 10:06:27.852
94.0, 29308.27788213228, 28819.93696927273, -19863.391800331094, -17390.998290896212, 4203.40200703168, -1966.2159044999964, 28581.600318145793, 2787.6201614880756, -0.074, 0.9440000000000001, 0.392, 192.0, 0.0, 0.0, 0.0, 0.0, 0.0, 0.0, 0.0, 0.0, 0.0, 1.654675587852966E9, 0.0, 2022-06-08 10:06:27.852
95.0, 29315.721013035898, 28825.927236786752, -19857.7368089839, -17381.074116358057, 4223.496225297002, -1975.2683610043957, 28577.241727977005, 2795.1974028584245, -0.074, 0.9440000000000001, 0.392, 192.0, 0.0, 0.0, 0.0, 0.0, 0.0, 0.0, 0.0, 0.0, 0.0, 1.654675587852974E9, 0.0, 2022-06-08 10:06:27.852
96.0, 29300.49947506183, 28813.678480825245, -19887.531684342826, -17401.30244509011, 4206.0171611329515, -2001.5987159727474, 28627.734318701547, 2778.679463705953, -0.074, 0.9440000000000001, 0.392, 192.0, 0.0, 0.0, 0.0, 0.0, 0.0, 0.0, 0.0, 0.0, 0.0, 1.654675587852982E9, 0.0, 2022-06-08 10:06:27.852
97.0, 29277.767750950785, 28792.46667533716, -19914.71140560048, -17430.225602415278, 4164.979358313008, -2005.77849218589, 28654.0646736699, 2776.1090130935927, -0.074, 0.9400000000000001, 0.396, 192.0, 253.0, 176.0, 29.0, 96.0, 12.0, 96.0, 0.0, 0.0, 0.0, 1.65467558785299E9, 0.0, 2022-06-08 10:06:27.852
98.0, 29295.447980814934, 28805.028355721042, -19883.307204640772, -17400.341320078533, 4182.167849799139, -1993.6414949466582, 28622.034623865442, 2761.9827105978384, -0.074, 0.9400000000000001, 0.396, 192.0, 0.0, 0.0, 0.0, 0.0, 0.0, 0.0, 0.0, 0.0, 0.0, 1.654675587853001E9, 0.0, 2022-06-08 10:06:27.853
99.0, 29324.61700732911, 28830.017606022073, -19838.20138432996, -17358.074171313547, 4226.223138120548, -1964.427764943572, 28597.55946368688, 2787.195478343425, -0.074, 0.9400000000000001, 0.396, 192.0, 0.0, 0.0, 0.0, 0.0, 0.0, 0.0, 0.0, 0.0, 0.0, 1.6546755878530114E9, 0.0, 2022-06-08 10:06:27.853
100.0, 29308.635510043565, 28810.482181368137, -19866.476341065925, -17386.43853502733, 4213.1250158697385, -1989.2605530334179, 28618.48069649705, 2774.8796671485507, -0.074, 0.9400000000000001, 0.396, 192.0, 0.0, 0.0, 0.0, 0.0, 0.0, 0.0, 0.0, 0.0, 0.0, 1.6546755878530204E9, 0.0, 2022-06-08 10:06:27.853
101.0, 29302.37702159608, 28811.26449242407, -19899.400460648594, -17421.933105222357, 4191.2873615369035, -2027.3479255852612, 28667.498072087536, 2745.844751101107, -0.074, 0.9400000000000001, 0.396, 192.0, 0.0, 0.0, 0.0, 0.0, 0.0, 0.0, 0.0, 0.0, 0.0, 1.6546755878530293E9, 0.0, 2022-06-08 10:06:27.853
102.0, 29283.758018464807, 28798.70281204019, -19917.214800979473, -17445.514195622705, 4167.303939736359, -2047.9562339730544, 28701.673889359703, 2704.4046168809673, -0.074, 0.9400000000000001, 0.396, 192.0, 0.0, 0.0, 0.0, 0.0, 0.0, 0.0, 0.0, 0.0, 0.0, 1.6546755878530376E9, 0.0, 2022-06-08 10:06:27.853
103.0, 29266.234250811845, 28775.16642512875, -19901.210951949473, -17413.282980118154, 4180.022082331429, -2006.9184311531105, 28688.77693280899, 2751.678556403942, -0.074, 0.9400000000000001, 0.396, 192.0, 0.0, 0.0, 0.0, 0.0, 0.0, 0.0, 0.0, 0.0, 0.0, 1.6546755878530457E9, 0.0, 2022-06-08 10:06:27.853
104.0, 29293.168102880492, 28795.819437005455, -19855.658096749557, -17374.681517443838, 4218.9364694281185, -1962.3937561981388, 28649.795490478933, 2797.1196528815813, -0.074, 0.9400000000000001, 0.396, 192.0, 0.0, 0.0, 0.0, 0.0, 0.0, 0.0, 0.0, 0.0, 0.0, 1.6546755878530536E9, 0.0, 2022-06-08 10:06:27.853
105.0, 29299.761867494806, 28802.592015575414, -19853.64643974858, -17385.566816993574, 4231.0287631784395, -1962.2372939869517, 28639.67015024068, 2806.999123930827, -0.074, 0.9400000000000001, 0.396, 192.0, 0.0, 0.0, 0.0, 0.0, 0.0, 0.0, 0.0, 0.0, 0.0, 1.6546755883320906E9, 0.0, 2022-06-08 10:06:28.332
106.0, 29283.623907998077, 28791.885529981322, -19881.519065084347, -17401.525962534663, 4203.2008413315825, -1981.258628518418, 28674.695333802145, 2790.5929435006315, -0.074, 0.9400000000000001, 0.396, 192.0, 0.0, 0.0, 0.0, 0.0, 0.0, 0.0, 0.0, 0.0, 0.0, 1.654675588332301E9, 0.0, 2022-06-08 10:06:28.332
107.0, 29246.63177092454, 28755.02750337452, -19924.210896993984, -17437.288753663153, 4159.525532665913, -2019.837739448278, 28704.981947539087, 2754.919559349961, -0.068, 0.926, 0.406, 192.0, 253.0, 224.0, 28.0, 240.0, 12.0, 176.0, 0.0, 0.0, 0.0, 1.6546755883323157E9, 0.0, 2022-06-08 10:06:28.332
108.0, 29249.381035492544, 28755.720407452634, -19901.9485595165, -17429.19742217033, 4174.277684006415, -2000.5034804944373, 28683.34545890635, 2764.64256818802, -0.068, 0.926, 0.406, 192.0, 0.0, 0.0, 0.0, 0.0, 0.0, 0.0, 0.0, 0.0, 0.0, 1.6546755883323212E9, 0.0, 2022-06-08 10:06:28.332
109.0, 29289.077733645172, 28792.623137548348, -19851.634782747602, -17367.283090029134, 4211.046303635395, -1957.3422619512394, 28638.351397317816, 2781.4287282739556, -0.068, 0.926, 0.406, 192.0, 0.0, 0.0, 0.0, 0.0, 0.0, 0.0, 0.0, 0.0, 0.0, 1.654675588332327E9, 0.0, 2022-06-08 10:06:28.332
110.0, 29309.08254493267, 28812.203265691194, -19835.139195339587, -17345.780711863128, 4237.197844648104, -1949.809724069801, 28637.591438006337, 2800.9194494389835, -0.068, 0.926, 0.406, 192.0, 0.0, 0.0, 0.0, 0.0, 0.0, 0.0, 0.0, 0.0, 0.0, 1.6546755883323326E9, 0.0, 2022-06-08 10:06:28.332
111.0, 29280.718181218886, 28785.247061878094, -19876.26640513735, -17393.993424653225, 4210.465158279558, -1984.8572593757224, 28680.551490849437, 2806.574440786176, -0.068, 0.926, 0.406, 192.0, 0.0, 0.0, 0.0, 0.0, 0.0, 0.0, 0.0, 0.0, 0.0, 1.654675588332338E9, 0.0, 2022-06-08 10:06:28.332
112.0, 29245.715349401875, 28753.887564407298, -19911.760975332378, -17439.434521130865, 4170.477887449013, -2019.837739448278, 28705.853665572842, 2760.9098268639837, -0.068, 0.926, 0.406, 192.0, 0.0, 0.0, 0.0, 0.0, 0.0, 0.0, 0.0, 0.0, 0.0, 1.6546755883323438E9, 0.0, 2022-06-08 10:06:28.332
113.0, 29267.88827990154, 28769.042047147996, -19884.31303314126, -17418.334474365052, 4187.599323701778, -1993.1050530797309, 28683.703086817633, 2763.480277476344, -0.068, 0.926, 0.406, 192.0, 0.0, 0.0, 0.0, 0.0, 0.0, 0.0, 0.0, 0.0, 0.0, 1.6546755883323498E9, 0.0, 2022-06-08 10:06:28.332
114.0, 29291.804646468718, 28791.93023347023, -19851.053637391764, -17418.78150925416, 4218.35532407228, -1977.2800180053734, 28644.900458443222, 2755.1430767945144, -0.068, 0.926, 0.406, 192.0, 0.0, 0.0, 0.0, 0.0, 0.0, 0.0, 0.0, 0.0, 0.0, 1.6546755883323555E9, 0.0, 2022-06-08 10:06:28.332
115.0, 29298.107838405114, 28796.22176840565, -19846.180957100507, -17403.202343368812, 4227.743056743509, -1993.0827013352755, 28637.591438006337, 2753.4890477048216, -0.068, 0.926, 0.406, 192.0, 0.0, 0.0, 0.0, 0.0, 0.0, 0.0, 0.0, 0.0, 0.0, 1.6546755883323607E9, 0.0, 2022-06-08 10:06:28.332
116.0, 29269.922288646972, 28766.382189557815, -19890.63857682211, -17410.220791127776, 4188.046358590885, -2022.9222801831104, 28650.39898757923, 2743.0284312997383, -0.068, 0.926, 0.406, 192.0, 0.0, 0.0, 0.0, 0.0, 0.0, 0.0, 0.0, 0.0, 0.0, 1.6546755883323665E9, 0.0, 2022-06-08 10:06:28.332
117.0, 29248.12933780305, 28750.199526572174, -19922.28864697083, -17446.296506678642, 4162.2300937450045, -2042.3235943703169, 28682.540796105957, 2726.1528642359813, -0.066, 0.934, 0.40800000000000003, 192.0, 253.0, 240.0, 29.0, 48.0, 12.0, 192.0, 0.0, 0.0, 0.0, 1.6546755883323724E9, 0.0, 2022-06-08 10:06:28.332
118.0, 29264.535518233242, 28759.587259243403, -19902.909684528076, -17440.485053120265, 4174.434146217603, -2027.6384982631803, 28685.71474381861, 2733.5736433951433, -0.066, 0.934, 0.40800000000000003, 192.0, 0.0, 0.0, 0.0, 0.0, 0.0, 0.0, 0.0, 0.0, 0.0, 1.654675588332379E9, 0.0, 2022-06-08 10:06:28.332
119.0, 29301.55000705123, 28796.802913761487, -19864.151759642573, -17409.527887049662, 4210.845137935297, -1977.8164598723008, 28641.681807241657, 2751.298576748202, -0.066, 0.934, 0.40800000000000003, 192.0, 0.0, 0.0, 0.0, 0.0, 0.0, 0.0, 0.0, 0.0, 0.0, 1.6546755883323846E9, 0.0, 2022-06-08 10:06:28.332
120.0, 29311.541236822755, 28801.385021374826, -19854.138178126595, -17392.45115428581, 4229.352382344292, -1970.6862533910578, 28645.325141587873, 2775.3714055265673, -0.066, 0.934, 0.40800000000000003, 192.0, 0.0, 0.0, 0.0, 0.0, 0.0, 0.0, 0.0, 0.0, 0.0, 1.65467558833239E9, 0.0, 2022-06-08 10:06:28.332
121.0, 29307.339108865155, 28798.300480639995, -19866.051657921274, -17397.413241554885, 4208.587611745312, -1985.9748465984878, 28683.568976350904, 2795.890306936539, -0.066, 0.934, 0.40800000000000003, 192.0, 0.0, 0.0, 0.0, 0.0, 0.0, 0.0, 0.0, 0.0, 0.0, 1.654675588332396E9, 0.0, 2022-06-08 10:06:28.332
122.0, 29285.210881854404, 28780.754361242576, -19898.327576914737, -17436.126462951477, 4174.054166561862, -2021.871748193711, 28702.7244213491, 2762.7873733982296, -0.066, 0.934, 0.40800000000000003, 192.0, 0.0, 0.0, 0.0, 0.0, 0.0, 0.0, 0.0, 0.0, 0.0, 1.6546755883324015E9, 0.0, 2022-06-08 10:06:28.332
123.0, 29276.06901837218, 28771.254869849072, -19910.03989100932, -17455.50542539423, 4150.406020928147, -2031.2371291204847, 28668.280383143472, 2737.5075504192773, -0.066, 0.934, 0.40800000000000003, 192.0, 0.0, 0.0, 0.0, 0.0, 0.0, 0.0, 0.0, 0.0, 0.0, 1.6546755883324068E9, 0.0, 2022-06-08 10:06:28.332
124.0, 29303.65107103003, 28796.22176840565, -19870.901986468078, -17394.552218264605, 4180.513820709446, -1991.227506545485, 28634.842173438334, 2777.7853939277406, -0.066, 0.934, 0.40800000000000003, 192.0, 0.0, 0.0, 0.0, 0.0, 0.0, 0.0, 0.0, 0.0, 0.0, 1.6546755883324125E9, 0.0, 2022-06-08 10:06:28.332
125.0, 29315.296329891247, 28806.145942943807, -19847.8349861902, -17364.086790572022, 4207.157100100172, -1971.2450470024405, 28657.171566149183, 2806.5520890417206, -0.066, 0.934, 0.40800000000000003, 192.0, 0.0, 0.0, 0.0, 0.0, 0.0, 0.0, 0.0, 0.0, 0.0, 1.654675588332418E9, 0.0, 2022-06-08 10:06:28.332
126.0, 29309.149600166038, 28800.960338230176, -19866.16341664355, -17388.561950750583, 4192.092024337295, -1986.3101227653174, 28692.30850843293, 2788.827155688662, -0.066, 0.934, 0.40800000000000003, 192.0, 0.0, 0.0, 0.0, 0.0, 0.0, 0.0, 0.0, 0.0, 0.0, 1.6546755883324237E9, 0.0, 2022-06-08 10:06:28.332
127.0, 29287.870739444585, 28781.246099620595, -19897.098230969696, -17423.07304418958, 4159.190256499083, -2018.8989661811552, 28708.267653974017, 2764.575512954654, -0.058, 0.93, 0.40800000000000003, 192.0, 254.0, 48.0, 29.0, 16.0, 12.0, 192.0, 0.0, 0.0, 0.0, 1.6546755883324292E9, 0.0, 2022-06-08 10:06:28.332
128.0, 29285.590861510143, 28775.568756528948, -19895.824181535743, -17430.180898926366, 4157.782096598398, -2030.678335509102, 28691.123865976795, 2732.746628850297, -0.058, 0.93, 0.40800000000000003, 192.0, 0.0, 0.0, 0.0, 0.0, 0.0, 0.0, 0.0, 0.0, 0.0, 1.6546755883324406E9, 0.0, 2022-06-08 10:06:28.332
129.0, 29312.65882404552, 28804.51426559857, -19854.62991650461, -17401.88359044595, 4201.233887819515, -1992.4345007460715, 28665.017028453, 2760.351033252601, -0.058, 0.93, 0.40800000000000003, 192.0, 0.0, 0.0, 0.0, 0.0, 0.0, 0.0, 0.0, 0.0, 0.0, 1.654675588332446E9, 0.0, 2022-06-08 10:06:28.332
130.0, 29339.70443483644, 28822.641530351822, -19829.17127957002, -17369.071229585556, 4228.83829222182, -1962.2819974758622, 28671.610793067313, 2819.2925833812455, -0.058, 0.93, 0.40800000000000003, 192.0, 0.0, 0.0, 0.0, 0.0, 0.0, 0.0, 0.0, 0.0, 0.0, 1.6546755883324516E9, 0.0, 2022-06-08 10:06:28.332
131.0, 29305.305100119724, 28793.673669537744, -19888.001070976385, -17419.697930776827, 4181.92198061013, -2008.7289224539904, 28694.409572411725, 2784.0885858641373, -0.058, 0.93, 0.40800000000000003, 192.0, 0.0, 0.0, 0.0, 0.0, 0.0, 0.0, 0.0, 0.0, 0.0, 1.6546755883324573E9, 0.0, 2022-06-08 10:06:28.332
132.0, 29266.83774791214, 28755.698055708177, -19943.925135603564, -17486.708460653837, 4133.642212586667, -2062.641330080191, 28718.728270379102, 2721.190776966903, -0.058, 0.93, 0.40800000000000003, 192.0, 0.0, 0.0, 0.0, 0.0, 0.0, 0.0, 0.0, 0.0, 0.0, 1.6546755883324628E9, 0.0, 2022-06-08 10:06:28.332
133.0, 29282.126341119572, 28766.382189557815, -19918.55590564679, -17452.376181170486, 4146.159189481639, -2058.975643989521, 28703.05969751593, 2695.7991952656744, -0.058, 0.93, 0.40800000000000003, 192.0, 0.0, 0.0, 0.0, 0.0, 0.0, 0.0, 0.0, 0.0, 0.0, 1.6546755883324683E9, 0.0, 2022-06-08 10:06:28.332
134.0, 29329.981425998383, 28807.911730755775, -19861.06721890774, -17412.947703951326, 4197.165870328649, -2022.0729138938086, 28667.47572034308, 2720.5202246332437, -0.058, 0.93, 0.40800000000000003, 192.0, 0.0, 0.0, 0.0, 0.0, 0.0, 0.0, 0.0, 0.0, 0.0, 1.654675588332474E9, 0.0, 2022-06-08 10:06:28.332
135.0, 29362.346751969668, 28833.66094036829, -19839.184861085996, -17384.58334023754, 4216.343667071303, -2007.2090038310296, 28648.499089300527, 2751.7903151262185, -0.058, 0.93, 0.40800000000000003, 192.0, 0.0, 0.0, 0.0, 0.0, 0.0, 0.0, 0.0, 0.0, 0.0, 1.6546755883324795E9, 0.0, 2022-06-08 10:06:28.332
136.0, 29341.537277881776, 28822.954454774197, -19874.768838258846, -17363.61740393846, 4185.699425423077, -2016.7308469689904, 28681.557319349926, 2761.9156553644725, -0.058, 0.93, 0.40800000000000003, 192.0, 0.0, 0.0, 0.0, 0.0, 0.0, 0.0, 0.0, 0.0, 0.0, 1.654675588332485E9, 0.0, 2022-06-08 10:06:28.332
137.0, 29317.956187481428, 28810.66099532378, -19885.02828896383, -17391.512381018685, 4180.692634665088, -2025.9397656845767, 28733.569828697426, 2760.127515808048, -0.052000000000000005, 0.916, 0.38, 192.0, 254.0, 96.0, 28.0, 160.0, 11.0, 224.0, 0.0, 0.0, 0.0, 1.6546755883324904E9, 0.0, 2022-06-08 10:06:28.332
138.0, 29307.428515842978, 28787.817512490456, -19902.17207696105, -17417.68627377585, 4158.519704165424, -2044.0446786933755, 28722.461011703137, 2722.9565647788722, -0.052000000000000005, 0.916, 0.38, 192.0, 0.0, 0.0, 0.0, 0.0, 0.0, 0.0, 0.0, 0.0, 0.0, 1.654675588332496E9, 0.0, 2022-06-08 10:06:28.332
139.0, 29344.197135471957, 28811.622120335356, -19870.723172512433, -17401.63772125694, 4187.889896379697, -2025.9844691734875, 28670.850833755834, 2732.701925361386, -0.052000000000000005, 0.916, 0.38, 192.0, 0.0, 0.0, 0.0, 0.0, 0.0, 0.0, 0.0, 0.0, 0.0, 1.6546755883325016E9, 0.0, 2022-06-08 10:06:28.332
140.0, 29342.341940682167, 28817.165352960274, -19862.31891659724, -17403.49291604673, 4212.029780391429, -2032.7570477434456, 28658.311505116406, 2738.1110475195705, -0.052000000000000005, 0.916, 0.38, 192.0, 0.0, 0.0, 0.0, 0.0, 0.0, 0.0, 0.0, 0.0, 0.0, 1.6546755883325071E9, 0.0, 2022-06-08 10:06:28.332
141.0, 29320.146658438047, 28799.730992285135, -19897.880542025632, -17441.513233365207, 4190.728567925521, -2050.8172572633334, 28687.994621753052, 2709.769035550241, -0.052000000000000005, 0.916, 0.38, 192.0, 0.0, 0.0, 0.0, 0.0, 0.0, 0.0, 0.0, 0.0, 0.0, 1.6546755883325129E9, 0.0, 2022-06-08 10:06:28.332
142.0, 29299.828922728175, 28785.582338044926, -19926.17785050605, -17446.341210167553, 4156.172770997617, -2081.3050367003725, 28710.033441785985, 2694.7933667651855, -0.052000000000000005, 0.916, 0.38, 192.0, 0.0, 0.0, 0.0, 0.0, 0.0, 0.0, 0.0, 0.0, 0.0, 1.654675588332518E9, 0.0, 2022-06-08 10:06:28.332
143.0, 29286.32846907717, 28765.912802924253, -19917.50537365739, -17453.225547459788, 4153.647023874167, -2093.8443653398, 28688.64282234226, 2680.8905817139844, -0.052000000000000005, 0.916, 0.38, 192.0, 0.0, 0.0, 0.0, 0.0, 0.0, 0.0, 0.0, 0.0, 0.0, 1.6546755883325236E9, 0.0, 2022-06-08 10:06:28.332
144.0, 29322.381832883577, 28803.46373360917, -19871.50548356837, -17401.0565759011, 4190.3485882697805, -2040.6919170250794, 28644.587534020848, 2729.0138875262605, -0.052000000000000005, 0.916, 0.38, 192.0, 0.0, 0.0, 0.0, 0.0, 0.0, 0.0, 0.0, 0.0, 0.0, 1.6546755883325293E9, 0.0, 2022-06-08 10:06:28.332
145.0, 29340.41969065901, 28833.32566420146, -19853.177053115018, -17386.81851468307, 4218.176510116638, -2009.8912131656664, 28638.641969995737, 2783.485088763844, -0.052000000000000005, 0.916, 0.38, 192.0, 0.0, 0.0, 0.0, 0.0, 0.0, 0.0, 0.0, 0.0, 0.0, 1.6546755883325348E9, 0.0, 2022-06-08 10:06:28.332
146.0, 29304.880416975073, 28800.42389636325, -19906.307149685283, -17428.504518092217, 4181.139669554194, -2051.64427180818, 28679.322144904396, 2775.3267020376566, -0.052000000000000005, 0.916, 0.38, 192.0, 0.0, 0.0, 0.0, 0.0, 0.0, 0.0, 0.0, 0.0, 0.0, 1.6546755883325405E9, 0.0, 2022-06-08 10:06:28.332
