%OpenBCI Raw EEG Data
%Number of channels = 8
%Sample Rate = 250 Hz
%Board = OpenBCI_GUI$BoardCytonSerial
Sample Index, EXG Channel 0, EXG Channel 1, EXG Channel 2, EXG Channel 3, EXG Channel 4, EXG Channel 5, EXG Channel 6, EXG Channel 7, Accel Channel 0, Accel Channel 1, Accel Channel 2, Other, Other, Other, Other, Other, Other, Other, Analog Channel 0, Analog Channel 1, Analog Channel 2, Timestamp, Other, Timestamp (Formatted)
0.0, 0.0, 0.0, 0.0, 0.0, 0.0, 0.0, 0.0, 0.0, 0.0, 0.0, 0.0, 192.0, 0.0, 0.0, 0.0, 0.0, 0.0, 0.0, 0.0, 0.0, 0.0, 1.6541552037120583E9, 0.0, 2022-06-02 09:33:23.712
1.0, 21632.085339079542, -8229.666439255052, -62947.58623213604, -29241.803794122196, -14357.911271799956, -38747.44191735291, -11017.778339121145, -30091.125379934954, -0.038, 0.912, 0.482, 192.0, 254.0, 208.0, 28.0, 128.0, 15.0, 16.0, 0.0, 0.0, 0.0, 1.654155204190136E9, 0.0, 2022-06-02 09:33:24.190
2.0, 21628.106728566498, -8217.931773416016, -62935.4045314079, -29234.271256240758, -14342.153291958964, -38737.00365269228, -11004.009664536676, -30043.60557122297, -0.038, 0.912, 0.482, 192.0, 0.0, 0.0, 0.0, 0.0, 0.0, 0.0, 0.0, 0.0, 0.0, 1.6541552041903276E9, 0.0, 2022-06-02 09:33:24.190
3.0, 21637.51681298218, -8212.500299513376, -62946.73686584674, -29246.944695346916, -14343.27087918173, -38737.38363234802, -11011.430443695837, -30016.89523659888, -0.038, 0.912, 0.482, 192.0, 0.0, 0.0, 0.0, 0.0, 0.0, 0.0, 0.0, 0.0, 0.0, 1.6541552041903331E9, 0.0, 2022-06-02 09:33:24.190
4.0, 21645.250516563716, -8221.239831595401, -62964.350040477526, -29261.115701331582, -14362.962766046854, -38756.60613257958, -11027.076664814553, -30046.913629402356, -0.038, 0.912, 0.482, 192.0, 0.0, 0.0, 0.0, 0.0, 0.0, 0.0, 0.0, 0.0, 0.0, 1.6541552041903389E9, 0.0, 2022-06-02 09:33:24.190
5.0, 21632.688836179834, -8235.29907885779, -62961.22079625378, -29247.347026747113, -14360.191149734397, -38759.53421110323, -11008.70353087229, -30058.782405708123, -0.038, 0.912, 0.482, 192.0, 0.0, 0.0, 0.0, 0.0, 0.0, 0.0, 0.0, 0.0, 0.0, 1.654155204190344E9, 0.0, 2022-06-02 09:33:24.190
6.0, 21640.534298483646, -8216.188337348502, -62936.432711652844, -29226.515200914768, -14343.874376282023, -38735.32727185813, -11007.228315738239, -30045.706635201772, -0.038, 0.912, 0.482, 192.0, 0.0, 0.0, 0.0, 0.0, 0.0, 0.0, 0.0, 0.0, 0.0, 1.654155204190349E9, 0.0, 2022-06-02 09:33:24.190
7.0, 21652.33601955605, -8199.648046451575, -62922.21700217927, -29205.012822748762, -14331.469158109327, -38724.21845486385, -10990.620969607946, -30026.193562292287, -0.038, 0.912, 0.482, 192.0, 0.0, 0.0, 0.0, 0.0, 0.0, 0.0, 0.0, 0.0, 0.0, 1.6541552041903543E9, 0.0, 2022-06-02 09:33:24.190
8.0, 21654.168862601386, -8202.397311019577, -62929.45896738279, -29214.02057576425, -14328.429320863406, -38730.275777611234, -10979.445097380292, -30039.336388032007, -0.046, 0.906, 0.49, 192.0, 254.0, 144.0, 28.0, 80.0, 15.0, 80.0, 0.0, 0.0, 0.0, 1.6541552041903594E9, 0.0, 2022-06-02 09:33:24.190
9.0, 21658.929784170366, -8203.224325564424, -62935.85156629701, -29227.453974181888, -14336.900632011966, -38740.37876610503, -11004.233181981228, -30074.98742043822, -0.046, 0.906, 0.49, 192.0, 0.0, 0.0, 0.0, 0.0, 0.0, 0.0, 0.0, 0.0, 0.0, 1.6541552041903644E9, 0.0, 2022-06-02 09:33:24.190
10.0, 21652.872461422976, -8212.500299513376, -62944.70285710131, -29238.853363854098, -14350.89282404099, -38747.84424875311, -11011.028112295642, -30036.22949555272, -0.046, 0.906, 0.49, 192.0, 0.0, 0.0, 0.0, 0.0, 0.0, 0.0, 0.0, 0.0, 0.0, 1.6541552041903696E9, 0.0, 2022-06-02 09:33:24.190
11.0, 21652.58188874506, -8200.653874952064, -62932.051769739606, -29223.02832877974, -14345.394294904983, -38732.53330380122, -11007.340074460517, -30021.54439944558, -0.046, 0.906, 0.49, 192.0, 0.0, 0.0, 0.0, 0.0, 0.0, 0.0, 0.0, 0.0, 0.0, 1.6541552041903746E9, 0.0, 2022-06-02 09:33:24.190
12.0, 21665.747066229233, -8187.980435845904, -62915.64558930941, -29208.902026283984, -14324.003675461254, -38717.87055943854, -10988.65401609588, -30019.644501166884, -0.046, 0.906, 0.49, 192.0, 0.0, 0.0, 0.0, 0.0, 0.0, 0.0, 0.0, 0.0, 0.0, 1.6541552041903799E9, 0.0, 2022-06-02 09:33:24.190
13.0, 21675.96181344531, -8188.539229457288, -62919.91477250037, -29214.065279253162, -14324.853041750555, -38718.83168445012, -10990.799783563589, -30020.069184311535, -0.046, 0.906, 0.49, 192.0, 0.0, 0.0, 0.0, 0.0, 0.0, 0.0, 0.0, 0.0, 0.0, 1.6541552041903849E9, 0.0, 2022-06-02 09:33:24.190
14.0, 21672.05025816563, -8201.14561333008, -62931.31416217258, -29234.94180857442, -14338.889937268488, -38731.393364833995, -10989.279864940629, -30044.410234023362, -0.046, 0.906, 0.49, 192.0, 0.0, 0.0, 0.0, 0.0, 0.0, 0.0, 0.0, 0.0, 0.0, 1.65415520419039E9, 0.0, 2022-06-02 09:33:24.190
15.0, 21636.600391459513, -8214.266087325346, -62942.64649661142, -29260.64631469802, -14355.743152587791, -38745.89964698549, -11005.239010481717, -30068.751283735193, -0.046, 0.906, 0.49, 192.0, 0.0, 0.0, 0.0, 0.0, 0.0, 0.0, 0.0, 0.0, 0.0, 1.654155204190395E9, 0.0, 2022-06-02 09:33:24.190
16.0, 21642.94828688482, -8199.3351220292, -62926.39677839241, -29217.86507581056, -14340.812187291645, -38732.801524734685, -10998.645245867401, -30046.198373579788, -0.046, 0.906, 0.49, 192.0, 0.0, 0.0, 0.0, 0.0, 0.0, 0.0, 0.0, 0.0, 0.0, 1.6541552041904E9, 0.0, 2022-06-02 09:33:24.190
17.0, 21676.38649658996, -8177.162191529535, -62903.03920543662, -29191.758238286766, -14318.751015514257, -38708.952213400866, -10972.7395740437, -29994.342326443475, -0.046, 0.906, 0.49, 192.0, 0.0, 0.0, 0.0, 0.0, 0.0, 0.0, 0.0, 0.0, 0.0, 1.6541552041904051E9, 0.0, 2022-06-02 09:33:24.190
18.0, 21681.460342581315, -8167.863865836128, -62890.61163551947, -29185.075066694626, -14312.73839625578, -38696.27877429471, -10969.945605986788, -30003.21596899223, -0.046, 0.91, 0.488, 192.0, 254.0, 144.0, 28.0, 112.0, 15.0, 64.0, 0.0, 0.0, 0.0, 1.6541552041904104E9, 0.0, 2022-06-02 09:33:24.190
19.0, 21670.642098264947, -8182.884238110094, -62910.705853784784, -29209.617282106556, -14330.753902286757, -38719.792809461695, -10992.45381265328, -30048.70176895878, -0.046, 0.91, 0.488, 192.0, 0.0, 0.0, 0.0, 0.0, 0.0, 0.0, 0.0, 0.0, 0.0, 1.6541552041904159E9, 0.0, 2022-06-02 09:33:24.190
20.0, 21656.314630069093, -8200.363302274145, -62932.49880462871, -29231.87961958404, -14355.944318287888, -38741.250484138785, -11018.98533332173, -30051.339274804508, -0.046, 0.91, 0.488, 192.0, 0.0, 0.0, 0.0, 0.0, 0.0, 0.0, 0.0, 0.0, 0.0, 1.6541552041904209E9, 0.0, 2022-06-02 09:33:24.190
21.0, 21654.548842257125, -8192.026101592315, -62917.076100954546, -29218.669738610955, -14349.283498440207, -38722.51972228524, -10995.694815599301, -30037.883524642413, -0.046, 0.91, 0.488, 192.0, 0.0, 0.0, 0.0, 0.0, 0.0, 0.0, 0.0, 0.0, 0.0, 1.654155204190426E9, 0.0, 2022-06-02 09:33:24.190
22.0, 21667.468150552293, -8179.822049119717, -62900.69227226881, -29203.2917384257, -14330.910364497944, -38709.868634923536, -10965.162332673352, -30031.60268445047, -0.046, 0.91, 0.488, 192.0, 0.0, 0.0, 0.0, 0.0, 0.0, 0.0, 0.0, 0.0, 0.0, 1.6541552041904397E9, 0.0, 2022-06-02 09:33:24.190
23.0, 21668.652793008423, -8185.342930000178, -62914.05861545308, -29213.64059610851, -14332.40793137645, -38718.16113211645, -10976.807591534567, -30034.50841122966, -0.046, 0.91, 0.488, 192.0, 0.0, 0.0, 0.0, 0.0, 0.0, 0.0, 0.0, 0.0, 0.0, 1.6541552041904452E9, 0.0, 2022-06-02 09:33:24.190
24.0, 21667.24463310774, -8198.329293528712, -62930.844775539015, -29229.465631182866, -14349.46231239585, -38735.461382324866, -11005.931914559831, -30037.503544986674, -0.046, 0.91, 0.488, 192.0, 0.0, 0.0, 0.0, 0.0, 0.0, 0.0, 0.0, 0.0, 0.0, 1.65415520419045E9, 0.0, 2022-06-02 09:33:24.190
25.0, 21659.667391737392, -8201.436186007999, -62936.11978723047, -29232.751337617796, -14361.196978234886, -38741.51870507225, -11015.967847820264, -30056.055492884578, -0.046, 0.91, 0.488, 192.0, 0.0, 0.0, 0.0, 0.0, 0.0, 0.0, 0.0, 0.0, 0.0, 1.6541552041904552E9, 0.0, 2022-06-02 09:33:24.190
26.0, 21663.131912127963, -8187.153421301058, -62919.91477250037, -29220.055546767184, -14353.12799848652, -38727.10182989858, -10994.286655698617, -30041.90683864437, -0.046, 0.91, 0.488, 192.0, 0.0, 0.0, 0.0, 0.0, 0.0, 0.0, 0.0, 0.0, 0.0, 1.6541552041904604E9, 0.0, 2022-06-02 09:33:24.190
27.0, 21677.548787301635, -8165.293415223768, -62899.08294666803, -29202.375316903035, -14328.675190052414, -38700.637364463495, -10978.931007257821, -30011.217893507233, -0.04, 0.912, 0.482, 192.0, 254.0, 192.0, 28.0, 128.0, 15.0, 16.0, 0.0, 0.0, 0.0, 1.6541552041904655E9, 0.0, 2022-06-02 09:33:24.190
28.0, 21664.9647551733, -8173.2282845054015, -62914.08096719754, -29214.892293798006, -14335.9842104893, -38711.03092563521, -10997.617065622457, -30031.580332706017, -0.04, 0.912, 0.482, 192.0, 0.0, 0.0, 0.0, 0.0, 0.0, 0.0, 0.0, 0.0, 0.0, 1.6541552041904705E9, 0.0, 2022-06-02 09:33:24.190
29.0, 21669.323345342083, -8177.005729318349, -62921.56880159007, -29205.92924427143, -14338.197033190374, -38723.72671648583, -10987.469373639748, -30027.355853003963, -0.04, 0.912, 0.482, 192.0, 0.0, 0.0, 0.0, 0.0, 0.0, 0.0, 0.0, 0.0, 0.0, 1.6541552041904757E9, 0.0, 2022-06-02 09:33:24.190
30.0, 21670.61974652049, -8180.04556656427, -62921.971132990264, -29214.78053507573, -14341.21451869184, -38729.85109446658, -10984.474239882737, -30036.207143808264, -0.04, 0.912, 0.482, 192.0, 0.0, 0.0, 0.0, 0.0, 0.0, 0.0, 0.0, 0.0, 0.0, 1.6541552041904807E9, 0.0, 2022-06-02 09:33:24.190
31.0, 21674.464246566804, -8165.6510431350525, -62910.12470842895, -29206.59979660509, -14334.59840233307, -38713.981355903314, -10991.492687641703, -30006.56873066053, -0.04, 0.912, 0.482, 192.0, 0.0, 0.0, 0.0, 0.0, 0.0, 0.0, 0.0, 0.0, 0.0, 1.654155204190487E9, 0.0, 2022-06-02 09:33:24.190
32.0, 21681.99678444824, -8144.1710167135025, -62892.42212682035, -29188.427828362925, -14316.761710257735, -38695.09413183858, -10981.613216592457, -30000.55611140205, -0.04, 0.912, 0.482, 192.0, 0.0, 0.0, 0.0, 0.0, 0.0, 0.0, 0.0, 0.0, 0.0, 1.6541552041904922E9, 0.0, 2022-06-02 09:33:24.190
33.0, 21675.157150644918, -8151.167112728013, -62907.95658921678, -29200.184845946416, -14326.64118130698, -38710.561539001654, -10992.632626608924, -30030.46274548325, -0.04, 0.912, 0.482, 192.0, 0.0, 0.0, 0.0, 0.0, 0.0, 0.0, 0.0, 0.0, 0.0, 1.6541552041904979E9, 0.0, 2022-06-02 09:33:24.190
34.0, 21669.25629010872, -8167.2380169913795, -62927.69317957082, -29219.094421755606, -14344.32141117113, -38731.99686193429, -11009.955228561786, -30044.56669623455, -0.04, 0.912, 0.482, 192.0, 0.0, 0.0, 0.0, 0.0, 0.0, 0.0, 0.0, 0.0, 0.0, 1.654155204190503E9, 0.0, 2022-06-02 09:33:24.190
35.0, 21676.364144845506, -8164.779325101295, -62928.0061039932, -29222.178962490438, -14346.333068172107, -38735.32727185813, -11004.814327337066, -30043.829088667524, -0.04, 0.912, 0.482, 192.0, 0.0, 0.0, 0.0, 0.0, 0.0, 0.0, 0.0, 0.0, 0.0, 1.654155204190508E9, 0.0, 2022-06-02 09:33:24.190
36.0, 21676.699421012334, -8156.66564186402, -62919.15481318889, -29217.127468243536, -14344.991963504788, -38730.32048110014, -10992.185591719817, -30040.386920021407, -0.04, 0.912, 0.482, 192.0, 0.0, 0.0, 0.0, 0.0, 0.0, 0.0, 0.0, 0.0, 0.0, 1.6541552041905131E9, 0.0, 2022-06-02 09:33:24.190
37.0, 21675.58183378957, -8143.858092291128, -62909.4988595842, -29210.421944906946, -14340.633373336002, -38718.56346351665, -10992.230295208728, -30032.295588528585, -0.038, 0.906, 0.484, 192.0, 254.0, 208.0, 28.0, 80.0, 15.0, 32.0, 0.0, 0.0, 0.0, 1.6541552041905181E9, 0.0, 2022-06-02 09:33:24.190
38.0, 21680.588624547556, -8146.585005114675, -62915.10914744248, -29218.4462211664, -14340.208690191352, -38728.21941712134, -10988.922237029343, -30035.067204841045, -0.038, 0.906, 0.484, 192.0, 0.0, 0.0, 0.0, 0.0, 0.0, 0.0, 0.0, 0.0, 0.0, 1.6541552041905231E9, 0.0, 2022-06-02 09:33:24.190
39.0, 21696.547770088648, -8150.608319116631, -62919.601848078, -29213.21591296386, -14344.254355937763, -38735.37197534704, -11007.340074460517, -30042.778556678124, -0.038, 0.906, 0.484, 192.0, 0.0, 0.0, 0.0, 0.0, 0.0, 0.0, 0.0, 0.0, 0.0, 1.6541552041905284E9, 0.0, 2022-06-02 09:33:24.190
40.0, 21687.96470021781, -8157.067973264215, -62924.60863883599, -29225.755241603285, -14355.899614798978, -38746.95017897489, -11025.534394447135, -30051.920420160346, -0.038, 0.906, 0.484, 192.0, 0.0, 0.0, 0.0, 0.0, 0.0, 0.0, 0.0, 0.0, 0.0, 1.6541552041905336E9, 0.0, 2022-06-02 09:33:24.190
41.0, 21677.68289776837, -8147.724944081896, -62915.35501663149, -29231.812564350676, -14349.238794951296, -38739.03766143771, -11005.931914559831, -30045.61722822395, -0.038, 0.906, 0.484, 192.0, 0.0, 0.0, 0.0, 0.0, 0.0, 0.0, 0.0, 0.0, 0.0, 1.654155204190539E9, 0.0, 2022-06-02 09:33:24.190
42.0, 21684.321365871594, -8130.603507829132, -62890.857504708474, -29188.96427022985, -14327.155271429452, -38716.931786171415, -10966.346975129483, -29999.84085557948, -0.038, 0.906, 0.484, 192.0, 0.0, 0.0, 0.0, 0.0, 0.0, 0.0, 0.0, 0.0, 0.0, 1.654155204190544E9, 0.0, 2022-06-02 09:33:24.190
43.0, 21700.48167711278, -8117.371275111589, -62883.794353460595, -29176.044961934684, -14317.544021313672, -38707.208777333355, -10974.907693255866, -30007.9321870723, -0.038, 0.906, 0.484, 192.0, 0.0, 0.0, 0.0, 0.0, 0.0, 0.0, 0.0, 0.0, 0.0, 1.6541552041905515E9, 0.0, 2022-06-02 09:33:24.190
44.0, 21700.839305024067, -8126.446083360444, -62899.08294666803, -29198.217892434346, -14328.07169295212, -38719.09990538358, -10994.063138254063, -30039.738719432204, -0.038, 0.906, 0.484, 192.0, 0.0, 0.0, 0.0, 0.0, 0.0, 0.0, 0.0, 0.0, 0.0, 1.6541552041905565E9, 0.0, 2022-06-02 09:33:24.190
45.0, 21684.85780773852, -8144.215720202414, -62917.36667363247, -29216.613378121066, -14348.054152495164, -38737.7412602593, -11008.502365172191, -30055.13907136191, -0.038, 0.906, 0.484, 192.0, 0.0, 0.0, 0.0, 0.0, 0.0, 0.0, 0.0, 0.0, 0.0, 1.6541552041905615E9, 0.0, 2022-06-02 09:33:24.190
46.0, 21678.465208824302, -8146.0485632477485, -62916.249086409705, -29215.4957908983, -14351.36221067455, -38734.52260905774, -11001.439213924315, -30024.919512858334, -0.038, 0.906, 0.484, 192.0, 0.0, 0.0, 0.0, 0.0, 0.0, 0.0, 0.0, 0.0, 0.0, 1.6541552041905668E9, 0.0, 2022-06-02 09:33:24.190
47.0, 21694.200836920838, -8131.318763651701, -62895.327853599534, -29199.938976757407, -14331.625620320514, -38715.34481231509, -10984.228370693729, -30000.824332335513, -0.04, 0.906, 0.488, 192.0, 254.0, 192.0, 28.0, 80.0, 15.0, 64.0, 0.0, 0.0, 0.0, 1.654155204190572E9, 0.0, 2022-06-02 09:33:24.190
48.0, 21694.446706109848, -8132.928089252483, -62897.987711189715, -29203.179979703425, -14330.619791820025, -38717.267062338244, -10998.779356334133, -30031.80385015057, -0.04, 0.906, 0.488, 192.0, 0.0, 0.0, 0.0, 0.0, 0.0, 0.0, 0.0, 0.0, 0.0, 1.6541552041905792E9, 0.0, 2022-06-02 09:33:24.190
49.0, 21696.368956133003, -8140.170054456003, -62906.7495950162, -29204.58813960411, -14335.447768622373, -38728.465286310355, -11007.831812838533, -30035.33542577451, -0.04, 0.906, 0.488, 192.0, 0.0, 0.0, 0.0, 0.0, 0.0, 0.0, 0.0, 0.0, 0.0, 1.6541552041905844E9, 0.0, 2022-06-02 09:33:24.190
50.0, 21682.108543170518, -8160.934825054983, -62925.16743244737, -29225.93405555893, -14355.989021776799, -38748.51480108676, -11020.996990322708, -30046.399539279886, -0.04, 0.906, 0.488, 192.0, 0.0, 0.0, 0.0, 0.0, 0.0, 0.0, 0.0, 0.0, 0.0, 1.65415520419059E9, 0.0, 2022-06-02 09:33:24.190
51.0, 21682.421467592892, -8150.585967372176, -62911.84579275201, -29216.546322887698, -14345.528405371715, -38735.103754413576, -10986.17297246134, -30048.254734069676, -0.04, 0.906, 0.488, 192.0, 0.0, 0.0, 0.0, 0.0, 0.0, 0.0, 0.0, 0.0, 0.0, 1.6541552041905951E9, 0.0, 2022-06-02 09:33:24.190
52.0, 21693.44087760936, -8127.407208372022, -62891.30453959758, -29194.73102029932, -14325.50124233976, -38715.36716405954, -10966.414030362848, -29996.68925961128, -0.04, 0.906, 0.488, 192.0, 0.0, 0.0, 0.0, 0.0, 0.0, 0.0, 0.0, 0.0, 0.0, 1.654155204190624E9, 0.0, 2022-06-02 09:33:24.190
53.0, 21712.10458422954, -8120.70168503543, -62893.71852799875, -29195.20040693288, -14319.376864359007, -38720.01632690625, -10978.975710746732, -30020.113887800442, -0.04, 0.906, 0.488, 192.0, 0.0, 0.0, 0.0, 0.0, 0.0, 0.0, 0.0, 0.0, 0.0, 1.6541552041906295E9, 0.0, 2022-06-02 09:33:24.190
54.0, 21709.15415396144, -8125.708475793419, -62909.85648749548, -29211.763049574263, -14335.559527344649, -38737.2942253702, -10986.93293177282, -30041.75037643318, -0.04, 0.906, 0.488, 192.0, 0.0, 0.0, 0.0, 0.0, 0.0, 0.0, 0.0, 0.0, 0.0, 1.6541552041906354E9, 0.0, 2022-06-02 09:33:24.190
55.0, 21684.38842110496, -8142.89696727955, -62914.12567068645, -29217.30628219918, -14347.562414117148, -38741.451649838884, -11009.619952394958, -30059.587068508517, -0.04, 0.906, 0.488, 192.0, 0.0, 0.0, 0.0, 0.0, 0.0, 0.0, 0.0, 0.0, 0.0, 1.654155204190641E9, 0.0, 2022-06-02 09:33:24.190
56.0, 21679.381630346972, -8141.667621334508, -62902.949798458794, -29204.49873262629, -14339.292268668685, -38725.20193161988, -11006.602466893492, -30047.159498591365, -0.04, 0.906, 0.488, 192.0, 0.0, 0.0, 0.0, 0.0, 0.0, 0.0, 0.0, 0.0, 0.0, 1.654155204190647E9, 0.0, 2022-06-02 09:33:24.190
57.0, 21684.164903660407, -8138.873653277595, -62898.68061526783, -29196.787380789207, -14332.854966265557, -38710.67329772393, -10989.436327151816, -30007.59691090547, -0.036000000000000004, 0.906, 0.486, 192.0, 254.0, 224.0, 28.0, 80.0, 15.0, 48.0, 0.0, 0.0, 0.0, 1.6541552041906524E9, 0.0, 2022-06-02 09:33:24.190
58.0, 21698.0229852227, -8129.664734562009, -62890.11989714145, -29184.292755638693, -14318.438091091883, -38699.96681212984, -10970.392640875894, -30010.32382372902, -0.036000000000000004, 0.906, 0.486, 192.0, 0.0, 0.0, 0.0, 0.0, 0.0, 0.0, 0.0, 0.0, 0.0, 1.654155204190658E9, 0.0, 2022-06-02 09:33:24.190
59.0, 21687.09298218405, -8144.238071946868, -62898.25593212318, -29191.668831308943, -14326.507070840249, -38714.964832659345, -10984.071908482541, -30025.41125123635, -0.036000000000000004, 0.906, 0.486, 192.0, 0.0, 0.0, 0.0, 0.0, 0.0, 0.0, 0.0, 0.0, 0.0, 1.6541552041906643E9, 0.0, 2022-06-02 09:33:24.190
60.0, 21672.184368632363, -8161.940653555472, -62909.47650783975, -29202.621186092045, -14341.907422769955, -38723.972585674834, -10994.152545231886, -30038.062338598054, -0.036000000000000004, 0.906, 0.486, 192.0, 0.0, 0.0, 0.0, 0.0, 0.0, 0.0, 0.0, 0.0, 0.0, 1.65415520419067E9, 0.0, 2022-06-02 09:33:24.190
61.0, 21664.67418249538, -8157.582063386687, -62902.59217054751, -29197.390877889502, -14342.130940214509, -38716.35064081557, -10997.550010389092, -30041.795079922093, -0.036000000000000004, 0.906, 0.486, 192.0, 0.0, 0.0, 0.0, 0.0, 0.0, 0.0, 0.0, 0.0, 0.0, 1.6541552041906755E9, 0.0, 2022-06-02 09:33:24.190
62.0, 21668.63044126397, -8145.735638825374, -62888.35410932948, -29195.960366244362, -14326.21649816233, -38702.134931342, -10979.445097380292, -30018.75043138867, -0.036000000000000004, 0.906, 0.486, 192.0, 0.0, 0.0, 0.0, 0.0, 0.0, 0.0, 0.0, 0.0, 0.0, 1.6541552041906815E9, 0.0, 2022-06-02 09:33:24.190
63.0, 21672.51964479919, -8149.200159215947, -62882.94498717129, -29190.215967919346, -14314.101852667554, -38694.960021371844, -10972.717222299245, -30000.712573613237, -0.036000000000000004, 0.906, 0.486, 192.0, 0.0, 0.0, 0.0, 0.0, 0.0, 0.0, 0.0, 0.0, 0.0, 1.654155204190687E9, 0.0, 2022-06-02 09:33:24.190
64.0, 21660.80733070461, -8170.90370308205, -62904.96145545977, -29200.45306687988, -14331.580916831605, -38717.17765536042, -10988.117574228952, -30022.080841312512, -0.036000000000000004, 0.906, 0.486, 192.0, 0.0, 0.0, 0.0, 0.0, 0.0, 0.0, 0.0, 0.0, 0.0, 1.6541552041906953E9, 0.0, 2022-06-02 09:33:24.190
65.0, 21648.22329857627, -8184.560618944242, -62911.57757181855, -29200.87775002453, -14347.048323994677, -38725.023117664234, -10999.65107436789, -30042.242114811197, -0.036000000000000004, 0.906, 0.486, 192.0, 0.0, 0.0, 0.0, 0.0, 0.0, 0.0, 0.0, 0.0, 0.0, 1.6541552041907008E9, 0.0, 2022-06-02 09:33:24.190
66.0, 21656.67225798038, -8170.90370308205, -62889.22582736324, -29187.06437195115, -14334.12901569951, -38703.923070898425, -10997.550010389092, -30017.632844165906, -0.036000000000000004, 0.906, 0.486, 192.0, 0.0, 0.0, 0.0, 0.0, 0.0, 0.0, 0.0, 0.0, 0.0, 1.6541552041907065E9, 0.0, 2022-06-02 09:33:24.190
67.0, 21656.359333558004, -8163.818200089718, -62880.91097842586, -29181.454084092868, -14318.952181214356, -38693.79773066017, -10977.992233990697, -30000.37729744641, -0.034, 0.902, 0.486, 192.0, 254.0, 240.0, 28.0, 48.0, 15.0, 48.0, 0.0, 0.0, 0.0, 1.654155204190712E9, 0.0, 2022-06-02 09:33:24.190
68.0, 21658.19217660334, -8168.556769914243, -62884.77783021663, -29189.67952605242, -14319.533326570194, -38700.905585396955, -10983.177838704329, -30006.479323682706, -0.034, 0.902, 0.486, 192.0, 0.0, 0.0, 0.0, 0.0, 0.0, 0.0, 0.0, 0.0, 0.0, 1.6541552041907177E9, 0.0, 2022-06-02 09:33:24.190
69.0, 21639.304952538605, -8198.821031906728, -62910.728205529245, -29220.12260200055, -14353.016239764243, -38734.410850335466, -11016.817214109566, -30043.247943311686, -0.034, 0.902, 0.486, 192.0, 0.0, 0.0, 0.0, 0.0, 0.0, 0.0, 0.0, 0.0, 0.0, 1.6541552041907232E9, 0.0, 2022-06-02 09:33:24.190
70.0, 21629.738405911732, -8202.82199416423, -62912.941028230314, -29223.02832877974, -14361.241681723795, -38739.41764109345, -11025.824967125054, -30058.603591752482, -0.034, 0.902, 0.486, 192.0, 0.0, 0.0, 0.0, 0.0, 0.0, 0.0, 0.0, 0.0, 0.0, 1.654155204190729E9, 0.0, 2022-06-02 09:33:24.190
71.0, 21654.168862601386, -8182.057223565248, -62893.807934976576, -29208.119715228047, -14350.199919962875, -38723.972585674834, -11021.287563000627, -30054.177946350334, -0.034, 0.902, 0.486, 192.0, 0.0, 0.0, 0.0, 0.0, 0.0, 0.0, 0.0, 0.0, 0.0, 1.6541552041907349E9, 0.0, 2022-06-02 09:33:24.190
72.0, 21655.42056029088, -8165.583987901687, -62870.62917597642, -29192.62995632052, -14325.523594084216, -38708.77339944523, -10993.861972553967, -29997.873902067415, -0.034, 0.902, 0.486, 192.0, 0.0, 0.0, 0.0, 0.0, 0.0, 0.0, 0.0, 0.0, 0.0, 1.6541552041907406E9, 0.0, 2022-06-02 09:33:24.190
73.0, 21650.972563144274, -8165.695746623964, -62869.891568409395, -29192.45114236488, -14325.724759784312, -38706.87350116653, -11003.696740114301, -30010.726155129214, -0.034, 0.902, 0.486, 192.0, 0.0, 0.0, 0.0, 0.0, 0.0, 0.0, 0.0, 0.0, 0.0, 1.6541552041907463E9, 0.0, 2022-06-02 09:33:24.190
74.0, 21666.57408077408, -8173.608264161142, -62881.80504820408, -29212.813581563663, -14335.760693044745, -38719.457533294866, -10991.023301008141, -30049.439376525806, -0.034, 0.902, 0.486, 192.0, 0.0, 0.0, 0.0, 0.0, 0.0, 0.0, 0.0, 0.0, 0.0, 1.6541552041907518E9, 0.0, 2022-06-02 09:33:24.190
75.0, 21661.880214438464, -8177.676281652008, -62885.22486510574, -29216.993357776806, -14344.8355012936, -38733.650891023986, -10992.7443853312, -30041.929190388822, -0.034, 0.902, 0.486, 192.0, 0.0, 0.0, 0.0, 0.0, 0.0, 0.0, 0.0, 0.0, 0.0, 1.6541552041907575E9, 0.0, 2022-06-02 09:33:24.190
76.0, 21648.558574743103, -8174.614092661631, -62873.8925306669, -29193.83695052111, -14342.55562335916, -38724.41962056394, -10996.901809799887, -30026.26061752565, -0.034, 0.902, 0.486, 192.0, 0.0, 0.0, 0.0, 0.0, 0.0, 0.0, 0.0, 0.0, 0.0, 1.6541552041907632E9, 0.0, 2022-06-02 09:33:24.190
77.0, 21667.80342671912, -8150.675374349997, -62846.82456813152, -29177.140197412995, -14321.299114382162, -38700.011515618746, -10971.443172865293, -30025.388899491896, -0.036000000000000004, 0.9, 0.47400000000000003, 192.0, 254.0, 224.0, 28.0, 32.0, 14.0, 208.0, 0.0, 0.0, 0.0, 1.6541552041907687E9, 0.0, 2022-06-02 09:33:24.190
78.0, 21678.688726268858, -8147.344964426156, -62853.12776006792, -29188.11490394055, -14323.199012660863, -38704.548919743174, -10977.74636480169, -30023.80192563557, -0.036000000000000004, 0.9, 0.47400000000000003, 192.0, 0.0, 0.0, 0.0, 0.0, 0.0, 0.0, 0.0, 0.0, 0.0, 1.6541552041907744E9, 0.0, 2022-06-02 09:33:24.190
79.0, 21683.29318562665, -8157.358545942134, -62874.786600445106, -29209.974910017838, -14343.583803604104, -38722.38561181851, -11004.255533725684, -30027.914646615347, -0.036000000000000004, 0.9, 0.47400000000000003, 192.0, 0.0, 0.0, 0.0, 0.0, 0.0, 0.0, 0.0, 0.0, 0.0, 1.65415520419078E9, 0.0, 2022-06-02 09:33:24.190
80.0, 21679.47103732479, -8164.064069278726, -62879.83809469201, -29221.195485734403, -14357.754809588769, -38733.24855962379, -11019.298257744105, -30055.2955335731, -0.036000000000000004, 0.9, 0.47400000000000003, 192.0, 0.0, 0.0, 0.0, 0.0, 0.0, 0.0, 0.0, 0.0, 0.0, 1.6541552041907856E9, 0.0, 2022-06-02 09:33:24.190
81.0, 21682.53322631517, -8152.6199761176085, -62868.282242808615, -29210.73486932932, -14357.017202021743, -38720.17278911743, -11015.520812931158, -30024.874809369423, -0.036000000000000004, 0.9, 0.47400000000000003, 192.0, 0.0, 0.0, 0.0, 0.0, 0.0, 0.0, 0.0, 0.0, 0.0, 1.6541552041907911E9, 0.0, 2022-06-02 09:33:24.190
82.0, 21694.15613343193, -8138.337211410668, -62855.31823102453, -29194.127523199026, -14344.053190237664, -38709.2874895677, -10991.73855683071, -30005.56290216004, -0.036000000000000004, 0.9, 0.47400000000000003, 192.0, 0.0, 0.0, 0.0, 0.0, 0.0, 0.0, 0.0, 0.0, 0.0, 1.6541552041907976E9, 0.0, 2022-06-02 09:33:24.190
83.0, 21727.370825692517, -8122.17690016948, -62842.46597796273, -29182.638726548998, -14327.73641678529, -38698.044562106676, -10970.54910308708, -30019.733908144703, -0.036000000000000004, 0.9, 0.47400000000000003, 192.0, 0.0, 0.0, 0.0, 0.0, 0.0, 0.0, 0.0, 0.0, 0.0, 1.6541552041908033E9, 0.0, 2022-06-02 09:33:24.190
84.0, 21709.824706295098, -8126.736656038363, -62852.121931567424, -29189.388953374502, -14330.329219142106, -38706.00178313277, -10978.260454924162, -30031.937960617302, -0.036000000000000004, 0.9, 0.47400000000000003, 192.0, 0.0, 0.0, 0.0, 0.0, 0.0, 0.0, 0.0, 0.0, 0.0, 1.6541552041908092E9, 0.0, 2022-06-02 09:33:24.190
85.0, 21694.849037510045, -8131.475225862888, -62863.90130089538, -29198.55316860118, -14344.768446060234, -38715.36716405954, -11004.009664536676, -30037.391786264398, -0.036000000000000004, 0.9, 0.47400000000000003, 192.0, 0.0, 0.0, 0.0, 0.0, 0.0, 0.0, 0.0, 0.0, 0.0, 1.654155204190815E9, 0.0, 2022-06-02 09:33:24.190
86.0, 21701.554560846635, -8119.293525134746, -62855.005306602165, -29194.48515111031, -14344.03083849321, -38703.25251856477, -11003.517926158658, -30023.24313202419, -0.036000000000000004, 0.9, 0.47400000000000003, 192.0, 0.0, 0.0, 0.0, 0.0, 0.0, 0.0, 0.0, 0.0, 0.0, 1.6541552041908228E9, 0.0, 2022-06-02 09:33:24.190
87.0, 21726.432052425393, -8102.149737137525, -62832.81002435804, -29167.10426415256, -14322.796681260668, -38686.08637882309, -10966.12345768493, -30012.044908052078, -0.034, 0.906, 0.47400000000000003, 192.0, 254.0, 240.0, 28.0, 80.0, 14.0, 208.0, 0.0, 0.0, 0.0, 1.6541552041908283E9, 0.0, 2022-06-02 09:33:24.190
88.0, 21732.690540872878, -8111.60452504212, -62846.757512898155, -29185.656212050464, -14329.50220459726, -38704.37010578753, -10979.623911335935, -30019.84566686698, -0.034, 0.906, 0.47400000000000003, 192.0, 0.0, 0.0, 0.0, 0.0, 0.0, 0.0, 0.0, 0.0, 0.0, 1.654155204190834E9, 0.0, 2022-06-02 09:33:24.190
89.0, 21708.327139416593, -8127.474263605388, -62870.62917597642, -29214.78053507573, -14347.897690283979, -38729.225245621834, -10997.41589992236, -30026.640597181395, -0.034, 0.906, 0.47400000000000003, 192.0, 0.0, 0.0, 0.0, 0.0, 0.0, 0.0, 0.0, 0.0, 0.0, 1.6541552041908402E9, 0.0, 2022-06-02 09:33:24.190
90.0, 21693.709098542822, -8139.208929444424, -62885.24721685019, -29210.6454623515, -14366.449638181883, -38741.317539372154, -11024.819138624565, -30058.447129541295, -0.034, 0.906, 0.47400000000000003, 192.0, 0.0, 0.0, 0.0, 0.0, 0.0, 0.0, 0.0, 0.0, 0.0, 1.6541552041908457E9, 0.0, 2022-06-02 09:33:24.190
91.0, 21701.711023057822, -8120.768740268796, -62870.24919632068, -29195.714497055353, -14353.440922908894, -38724.73254498631, -11011.944533818309, -30058.447129541295, -0.034, 0.906, 0.47400000000000003, 192.0, 0.0, 0.0, 0.0, 0.0, 0.0, 0.0, 0.0, 0.0, 0.0, 1.6541552041908517E9, 0.0, 2022-06-02 09:33:24.190
92.0, 21712.05988074063, -8113.213850642902, -62861.12968458291, -29191.11003769756, -14339.046399479676, -38717.825855949624, -10991.850315552989, -30032.89908562888, -0.034, 0.906, 0.47400000000000003, 192.0, 0.0, 0.0, 0.0, 0.0, 0.0, 0.0, 0.0, 0.0, 0.0, 1.6541552041908572E9, 0.0, 2022-06-02 09:33:24.190
93.0, 21730.880049572, -8105.524850550277, -62850.82553038902, -29181.63289804851, -14328.094044696576, -38707.11937035553, -10975.064155467053, -30000.734925357694, -0.034, 0.906, 0.47400000000000003, 192.0, 0.0, 0.0, 0.0, 0.0, 0.0, 0.0, 0.0, 0.0, 0.0, 1.654155204190863E9, 0.0, 2022-06-02 09:33:24.190
94.0, 21725.91796230292, -8113.5267750652765, -62856.614632202945, -29190.10420919707, -14328.854004008057, -38714.09311462559, -10984.720109071744, -30023.287835513096, -0.034, 0.906, 0.47400000000000003, 192.0, 0.0, 0.0, 0.0, 0.0, 0.0, 0.0, 0.0, 0.0, 0.0, 1.6541552041908684E9, 0.0, 2022-06-02 09:33:24.190
95.0, 21716.552581376145, -8131.2517084183355, -62874.83130393402, -29210.421944906946, -14350.17756821842, -38727.839437465605, -11009.731711117234, -30042.51033574466, -0.034, 0.906, 0.47400000000000003, 192.0, 0.0, 0.0, 0.0, 0.0, 0.0, 0.0, 0.0, 0.0, 0.0, 1.6541552041908765E9, 0.0, 2022-06-02 09:33:24.190
96.0, 21734.478680429303, -8111.582173297665, -62859.408600259856, -29193.81459877665, -14337.884108768, -38708.102847111564, -10988.251684695684, -30014.771820875627, -0.034, 0.906, 0.47400000000000003, 192.0, 0.0, 0.0, 0.0, 0.0, 0.0, 0.0, 0.0, 0.0, 0.0, 1.6541552041908824E9, 0.0, 2022-06-02 09:33:24.190
97.0, 21747.7332648913, -8091.711472476897, -62842.22010877373, -29175.642630534487, -14315.621771290515, -38689.237974791286, -10968.470390852737, -30006.94871031627, -0.034, 0.904, 0.47600000000000003, 192.0, 254.0, 240.0, 28.0, 64.0, 14.0, 224.0, 0.0, 0.0, 0.0, 1.654155204190888E9, 0.0, 2022-06-02 09:33:24.190
98.0, 21735.171584507418, -8098.4393475579445, -62854.021829846126, -29186.61733706204, -14321.522631826716, -38697.619878962025, -10989.279864940629, -30019.108059299953, -0.034, 0.904, 0.47600000000000003, 192.0, 0.0, 0.0, 0.0, 0.0, 0.0, 0.0, 0.0, 0.0, 0.0, 1.6541552041908937E9, 0.0, 2022-06-02 09:33:24.190
99.0, 21727.25906697024, -8112.655057031519, -62877.60292024648, -29212.232436207825, -14342.309754170152, -38716.216530348844, -11012.79390010761, -30036.095385085988, -0.034, 0.904, 0.47600000000000003, 192.0, 0.0, 0.0, 0.0, 0.0, 0.0, 0.0, 0.0, 0.0, 0.0, 1.6541552041908991E9, 0.0, 2022-06-02 09:33:24.190
100.0, 21716.68669184288, -8127.094283949648, -62891.3939465754, -29222.02250027925, -14353.440922908894, -38733.203856134875, -11009.172917505852, -30043.404405522873, -0.034, 0.904, 0.47600000000000003, 192.0, 0.0, 0.0, 0.0, 0.0, 0.0, 0.0, 0.0, 0.0, 0.0, 1.6541552041909049E9, 0.0, 2022-06-02 09:33:24.190
101.0, 21707.589531849568, -8133.1963101859465, -62887.05770815107, -29219.899084555997, -14349.439960651394, -38733.986167190815, -11003.830850581033, -30034.28489378511, -0.034, 0.904, 0.47600000000000003, 192.0, 0.0, 0.0, 0.0, 0.0, 0.0, 0.0, 0.0, 0.0, 0.0, 1.6541552041909103E9, 0.0, 2022-06-02 09:33:24.190
102.0, 21713.78096506369, -8120.768740268796, -62871.90322541037, -29212.97004377485, -14329.345742386073, -38718.49640828329, -10995.583056877025, -30037.79411766459, -0.034, 0.904, 0.47600000000000003, 192.0, 0.0, 0.0, 0.0, 0.0, 0.0, 0.0, 0.0, 0.0, 0.0, 1.654155204190916E9, 0.0, 2022-06-02 09:33:24.190
103.0, 21711.836363296075, -8128.457740361422, -62882.56500751556, -29221.463706667866, -14326.30590514015, -38726.09600139809, -10988.609312606968, -30042.95737063377, -0.034, 0.904, 0.47600000000000003, 192.0, 0.0, 0.0, 0.0, 0.0, 0.0, 0.0, 0.0, 0.0, 0.0, 1.6541552041909218E9, 0.0, 2022-06-02 09:33:24.190
104.0, 21699.185275934375, -8150.340098183167, -62907.88953398342, -29235.902933585996, -14345.170777460431, -38745.74318477431, -11004.41199593687, -30031.312111772553, -0.034, 0.904, 0.47600000000000003, 192.0, 0.0, 0.0, 0.0, 0.0, 0.0, 0.0, 0.0, 0.0, 0.0, 1.6541552041909275E9, 0.0, 2022-06-02 09:33:24.190
105.0, 21697.263025911216, -8152.195292972958, -62905.65435953789, -29241.200297021904, -14353.597385120082, -38750.36999587655, -11018.761815877178, -30047.539478247105, -0.034, 0.904, 0.47600000000000003, 192.0, 0.0, 0.0, 0.0, 0.0, 0.0, 0.0, 0.0, 0.0, 0.0, 1.6541552041909332E9, 0.0, 2022-06-02 09:33:24.190
106.0, 21703.610921336523, -8140.3712201561, -62897.07128966705, -29233.757166118285, -14353.664440353446, -38742.435126594915, -11020.32643798905, -30053.306228316575, -0.034, 0.904, 0.47600000000000003, 192.0, 0.0, 0.0, 0.0, 0.0, 0.0, 0.0, 0.0, 0.0, 0.0, 1.6541552041909387E9, 0.0, 2022-06-02 09:33:24.190
107.0, 21733.070520528618, -8106.441272072944, -62869.86921666494, -29208.63380535052, -14331.536213342693, -38711.00857389076, -11000.343978446004, -30018.102230799464, -0.03, 0.906, 0.47800000000000004, 192.0, 255.0, 16.0, 28.0, 80.0, 14.0, 240.0, 0.0, 0.0, 0.0, 1.6541552041909473E9, 0.0, 2022-06-02 09:33:24.190
108.0, 21742.614715411033, -8093.723129477875, -62859.49800723768, -29197.10030521158, -14323.31077138314, -38699.60918421855, -10992.789088820111, -30000.17613174631, -0.03, 0.906, 0.47800000000000004, 192.0, 0.0, 0.0, 0.0, 0.0, 0.0, 0.0, 0.0, 0.0, 0.0, 1.6541552041909528E9, 0.0, 2022-06-02 09:33:24.190
109.0, 21731.34943620556, -8111.984504697861, -62869.31042305356, -29206.465686138356, -14331.536213342693, -38711.545015757685, -10995.65011211039, -30033.189658306797, -0.03, 0.906, 0.47800000000000004, 192.0, 0.0, 0.0, 0.0, 0.0, 0.0, 0.0, 0.0, 0.0, 0.0, 1.6541552041909585E9, 0.0, 2022-06-02 09:33:24.190
110.0, 21718.6759970994, -8125.641420560053, -62879.122838869436, -29225.822296836654, -14345.327239671618, -38726.72185024284, -11012.235106496228, -30033.927265873823, -0.03, 0.906, 0.47800000000000004, 192.0, 0.0, 0.0, 0.0, 0.0, 0.0, 0.0, 0.0, 0.0, 0.0, 1.6541552041909647E9, 0.0, 2022-06-02 09:33:24.190
111.0, 21711.09875572905, -8113.973809954383, -62873.75842020017, -29212.88063679703, -14345.75192281627, -38724.196103119386, -11015.520812931158, -30045.23724856821, -0.03, 0.906, 0.47800000000000004, 192.0, 0.0, 0.0, 0.0, 0.0, 0.0, 0.0, 0.0, 0.0, 0.0, 1.6541552041909704E9, 0.0, 2022-06-02 09:33:24.190
112.0, 21719.14538373296, -8099.646341758531, -62859.67682119332, -29191.73588654231, -14333.659629065947, -38712.461437280355, -10988.02816725113, -30042.33152178902, -0.03, 0.906, 0.47800000000000004, 192.0, 0.0, 0.0, 0.0, 0.0, 0.0, 0.0, 0.0, 0.0, 0.0, 1.654155204190976E9, 0.0, 2022-06-02 09:33:24.190
113.0, 21727.080253014596, -8091.443251543433, -62853.30657402356, -29186.751447528775, -14326.64118130698, -38705.33123079911, -10982.440231137303, -29992.665945609326, -0.03, 0.906, 0.47800000000000004, 192.0, 0.0, 0.0, 0.0, 0.0, 0.0, 0.0, 0.0, 0.0, 0.0, 1.6541552041909816E9, 0.0, 2022-06-02 09:33:24.190
114.0, 21732.95876180634, -8106.240106372847, -62861.53201598311, -29197.72615405633, -14329.83748076409, -38716.0377163932, -10986.12826897243, -30032.94378911779, -0.03, 0.906, 0.47800000000000004, 192.0, 0.0, 0.0, 0.0, 0.0, 0.0, 0.0, 0.0, 0.0, 0.0, 1.6541552041909873E9, 0.0, 2022-06-02 09:33:24.190
115.0, 21718.11720348802, -8120.947554224438, -62873.82547543353, -29214.065279253162, -14341.84036753659, -38729.47111481084, -10995.091318499008, -30048.47825151423, -0.03, 0.906, 0.47800000000000004, 192.0, 0.0, 0.0, 0.0, 0.0, 0.0, 0.0, 0.0, 0.0, 0.0, 1.6541552041909933E9, 0.0, 2022-06-02 09:33:24.190
116.0, 21721.87229655651, -8110.442234330444, -62862.09080959449, -29207.44916289439, -14337.012390734244, -38718.20583560537, -10990.643321352401, -30016.26938775413, -0.032, 0.908, 0.47400000000000003, 192.0, 255.0, 0.0, 28.0, 96.0, 14.0, 208.0, 0.0, 0.0, 0.0, 1.6541552041909988E9, 0.0, 2022-06-02 09:33:24.190
117.0, 21721.939351789875, -8099.914562691994, -62848.433893732305, -29196.429752877924, -14327.02116096272, -38705.57709998812, -10988.117574228952, -30010.055602795557, -0.032, 0.908, 0.47400000000000003, 192.0, 0.0, 0.0, 0.0, 0.0, 0.0, 0.0, 0.0, 0.0, 0.0, 1.6541552041910045E9, 0.0, 2022-06-02 09:33:24.191
118.0, 21732.48937517278, -8089.878629431561, -62840.40961747285, -29196.07212496664, -14318.080463180599, -38694.42357950492, -10985.301254427583, -30020.583274434004, -0.032, 0.908, 0.47400000000000003, 192.0, 0.0, 0.0, 0.0, 0.0, 0.0, 0.0, 0.0, 0.0, 0.0, 1.65415520419101E9, 0.0, 2022-06-02 09:33:24.191
119.0, 21740.893631087976, -8098.864030702595, -62859.050972348574, -29206.10805822707, -14328.585783074592, -38710.69564946838, -10995.158373732374, -30034.150783318375, -0.032, 0.908, 0.47400000000000003, 192.0, 0.0, 0.0, 0.0, 0.0, 0.0, 0.0, 0.0, 0.0, 0.0, 1.6541552041910157E9, 0.0, 2022-06-02 09:33:24.191
120.0, 21742.34649447757, -8107.067120917693, -62872.57377774403, -29206.331575671626, -14343.136768714998, -38723.86082695256, -10993.437289409316, -30026.931169859312, -0.032, 0.908, 0.47400000000000003, 192.0, 0.0, 0.0, 0.0, 0.0, 0.0, 0.0, 0.0, 0.0, 0.0, 1.6541552041910214E9, 0.0, 2022-06-02 09:33:24.191
121.0, 21736.15506126345, -8098.998141169327, -62862.64960320588, -29193.34521214309, -14336.878280267512, -38707.387591289, -11000.813365079566, -30018.638672666395, -0.032, 0.908, 0.47400000000000003, 192.0, 0.0, 0.0, 0.0, 0.0, 0.0, 0.0, 0.0, 0.0, 0.0, 1.6541552046709752E9, 0.0, 2022-06-02 09:33:24.670
122.0, 21741.16185202144, -8081.876704916562, -62843.62826867441, -29173.47451132232, -14320.02506494821, -38684.074721822115, -10980.450925880781, -30012.1343150299, -0.032, 0.908, 0.47400000000000003, 192.0, 0.0, 0.0, 0.0, 0.0, 0.0, 0.0, 0.0, 0.0, 0.0, 1.6541552046711657E9, 0.0, 2022-06-02 09:33:24.671
123.0, 21767.223986056328, -8072.913655389983, -62835.20166101476, -29174.457988078357, -14314.817108490124, -38681.9289543544, -10971.59963507648, -30011.776687118614, -0.032, 0.908, 0.47400000000000003, 192.0, 0.0, 0.0, 0.0, 0.0, 0.0, 0.0, 0.0, 0.0, 0.0, 1.6541552046711714E9, 0.0, 2022-06-02 09:33:24.671
124.0, 21757.188052795897, -8086.972902652372, -62857.55340547007, -29194.373392388035, -14328.116396441032, -38700.86088190805, -10980.875609025432, -30018.392803477385, -0.032, 0.908, 0.47400000000000003, 192.0, 0.0, 0.0, 0.0, 0.0, 0.0, 0.0, 0.0, 0.0, 0.0, 1.6541552046711771E9, 0.0, 2022-06-02 09:33:24.671
125.0, 21743.955820078354, -8098.461699302399, -62872.01498413265, -29196.340345900102, -14342.823844292623, -38708.326364556124, -10998.578190634036, -30014.57065517553, -0.032, 0.908, 0.47400000000000003, 192.0, 0.0, 0.0, 0.0, 0.0, 0.0, 0.0, 0.0, 0.0, 0.0, 1.654155204671183E9, 0.0, 2022-06-02 09:33:24.671
126.0, 21744.313447989636, -8090.482126531855, -62863.789542173094, -29191.244148164293, -14342.98030650381, -38701.50908249725, -11007.496536671702, -30015.732945887205, -0.038, 0.902, 0.47800000000000004, 192.0, 254.0, 208.0, 28.0, 48.0, 14.0, 240.0, 0.0, 0.0, 0.0, 1.6541552046711888E9, 0.0, 2022-06-02 09:33:24.671
127.0, 21755.48932021729, -8076.422879269467, -62853.10540832346, -29181.29762188168, -14327.065864451632, -38686.89104162348, -10987.469373639748, -30002.992451547678, -0.038, 0.902, 0.47800000000000004, 192.0, 0.0, 0.0, 0.0, 0.0, 0.0, 0.0, 0.0, 0.0, 0.0, 1.6541552046711943E9, 0.0, 2022-06-02 09:33:24.671
128.0, 21759.44557898588, -8079.574475237665, -62857.53105372561, -29186.237357406302, -14322.371998116017, -38690.24380329178, -10983.781335804622, -30008.490980683684, -0.038, 0.902, 0.47800000000000004, 192.0, 0.0, 0.0, 0.0, 0.0, 0.0, 0.0, 0.0, 0.0, 0.0, 1.6541552046712153E9, 0.0, 2022-06-02 09:33:24.671
129.0, 21758.998544096776, -8088.492821275333, -62870.07038236504, -29197.949671500883, -14329.144576685976, -38702.40315227547, -10999.047577267596, -30029.255751282664, -0.038, 0.902, 0.47800000000000004, 192.0, 0.0, 0.0, 0.0, 0.0, 0.0, 0.0, 0.0, 0.0, 0.0, 1.6541552046712205E9, 0.0, 2022-06-02 09:33:24.671
130.0, 21755.712837661846, -8090.325664320668, -62880.21807434775, -29202.01768899175, -14343.449693137372, -38712.84141693609, -11013.911487330377, -30036.341254274997, -0.038, 0.902, 0.47800000000000004, 192.0, 0.0, 0.0, 0.0, 0.0, 0.0, 0.0, 0.0, 0.0, 0.0, 1.654155204671226E9, 0.0, 2022-06-02 09:33:24.671
131.0, 21746.995657324274, -8092.762004466296, -62879.97220515874, -29204.476380881835, -14348.41178040645, -38717.78115246072, -11003.8979058144, -30044.879620656924, -0.038, 0.902, 0.47800000000000004, 192.0, 0.0, 0.0, 0.0, 0.0, 0.0, 0.0, 0.0, 0.0, 0.0, 1.6541552046712313E9, 0.0, 2022-06-02 09:33:24.671
132.0, 21747.263878257738, -8083.776603195263, -62867.32111779704, -29196.452104622378, -14333.92784999941, -38701.01734411924, -10983.31194917106, -30036.855344397467, -0.038, 0.902, 0.47800000000000004, 192.0, 0.0, 0.0, 0.0, 0.0, 0.0, 0.0, 0.0, 0.0, 0.0, 1.6541552046712365E9, 0.0, 2022-06-02 09:33:24.671
133.0, 21763.78181741021, -8072.868951901073, -62858.87215839293, -29188.897214996483, -14323.64604754997, -38682.398340987966, -10989.995120763198, -29993.26944270962, -0.038, 0.902, 0.47800000000000004, 192.0, 0.0, 0.0, 0.0, 0.0, 0.0, 0.0, 0.0, 0.0, 0.0, 1.6541552046712415E9, 0.0, 2022-06-02 09:33:24.671
134.0, 21761.479587731315, -8080.669710715975, -62867.34346954149, -29181.364677115045, -14335.31365815564, -38693.23893704879, -10997.527658644636, -29985.111055983434, -0.038, 0.902, 0.47800000000000004, 192.0, 0.0, 0.0, 0.0, 0.0, 0.0, 0.0, 0.0, 0.0, 0.0, 1.6541552046712472E9, 0.0, 2022-06-02 09:33:24.671
135.0, 21771.336707036106, -8083.955417150905, -62871.702059710275, -29192.361735387058, -14344.343762915583, -38696.54699522817, -11010.782243106634, -30017.498733699173, -0.038, 0.902, 0.47800000000000004, 192.0, 0.0, 0.0, 0.0, 0.0, 0.0, 0.0, 0.0, 0.0, 0.0, 1.6541552046712525E9, 0.0, 2022-06-02 09:33:24.671
136.0, 21772.342535536594, -8076.60169322511, -62863.878949150916, -29184.91860448344, -14343.27087918173, -38694.758855671746, -11009.888173328422, -30021.1867715343, -0.038, 0.9, 0.47800000000000004, 192.0, 254.0, 208.0, 28.0, 32.0, 14.0, 240.0, 0.0, 0.0, 0.0, 1.6541552046712575E9, 0.0, 2022-06-02 09:33:24.671
137.0, 21777.885768161508, -8055.434591225933, -62844.857614619454, -29160.91283093844, -14323.713102783335, -38678.66559966393, -10993.861972553967, -30011.016727807135, -0.038, 0.9, 0.47800000000000004, 192.0, 0.0, 0.0, 0.0, 0.0, 0.0, 0.0, 0.0, 0.0, 0.0, 1.6541552046712627E9, 0.0, 2022-06-02 09:33:24.671
138.0, 21790.13452412302, -8046.002155065794, -62840.56607968403, -29162.477453050313, -14312.626637533504, -38676.095149051565, -10976.807591534567, -30005.98758530469, -0.038, 0.9, 0.47800000000000004, 192.0, 0.0, 0.0, 0.0, 0.0, 0.0, 0.0, 0.0, 0.0, 0.0, 1.654155204671268E9, 0.0, 2022-06-02 09:33:24.671
139.0, 21783.87603567553, -8061.69307967342, -62864.19187357329, -29191.244148164293, -14328.339913885584, -38701.79965517517, -10985.837696294511, -30024.584236691506, -0.038, 0.9, 0.47800000000000004, 192.0, 0.0, 0.0, 0.0, 0.0, 0.0, 0.0, 0.0, 0.0, 0.0, 1.6541552046712732E9, 0.0, 2022-06-02 09:33:24.671
140.0, 21775.87411116053, -8074.83590541314, -62876.887664423906, -29203.470552381346, -14349.12703622902, -38717.40117280497, -11009.955228561786, -30042.443280511296, -0.038, 0.9, 0.47800000000000004, 192.0, 0.0, 0.0, 0.0, 0.0, 0.0, 0.0, 0.0, 0.0, 0.0, 1.6541552046712785E9, 0.0, 2022-06-02 09:33:24.671
141.0, 21777.21521582785, -8061.916597117973, -62858.9392136263, -29189.50071209678, -14338.509957612749, -38702.96194588685, -10999.516963901158, -30007.954538816757, -0.038, 0.9, 0.47800000000000004, 192.0, 0.0, 0.0, 0.0, 0.0, 0.0, 0.0, 0.0, 0.0, 0.0, 1.6541552046712835E9, 0.0, 2022-06-02 09:33:24.671
142.0, 21787.45231478838, -8046.471541699356, -62841.72837039571, -29170.904060709963, -14321.45557659335, -38684.499404966766, -10995.113670243463, -30004.825294593014, -0.038, 0.9, 0.47800000000000004, 192.0, 0.0, 0.0, 0.0, 0.0, 0.0, 0.0, 0.0, 0.0, 0.0, 1.6541552046712887E9, 0.0, 2022-06-02 09:33:24.671
143.0, 21795.141314881006, -8041.174178263448, -62839.04616106107, -29164.19853737337, -14311.68786426638, -38679.716131653324, -10983.669577082346, -30014.302434242065, -0.038, 0.9, 0.47800000000000004, 192.0, 0.0, 0.0, 0.0, 0.0, 0.0, 0.0, 0.0, 0.0, 0.0, 1.654155204671294E9, 0.0, 2022-06-02 09:33:24.671
144.0, 21796.21419861486, -8052.908844102484, -62849.66323967734, -29175.419113089934, -14319.466271336827, -38693.41775100443, -10973.432478121815, -30009.04977429507, -0.038, 0.9, 0.47800000000000004, 192.0, 0.0, 0.0, 0.0, 0.0, 0.0, 0.0, 0.0, 0.0, 0.0, 1.6541552046712992E9, 0.0, 2022-06-02 09:33:24.671
145.0, 21782.579634497124, -8062.07305932916, -62865.890606151894, -29190.52889234172, -14336.69946631187, -38707.36523954454, -10998.265266211662, -30014.97298657572, -0.038, 0.9, 0.47800000000000004, 192.0, 0.0, 0.0, 0.0, 0.0, 0.0, 0.0, 0.0, 0.0, 0.0, 1.6541552046713045E9, 0.0, 2022-06-02 09:33:24.671
146.0, 21774.08597160411, -8058.273262771758, -62857.508701981154, -29186.550281828677, -14337.16885294543, -38703.163111586946, -11010.335208217528, -30011.061431296046, -0.034, 0.904, 0.486, 192.0, 254.0, 240.0, 28.0, 64.0, 15.0, 48.0, 0.0, 0.0, 0.0, 1.6541552046713097E9, 0.0, 2022-06-02 09:33:24.671
147.0, 21792.481457290825, -8033.574585148644, -62825.25513473215, -29156.86716519203, -14308.424509575905, -38672.965904827826, -10966.212864662752, -29996.84572182247, -0.034, 0.904, 0.486, 192.0, 0.0, 0.0, 0.0, 0.0, 0.0, 0.0, 0.0, 0.0, 0.0, 1.654155204671315E9, 0.0, 2022-06-02 09:33:24.671
148.0, 21813.06741393416, -8032.546404903699, -62824.09284402047, -29161.315162338637, -14300.154364127442, -38669.56843967062, -10964.670594295334, -29993.1800357318, -0.034, 0.904, 0.486, 192.0, 0.0, 0.0, 0.0, 0.0, 0.0, 0.0, 0.0, 0.0, 0.0, 1.6541552046713202E9, 0.0, 2022-06-02 09:33:24.671
149.0, 21814.74379476831, -8045.152788776492, -62843.80708263005, -29185.611508561553, -14311.911381710934, -38685.43817823388, -10981.277940425629, -29997.963309045233, -0.034, 0.904, 0.486, 192.0, 0.0, 0.0, 0.0, 0.0, 0.0, 0.0, 0.0, 0.0, 0.0, 1.6541552046713254E9, 0.0, 2022-06-02 09:33:24.671
150.0, 21789.575730511635, -8059.5249604612545, -62859.00626885966, -29180.582366059112, -14333.816091277135, -38703.47603600932, -10984.474239882737, -30013.833047608503, -0.034, 0.904, 0.486, 192.0, 0.0, 0.0, 0.0, 0.0, 0.0, 0.0, 0.0, 0.0, 0.0, 1.6541552046713324E9, 0.0, 2022-06-02 09:33:24.671
151.0, 21782.959614152864, -8058.943815105416, -62854.49121647969, -29175.441464834388, -14338.129977957009, -38706.18059708841, -10999.963998790265, -30018.728079644214, -0.034, 0.904, 0.486, 192.0, 0.0, 0.0, 0.0, 0.0, 0.0, 0.0, 0.0, 0.0, 0.0, 1.6541552046713376E9, 0.0, 2022-06-02 09:33:24.671
152.0, 21801.39980332849, -8036.547367161199, -62829.18904175628, -29154.16260411294, -14312.604285789048, -38677.25743976324, -10974.974748489232, -29998.008012534145, -0.034, 0.904, 0.486, 192.0, 0.0, 0.0, 0.0, 0.0, 0.0, 0.0, 0.0, 0.0, 0.0, 1.6541552046713428E9, 0.0, 2022-06-02 09:33:24.671
153.0, 21807.233608631326, -8036.323849716646, -62829.03257954509, -29156.82246170312, -14306.323445597107, -38671.08835829358, -10966.414030362848, -29999.37146894592, -0.034, 0.904, 0.486, 192.0, 0.0, 0.0, 0.0, 0.0, 0.0, 0.0, 0.0, 0.0, 0.0, 1.654155204671348E9, 0.0, 2022-06-02 09:33:24.671
154.0, 21807.50182956479, -8044.817512609663, -62844.87996636391, -29170.524081054224, -14310.793794488169, -38677.52566069671, -10974.50536185567, -30009.85443709546, -0.034, 0.904, 0.486, 192.0, 0.0, 0.0, 0.0, 0.0, 0.0, 0.0, 0.0, 0.0, 0.0, 1.654155204671353E9, 0.0, 2022-06-02 09:33:24.671
155.0, 21790.961538667863, -8069.940873377428, -62877.75938245766, -29196.29564241119, -14343.427341392917, -38703.52073949823, -11010.6481326399, -29999.99731779067, -0.034, 0.904, 0.486, 192.0, 0.0, 0.0, 0.0, 0.0, 0.0, 0.0, 0.0, 0.0, 0.0, 1.6541552046713583E9, 0.0, 2022-06-02 09:33:24.671
156.0, 21799.186980627415, -8061.73778316233, -62867.723449197234, -29185.410342861458, -14343.7849693042, -38689.37208525802, -11010.335208217528, -29996.421038677818, -0.026000000000000002, 0.904, 0.482, 192.0, 255.0, 48.0, 28.0, 64.0, 15.0, 16.0, 0.0, 0.0, 0.0, 1.6541552046713636E9, 0.0, 2022-06-02 09:33:24.671
157.0, 21799.231684116327, -8055.501646459299, -62854.11123682395, -29176.78256950171, -14329.233983663797, -38681.03488457619, -10981.210885192262, -30001.539588158084, -0.026000000000000002, 0.904, 0.482, 192.0, 0.0, 0.0, 0.0, 0.0, 0.0, 0.0, 0.0, 0.0, 0.0, 1.6541552046713688E9, 0.0, 2022-06-02 09:33:24.671
158.0, 21804.03730917422, -8054.160541791981, -62847.785693143094, -29175.642630534487, -14323.936620227889, -38675.80457637365, -10970.45969610926, -29994.40938167684, -0.026000000000000002, 0.904, 0.482, 192.0, 0.0, 0.0, 0.0, 0.0, 0.0, 0.0, 0.0, 0.0, 0.0, 1.654155204671374E9, 0.0, 2022-06-02 09:33:24.671
159.0, 21809.915817965964, -8060.843713384118, -62860.99557411618, -29188.941918485394, -14329.390445874984, -38687.67335267942, -10989.50338238518, -30010.636748151395, -0.026000000000000002, 0.904, 0.482, 192.0, 0.0, 0.0, 0.0, 0.0, 0.0, 0.0, 0.0, 0.0, 0.0, 1.6541552046713793E9, 0.0, 2022-06-02 09:33:24.671
160.0, 21807.635940031523, -8068.353899521101, -62876.887664423906, -29195.267462166248, -14343.203823948363, -38703.61014647605, -11009.865821583966, -30045.527821246127, -0.026000000000000002, 0.904, 0.482, 192.0, 0.0, 0.0, 0.0, 0.0, 0.0, 0.0, 0.0, 0.0, 0.0, 1.6541552046713843E9, 0.0, 2022-06-02 09:33:24.671
161.0, 21803.07618416264, -8070.969053622372, -62878.58639700251, -29201.68241282492, -14351.630431608015, -38703.788960431695, -11020.348789733505, -30029.926303616325, -0.026000000000000002, 0.904, 0.482, 192.0, 0.0, 0.0, 0.0, 0.0, 0.0, 0.0, 0.0, 0.0, 0.0, 1.6541552046713896E9, 0.0, 2022-06-02 09:33:24.671
162.0, 21823.773899528256, -8050.2489865123025, -62854.75943741315, -29175.799092745674, -14325.344780128573, -38679.671428164416, -10985.144792216397, -29990.162550230332, -0.026000000000000002, 0.904, 0.482, 192.0, 0.0, 0.0, 0.0, 0.0, 0.0, 0.0, 0.0, 0.0, 0.0, 1.6541552046713948E9, 0.0, 2022-06-02 09:33:24.671
163.0, 21838.16842295747, -8038.11198927307, -62845.79638788658, -29169.16062464245, -14306.189335130375, -38669.21081175933, -10953.271204623128, -29982.98764026018, -0.026000000000000002, 0.904, 0.482, 192.0, 0.0, 0.0, 0.0, 0.0, 0.0, 0.0, 0.0, 0.0, 0.0, 1.6541552046714008E9, 0.0, 2022-06-02 09:33:24.671
164.0, 21831.999341487808, -8049.511378945277, -62852.837187389996, -29160.57755477161, -14313.45365207835, -38679.51496595323, -10959.663803537345, -30002.165437002834, -0.026000000000000002, 0.904, 0.482, 192.0, 0.0, 0.0, 0.0, 0.0, 0.0, 0.0, 0.0, 0.0, 0.0, 1.654155204671406E9, 0.0, 2022-06-02 09:33:24.671
165.0, 21824.198582672907, -8063.995309352316, -62865.37651602942, -29172.714552010842, -14329.345742386073, -38693.931841126905, -10992.27499869764, -30023.913684357845, -0.026000000000000002, 0.904, 0.482, 192.0, 0.0, 0.0, 0.0, 0.0, 0.0, 0.0, 0.0, 0.0, 0.0, 1.6541552046714113E9, 0.0, 2022-06-02 09:33:24.671
166.0, 21829.071262964164, -8062.251873284802, -62863.946004384285, -29173.47451132232, -14334.039608721687, -38692.14370157048, -11006.446004682304, -30014.99533832018, -0.026000000000000002, 0.9, 0.48, 192.0, 255.0, 48.0, 28.0, 32.0, 15.0, 0.0, 0.0, 0.0, 0.0, 1.6541552046714163E9, 0.0, 2022-06-02 09:33:24.671
167.0, 21830.18885018693, -8047.387963222023, -62853.64185019039, -29161.091644894084, -14322.193184160375, -38675.69281765137, -10997.170030733352, -30016.962291832246, -0.026000000000000002, 0.9, 0.48, 192.0, 0.0, 0.0, 0.0, 0.0, 0.0, 0.0, 0.0, 0.0, 0.0, 1.6541552046714215E9, 0.0, 2022-06-02 09:33:24.671
168.0, 21832.200507187907, -8038.78254160673, -62850.06557107754, -29157.738883225786, -14309.564448543126, -38670.10488153755, -10974.728879300223, -30010.0332510511, -0.026000000000000002, 0.9, 0.48, 192.0, 0.0, 0.0, 0.0, 0.0, 0.0, 0.0, 0.0, 0.0, 0.0, 1.6541552046714268E9, 0.0, 2022-06-02 09:33:24.671
169.0, 21822.589257072123, -8057.222730782358, -62874.00428938917, -29177.16254915745, -14326.663533051436, -38696.27877429471, -10982.239065437207, -30009.809733606548, -0.026000000000000002, 0.9, 0.48, 192.0, 0.0, 0.0, 0.0, 0.0, 0.0, 0.0, 0.0, 0.0, 0.0, 1.654155204671432E9, 0.0, 2022-06-02 09:33:24.671
170.0, 21812.978006956342, -8073.763021679285, -62886.47656279524, -29183.15281667147, -14341.885071025501, -38710.96387040184, -10999.65107436789, -30019.488038955697, -0.026000000000000002, 0.9, 0.48, 192.0, 0.0, 0.0, 0.0, 0.0, 0.0, 0.0, 0.0, 0.0, 0.0, 1.6541552046714373E9, 0.0, 2022-06-02 09:33:24.671
171.0, 21815.704919779888, -8068.577416965654, -62876.70885046826, -29177.16254915745, -14333.41375987694, -38702.26904180873, -10989.145754473897, -30041.23628631071, -0.026000000000000002, 0.9, 0.48, 192.0, 0.0, 0.0, 0.0, 0.0, 0.0, 0.0, 0.0, 0.0, 0.0, 1.6541552046714444E9, 0.0, 2022-06-02 09:33:24.671
172.0, 21831.284085665236, -8051.008945823783, -62860.034449104605, -29167.506595552757, -14317.49931782476, -38687.3827800015, -10978.059289224064, -30029.099289071477, -0.026000000000000002, 0.9, 0.48, 192.0, 0.0, 0.0, 0.0, 0.0, 0.0, 0.0, 0.0, 0.0, 0.0, 1.6541552046714497E9, 0.0, 2022-06-02 09:33:24.671
173.0, 21854.46284466539, -8033.820454337651, -62844.656448919355, -29143.34435979657, -14301.517820539215, -38674.284657750686, -10975.734707800711, -29993.02357352061, -0.026000000000000002, 0.9, 0.48, 192.0, 0.0, 0.0, 0.0, 0.0, 0.0, 0.0, 0.0, 0.0, 0.0, 1.654155204671455E9, 0.0, 2022-06-02 09:33:24.671
174.0, 21845.61155386109, -8054.249948769802, -62870.91974865434, -29161.739845483287, -14323.400178360962, -38693.61891670453, -10984.183667204818, -29994.476436910205, -0.026000000000000002, 0.9, 0.48, 192.0, 0.0, 0.0, 0.0, 0.0, 0.0, 0.0, 0.0, 0.0, 0.0, 1.65415520467146E9, 0.0, 2022-06-02 09:33:24.671
175.0, 21835.7544345563, -8070.522018733266, -62885.202513361284, -29181.744656770785, -14346.64599259448, -38713.0872861251, -11002.199173235795, -30053.596800994495, -0.026000000000000002, 0.9, 0.48, 192.0, 0.0, 0.0, 0.0, 0.0, 0.0, 0.0, 0.0, 0.0, 0.0, 1.6541552046714652E9, 0.0, 2022-06-02 09:33:24.671
176.0, 21843.242268948827, -8066.431649497945, -62873.42314403333, -29181.744656770785, -14343.047361737175, -38713.42256229193, -11005.618990137458, -30080.307135618586, -0.032, 0.9, 0.48, 192.0, 255.0, 0.0, 28.0, 32.0, 15.0, 0.0, 0.0, 0.0, 0.0, 1.6541552046714704E9, 0.0, 2022-06-02 09:33:24.671
177.0, 21869.080885539162, -8039.006059051283, -62847.651582676364, -29152.977961656805, -14318.527498069705, -38684.94643985587, -10975.734707800711, -29974.672791322806, -0.032, 0.9, 0.48, 192.0, 0.0, 0.0, 0.0, 0.0, 0.0, 0.0, 0.0, 0.0, 0.0, 1.6541552046714756E9, 0.0, 2022-06-02 09:33:24.671
178.0, 21877.41808622099, -8032.702867114886, -62840.76724538413, -29150.04988313316, -14308.916247953923, -38675.536355440185, -10971.867856009943, -29969.688352309273, -0.032, 0.9, 0.48, 192.0, 0.0, 0.0, 0.0, 0.0, 0.0, 0.0, 0.0, 0.0, 0.0, 1.654155204671481E9, 0.0, 2022-06-02 09:33:24.671
179.0, 21875.741705386845, -8044.392829465012, -62856.10054208047, -29168.847700220074, -14321.477928337805, -38687.785111401696, -10987.64818759539, -30016.291739498585, -0.032, 0.9, 0.48, 192.0, 0.0, 0.0, 0.0, 0.0, 0.0, 0.0, 0.0, 0.0, 0.0, 1.654155204671486E9, 0.0, 2022-06-02 09:33:24.671
180.0, 21873.394772219035, -8049.243158011814, -62858.89451013738, -29153.7826244572, -14326.64118130698, -38689.90852712495, -10997.527658644636, -30015.263559253643, -0.032, 0.9, 0.48, 192.0, 0.0, 0.0, 0.0, 0.0, 0.0, 0.0, 0.0, 0.0, 0.0, 1.654155204671491E9, 0.0, 2022-06-02 09:33:24.671
181.0, 21858.620269134077, -8052.372402235556, -62858.849806648475, -29164.86908970703, -14331.35739938705, -38691.24963179226, -10997.751176089188, -30034.016672851645, -0.032, 0.9, 0.48, 192.0, 0.0, 0.0, 0.0, 0.0, 0.0, 0.0, 0.0, 0.0, 0.0, 1.6541552046714962E9, 0.0, 2022-06-02 09:33:24.671
182.0, 21866.42102794898, -8047.633832411031, -62852.971297856726, -29168.378313586512, -14328.004637718754, -38683.76179739974, -10993.16906847585, -30018.996300577677, -0.032, 0.9, 0.48, 192.0, 0.0, 0.0, 0.0, 0.0, 0.0, 0.0, 0.0, 0.0, 0.0, 1.6541552046715014E9, 0.0, 2022-06-02 09:33:24.671
183.0, 21853.211146975893, -8054.920501103462, -62860.86146364945, -29173.094531666582, -14332.005599976255, -38696.32347778362, -10991.336225430516, -30015.263559253643, -0.032, 0.9, 0.48, 192.0, 0.0, 0.0, 0.0, 0.0, 0.0, 0.0, 0.0, 0.0, 0.0, 1.6541552046715066E9, 0.0, 2022-06-02 09:33:24.671
184.0, 21845.477443394357, -8066.722222175864, -62878.65345223588, -29187.19848241788, -14346.824806550123, -38717.66939373844, -11002.46739416926, -30033.636693195906, -0.032, 0.9, 0.48, 192.0, 0.0, 0.0, 0.0, 0.0, 0.0, 0.0, 0.0, 0.0, 0.0, 1.654155204671512E9, 0.0, 2022-06-02 09:33:24.671
185.0, 21864.90110932602, -8060.9331203619395, -62878.04995513558, -29186.840854506598, -14346.109550727553, -38713.914300669945, -10999.829888323533, -30016.64936740987, -0.032, 0.9, 0.48, 192.0, 0.0, 0.0, 0.0, 0.0, 0.0, 0.0, 0.0, 0.0, 0.0, 1.6541552046715171E9, 0.0, 2022-06-02 09:33:24.671
186.0, 21867.292745982737, -8051.947719090906, -62870.5397689986, -29185.477398094823, -14344.611983849049, -38708.4381232784, -11020.549955433602, -30037.41413800885, -0.038, 0.904, 0.47800000000000004, 192.0, 254.0, 208.0, 28.0, 64.0, 14.0, 240.0, 0.0, 0.0, 0.0, 1.654155204671523E9, 0.0, 2022-06-02 09:33:24.671
187.0, 21873.819455363686, -8038.290803228713, -62845.25994601965, -29171.328743854614, -14322.21553590483, -38688.09803582407, -10991.470335897247, -30022.013786079144, -0.038, 0.904, 0.47800000000000004, 192.0, 0.0, 0.0, 0.0, 0.0, 0.0, 0.0, 0.0, 0.0, 0.0, 1.6541552046715283E9, 0.0, 2022-06-02 09:33:24.671
188.0, 21878.08863855465, -8040.548329418699, -62839.87317560592, -29165.584345529598, -14313.364245100529, -38685.66169567844, -10964.089448939498, -30001.98662304719, -0.038, 0.904, 0.47800000000000004, 192.0, 0.0, 0.0, 0.0, 0.0, 0.0, 0.0, 0.0, 0.0, 0.0, 1.6541552046715336E9, 0.0, 2022-06-02 09:33:24.671
189.0, 21876.836940865152, -8048.393791722512, -62851.429027489314, -29175.262650878747, -14321.612038804536, -38698.75981792925, -10981.210885192262, -30005.808771349046, -0.038, 0.904, 0.47800000000000004, 192.0, 0.0, 0.0, 0.0, 0.0, 0.0, 0.0, 0.0, 0.0, 0.0, 1.6541552046715388E9, 0.0, 2022-06-02 09:33:24.671
190.0, 21870.84667335113, -8060.888416873028, -62873.57960624452, -29195.31216565516, -14339.672248324425, -38721.13391412901, -11011.072815784551, -30072.796949481602, -0.038, 0.904, 0.47800000000000004, 192.0, 0.0, 0.0, 0.0, 0.0, 0.0, 0.0, 0.0, 0.0, 0.0, 1.654155204671544E9, 0.0, 2022-06-02 09:33:24.671
191.0, 21851.065379508185, -8066.945739620417, -62883.70494648277, -29203.269386681248, -14352.07746649712, -38725.91718744245, -11021.220507767262, -30070.874699458447, -0.038, 0.904, 0.47800000000000004, 192.0, 0.0, 0.0, 0.0, 0.0, 0.0, 0.0, 0.0, 0.0, 0.0, 1.654155204671549E9, 0.0, 2022-06-02 09:33:24.671
192.0, 21863.381190703058, -8049.220806267358, -62861.66612644984, -29180.15768291446, -14332.743207543279, -38701.129102841514, -10996.27596095514, -30010.390878962386, -0.038, 0.904, 0.47800000000000004, 192.0, 0.0, 0.0, 0.0, 0.0, 0.0, 0.0, 0.0, 0.0, 0.0, 1.6541552046715562E9, 0.0, 2022-06-02 09:33:24.671
193.0, 21876.345202487137, -8041.35299221909, -62850.08792282199, -29170.412322331948, -14320.919134726422, -38691.09316958108, -10977.880475268421, -29995.41521017733, -0.038, 0.904, 0.47800000000000004, 192.0, 0.0, 0.0, 0.0, 0.0, 0.0, 0.0, 0.0, 0.0, 0.0, 1.6541552046715615E9, 0.0, 2022-06-02 09:33:24.671
194.0, 21884.011850835308, -8051.321870246157, -62862.20256831677, -29184.896252738985, -14328.36226563004, -38703.3866290315, -10994.55487663208, -30020.873847111925, -0.038, 0.904, 0.47800000000000004, 192.0, 0.0, 0.0, 0.0, 0.0, 0.0, 0.0, 0.0, 0.0, 0.0, 1.6541552046715665E9, 0.0, 2022-06-02 09:33:24.671
195.0, 21878.960356588406, -8067.012794853783, -62880.799219703586, -29217.172171732447, -14346.9365652724, -38722.877350196526, -11016.03490305363, -30058.0447981411, -0.034, 0.902, 0.48, 192.0, 254.0, 240.0, 28.0, 48.0, 15.0, 0.0, 0.0, 0.0, 0.0, 1.6541552046715715E9, 0.0, 2022-06-02 09:33:24.671
196.0, 21870.310231484204, -8065.492876230822, -62878.25112083568, -29200.184845946416, -14346.288364683196, -38718.16113211645, -11008.32355121655, -30038.08469034251, -0.034, 0.902, 0.48, 192.0, 0.0, 0.0, 0.0, 0.0, 0.0, 0.0, 0.0, 0.0, 0.0, 1.654155204671577E9, 0.0, 2022-06-02 09:33:24.671
197.0, 21891.05265033873, -8038.73783811782, -62843.85178611896, -29157.5824210146, -14316.35937885754, -38682.28658226569, -10981.389699147905, -29983.658192593837, -0.034, 0.902, 0.48, 192.0, 0.0, 0.0, 0.0, 0.0, 0.0, 0.0, 0.0, 0.0, 0.0, 1.6541552046715822E9, 0.0, 2022-06-02 09:33:24.671
198.0, 21878.04393506574, -8043.54346317571, -62847.383361742905, -29161.851604205563, -14319.041588192176, -38688.58977420208, -10992.587923120014, -29999.773800346113, -0.034, 0.902, 0.48, 192.0, 0.0, 0.0, 0.0, 0.0, 0.0, 0.0, 0.0, 0.0, 0.0, 1.6541552046715875E9, 0.0, 2022-06-02 09:33:24.671
199.0, 21870.80196986222, -8064.822323897162, -62876.73120221272, -29186.974964973328, -14344.813149549145, -38716.55180651567, -11017.890097843421, -30036.453012997274, -0.034, 0.902, 0.48, 192.0, 0.0, 0.0, 0.0, 0.0, 0.0, 0.0, 0.0, 0.0, 0.0, 1.6541552046715927E9, 0.0, 2022-06-02 09:33:24.671
200.0, 21867.60567040511, -8074.83590541314, -62894.0985076545, -29206.041002993705, -14358.69358285589, -38735.32727185813, -11006.311894215572, -30049.618190481448, -0.034, 0.902, 0.48, 192.0, 0.0, 0.0, 0.0, 0.0, 0.0, 0.0, 0.0, 0.0, 0.0, 1.6541552046715977E9, 0.0, 2022-06-02 09:33:24.671
201.0, 21863.068266280683, -8071.237274555836, -62891.30453959758, -29205.3928024045, -14358.358306689062, -38735.930768958424, -11003.920257558853, -30032.429698995318, -0.034, 0.902, 0.48, 192.0, 0.0, 0.0, 0.0, 0.0, 0.0, 0.0, 0.0, 0.0, 0.0, 1.6541552046716032E9, 0.0, 2022-06-02 09:33:24.671
202.0, 21883.94479560194, -8048.393791722512, -62866.337641041006, -29181.431732348414, -14333.704332554858, -38706.18059708841, -10989.07869924053, -30024.40542273586, -0.034, 0.902, 0.48, 192.0, 0.0, 0.0, 0.0, 0.0, 0.0, 0.0, 0.0, 0.0, 0.0, 1.6541552046716084E9, 0.0, 2022-06-02 09:33:24.671
203.0, 21896.640586452555, -8037.8661200840625, -62856.16759731384, -29169.428845575912, -14320.270934137217, -38696.36818127253, -10985.480068383225, -30007.641614394382, -0.034, 0.902, 0.48, 192.0, 0.0, 0.0, 0.0, 0.0, 0.0, 0.0, 0.0, 0.0, 0.0, 1.6541552046716135E9, 0.0, 2022-06-02 09:33:24.671
204.0, 21901.379156277082, -8044.59399516511, -62864.214225317744, -29176.447293334877, -14323.064902194132, -38707.074666866625, -10995.538353388114, -30019.33157674451, -0.034, 0.902, 0.48, 192.0, 0.0, 0.0, 0.0, 0.0, 0.0, 0.0, 0.0, 0.0, 0.0, 1.6541552046716187E9, 0.0, 2022-06-02 09:33:24.671
205.0, 21890.62796719408, -8059.144980805515, -62881.80504820408, -29194.30633715467, -14342.689733825891, -38722.83264670761, -11007.921219816353, -30043.359702033962, -0.038, 0.902, 0.48, 192.0, 254.0, 208.0, 28.0, 48.0, 15.0, 0.0, 0.0, 0.0, 0.0, 1.6541552046716237E9, 0.0, 2022-06-02 09:33:24.671
206.0, 21888.14692355954, -8052.64062316902, -62875.479504523224, -29189.29954639668, -14339.404027390961, -38715.590681504094, -11001.282751713128, -30035.424832752327, -0.038, 0.902, 0.48, 192.0, 0.0, 0.0, 0.0, 0.0, 0.0, 0.0, 0.0, 0.0, 0.0, 1.654155204671629E9, 0.0, 2022-06-02 09:33:24.671
207.0, 21893.84661839564, -8040.615384652065, -62860.950870627275, -29181.454084092868, -14322.036721949187, -38705.75591394376, -10979.445097380292, -30034.061376340556, -0.038, 0.902, 0.48, 192.0, 0.0, 0.0, 0.0, 0.0, 0.0, 0.0, 0.0, 0.0, 0.0, 1.6541552046716344E9, 0.0, 2022-06-02 09:33:24.671
208.0, 21901.200342321437, -8039.855425340585, -62865.421219518335, -29182.996354460283, -14317.611076547037, -38709.24278607879, -10979.713318313756, -30036.1400885749, -0.038, 0.902, 0.48, 192.0, 0.0, 0.0, 0.0, 0.0, 0.0, 0.0, 0.0, 0.0, 0.0, 1.6541552046716473E9, 0.0, 2022-06-02 09:33:24.671
209.0, 21901.312101043713, -8048.25968125578, -62874.76424870065, -29192.093514453594, -14327.892878996478, -38721.13391412901, -10989.928065529832, -30012.424887707817, -0.038, 0.902, 0.48, 192.0, 0.0, 0.0, 0.0, 0.0, 0.0, 0.0, 0.0, 0.0, 0.0, 1.6541552046716528E9, 0.0, 2022-06-02 09:33:24.671
210.0, 21906.85533366863, -8039.609556151576, -62879.27930108063, -29189.16543592995, -14341.259222180752, -38718.76462921675, -11012.436272196326, -30031.356815261464, -0.038, 0.902, 0.48, 192.0, 0.0, 0.0, 0.0, 0.0, 0.0, 0.0, 0.0, 0.0, 0.0, 1.654155204671658E9, 0.0, 2022-06-02 09:33:24.671
211.0, 21912.040938382263, -8026.891413556506, -62873.378440544424, -29172.44633107738, -14346.757751316758, -38709.22043433433, -11020.393493222415, -30037.078861842023, -0.038, 0.902, 0.48, 192.0, 0.0, 0.0, 0.0, 0.0, 0.0, 0.0, 0.0, 0.0, 0.0, 1.6541552046716633E9, 0.0, 2022-06-02 09:33:24.671
212.0, 21896.171199818993, -8039.855425340585, -62857.70986768125, -29168.49007230879, -14332.542041843182, -38697.88809989549, -10994.13019348743, -30027.422908237328, -0.038, 0.902, 0.48, 192.0, 0.0, 0.0, 0.0, 0.0, 0.0, 0.0, 0.0, 0.0, 0.0, 1.6541552046716683E9, 0.0, 2022-06-02 09:33:24.671
213.0, 21883.743629901845, -8055.501646459299, -62855.92172812483, -29171.976944443817, -14324.562469072638, -38697.061085350644, -10980.227408436229, -30026.52883845912, -0.038, 0.902, 0.48, 192.0, 0.0, 0.0, 0.0, 0.0, 0.0, 0.0, 0.0, 0.0, 0.0, 1.6541552046716735E9, 0.0, 2022-06-02 09:33:24.671
214.0, 21877.41808622099, -8071.594902467121, -62868.88573990891, -29188.897214996483, -14337.280611667707, -38713.26610008074, -10997.013568522165, -30013.810695864046, -0.038, 0.902, 0.48, 192.0, 0.0, 0.0, 0.0, 0.0, 0.0, 0.0, 0.0, 0.0, 0.0, 1.6541552046716807E9, 0.0, 2022-06-02 09:33:24.671
215.0, 21863.448245936426, -8090.593885254131, -62888.80114421859, -29208.83497105062, -14359.230024722818, -38731.10279215608, -11026.651981669902, -30039.157574076366, -0.036000000000000004, 0.908, 0.47800000000000004, 192.0, 254.0, 224.0, 28.0, 96.0, 14.0, 240.0, 0.0, 0.0, 0.0, 1.6541552046716864E9, 0.0, 2022-06-02 09:33:24.671
216.0, 21851.154786486004, -8103.535545293755, -62886.677728495335, -29208.700860583886, -14359.945280545388, -38725.82778046463, -11010.782243106634, -30045.66193171286, -0.036000000000000004, 0.908, 0.47800000000000004, 192.0, 0.0, 0.0, 0.0, 0.0, 0.0, 0.0, 0.0, 0.0, 0.0, 1.6541552046716924E9, 0.0, 2022-06-02 09:33:24.671
217.0, 21847.84672830662, -8103.803766227218, -62871.81381843255, -29200.520122113245, -14344.299059426674, -38712.70730646936, -10995.806574321578, -30044.7902136791, -0.036000000000000004, 0.908, 0.47800000000000004, 192.0, 0.0, 0.0, 0.0, 0.0, 0.0, 0.0, 0.0, 0.0, 0.0, 1.6541552046716976E9, 0.0, 2022-06-02 09:33:24.671
218.0, 21856.966240044385, -8103.826117971674, -62869.10925735346, -29198.441409878902, -14334.888975010988, -38708.549882000676, -10985.45771663877, -30005.1829225043, -0.036000000000000004, 0.908, 0.47800000000000004, 192.0, 0.0, 0.0, 0.0, 0.0, 0.0, 0.0, 0.0, 0.0, 0.0, 1.6541552046717029E9, 0.0, 2022-06-02 09:33:24.671
219.0, 21855.491024910334, -8118.444158845444, -62873.378440544424, -29200.497770368787, -14341.102759969564, -38714.56250125915, -10999.315798201062, -29990.833102563993, -0.036000000000000004, 0.908, 0.47800000000000004, 192.0, 0.0, 0.0, 0.0, 0.0, 0.0, 0.0, 0.0, 0.0, 0.0, 1.6541552046717086E9, 0.0, 2022-06-02 09:33:24.671
220.0, 21847.265582950782, -8131.4305223739775, -62882.185027859814, -29213.93116878643, -14353.530329886715, -38726.028946164726, -11015.096129786507, -30047.02538812463, -0.036000000000000004, 0.908, 0.47800000000000004, 192.0, 0.0, 0.0, 0.0, 0.0, 0.0, 0.0, 0.0, 0.0, 0.0, 1.6541552046717138E9, 0.0, 2022-06-02 09:33:24.671
221.0, 21834.36862640007, -8142.651098090541, -62887.3929843179, -29221.441354923412, -14361.599309635081, -38732.600359034586, -11025.892022358421, -30050.266391070654, -0.036000000000000004, 0.908, 0.47800000000000004, 192.0, 0.0, 0.0, 0.0, 0.0, 0.0, 0.0, 0.0, 0.0, 0.0, 1.654155204671719E9, 0.0, 2022-06-02 09:33:24.671
222.0, 21841.431777647947, -8131.385818885067, -62868.572815486536, -29208.83497105062, -14344.299059426674, -38714.45074253687, -10999.27109471215, -30024.360719246954, -0.036000000000000004, 0.908, 0.47800000000000004, 192.0, 0.0, 0.0, 0.0, 0.0, 0.0, 0.0, 0.0, 0.0, 0.0, 1.6541552046717243E9, 0.0, 2022-06-02 09:33:24.671
223.0, 21862.17419650247, -8118.354751867623, -62854.87119613543, -29197.390877889502, -14326.082387695598, -38701.41967551943, -10978.103992712975, -30017.968120332735, -0.036000000000000004, 0.908, 0.47800000000000004, 192.0, 0.0, 0.0, 0.0, 0.0, 0.0, 0.0, 0.0, 0.0, 0.0, 1.654155204671732E9, 0.0, 2022-06-02 09:33:24.671
224.0, 21858.75437960081, -8130.692914806952, -62873.13257135542, -29203.202331447883, -14339.35932390205, -38718.04937339418, -10991.26917019715, -30024.718347158236, -0.036000000000000004, 0.908, 0.47800000000000004, 192.0, 0.0, 0.0, 0.0, 0.0, 0.0, 0.0, 0.0, 0.0, 0.0, 1.6541552046717372E9, 0.0, 2022-06-02 09:33:24.671
225.0, 21853.56877488718, -8139.365391655611, -62884.95664417227, -29217.350985688092, -14353.284460697707, -38735.81901023615, -11012.168051262863, -30031.714443172747, -0.032, 0.904, 0.47600000000000003, 192.0, 255.0, 0.0, 28.0, 64.0, 14.0, 224.0, 0.0, 0.0, 0.0, 1.6541552046717424E9, 0.0, 2022-06-02 09:33:24.671
226.0, 21847.66791435098, -8137.912528266017, -62880.240426092205, -29220.3461194451, -14356.927795043923, -38732.71211775686, -11016.638400153925, -30041.437452010807, -0.032, 0.904, 0.47600000000000003, 192.0, 0.0, 0.0, 0.0, 0.0, 0.0, 0.0, 0.0, 0.0, 0.0, 1.654155204671748E9, 0.0, 2022-06-02 09:33:24.671
227.0, 21854.529899898756, -8121.908679236017, -62865.57768172952, -29216.479267654333, -14339.627544835514, -38719.14460887249, -11001.372158690949, -30039.112870587454, -0.032, 0.904, 0.47600000000000003, 192.0, 0.0, 0.0, 0.0, 0.0, 0.0, 0.0, 0.0, 0.0, 0.0, 1.6541552046717532E9, 0.0, 2022-06-02 09:33:24.671
228.0, 21875.42878096447, -8110.621048286087, -62856.68168743631, -29197.457933122867, -14330.485681353293, -38714.1378181145, -10991.358577174971, -30023.198428535277, -0.032, 0.904, 0.47600000000000003, 192.0, 0.0, 0.0, 0.0, 0.0, 0.0, 0.0, 0.0, 0.0, 0.0, 1.6541552046717584E9, 0.0, 2022-06-02 09:33:24.671
229.0, 21877.127513543073, -8125.730827537875, -62873.601957988976, -29208.276177439235, -14346.623640850024, -38731.594530534094, -11013.598562908002, -30048.45589976977, -0.032, 0.904, 0.47600000000000003, 192.0, 0.0, 0.0, 0.0, 0.0, 0.0, 0.0, 0.0, 0.0, 0.0, 1.654155204671764E9, 0.0, 2022-06-02 09:33:24.671
230.0, 21869.8631965951, -8132.034019474271, -62885.58249301702, -29225.576427647644, -14359.230024722818, -38744.469135340354, -11027.099016559008, -30066.739626734216, -0.032, 0.904, 0.47600000000000003, 192.0, 0.0, 0.0, 0.0, 0.0, 0.0, 0.0, 0.0, 0.0, 0.0, 1.6541552046717691E9, 0.0, 2022-06-02 09:33:24.671
231.0, 21864.744647114832, -8125.507310093321, -62880.933330170315, -29222.983625290828, -14358.201844477875, -38738.56827480415, -11021.578135678546, -30040.811603166057, -0.032, 0.904, 0.47600000000000003, 192.0, 0.0, 0.0, 0.0, 0.0, 0.0, 0.0, 0.0, 0.0, 0.0, 1.6541552046717744E9, 0.0, 2022-06-02 09:33:24.671
232.0, 21867.94094657194, -8114.152623910025, -62871.88087366592, -29210.131372229025, -14351.630431608015, -38723.16792287445, -11017.733635632234, -30045.8407456685, -0.032, 0.904, 0.47600000000000003, 192.0, 0.0, 0.0, 0.0, 0.0, 0.0, 0.0, 0.0, 0.0, 0.0, 1.6541552046717799E9, 0.0, 2022-06-02 09:33:24.671
233.0, 21881.75432464532, -8103.043806915737, -62862.18021657231, -29201.347136658092, -14337.682943067903, -38712.39438204699, -11010.156394261885, -30022.058489568055, -0.032, 0.904, 0.47600000000000003, 192.0, 0.0, 0.0, 0.0, 0.0, 0.0, 0.0, 0.0, 0.0, 0.0, 1.6541552046717856E9, 0.0, 2022-06-02 09:33:24.671
234.0, 21880.368516489092, -8116.387798355556, -62879.748687714186, -29221.530761901235, -14347.718876328336, -38727.414754320955, -11017.443062954315, -30042.95737063377, -0.032, 0.904, 0.47600000000000003, 192.0, 0.0, 0.0, 0.0, 0.0, 0.0, 0.0, 0.0, 0.0, 0.0, 1.6541552046717908E9, 0.0, 2022-06-02 09:33:24.671
235.0, 21876.524016442778, -8130.335286895667, -62893.58441753202, -29243.189602278424, -14359.69941135638, -38746.27962664123, -11020.013513566675, -30068.03602791262, -0.034, 0.906, 0.47600000000000003, 192.0, 254.0, 240.0, 28.0, 80.0, 14.0, 224.0, 0.0, 0.0, 0.0, 1.654155204671798E9, 0.0, 2022-06-02 09:33:24.671
236.0, 21864.834054092655, -8136.3032026652345, -62901.58634204702, -29239.099233043104, -14372.55166441818, -38751.71110054387, -11042.387609766438, -30035.782460663613, -0.034, 0.906, 0.47600000000000003, 192.0, 0.0, 0.0, 0.0, 0.0, 0.0, 0.0, 0.0, 0.0, 0.0, 1.6541552046718032E9, 0.0, 2022-06-02 09:33:24.671
237.0, 21876.36755423159, -8114.912583221506, -62876.21711209025, -29205.30339542668, -14351.764542074747, -38720.73158272882, -11029.736522404733, -30024.137201802398, -0.034, 0.906, 0.47600000000000003, 192.0, 0.0, 0.0, 0.0, 0.0, 0.0, 0.0, 0.0, 0.0, 0.0, 1.6541552046718085E9, 0.0, 2022-06-02 09:33:24.671
238.0, 21892.505513728323, -8106.776548239774, -62867.231710819215, -29200.654232579975, -14334.55369884416, -38716.99884140478, -10992.69968184229, -30044.879620656924, -0.034, 0.906, 0.47600000000000003, 192.0, 0.0, 0.0, 0.0, 0.0, 0.0, 0.0, 0.0, 0.0, 0.0, 1.654155204671814E9, 0.0, 2022-06-02 09:33:24.671
239.0, 21904.6201592231, -8107.402397084523, -62872.39496378839, -29203.82818029263, -14335.403065133461, -38720.642175750996, -11004.970789548253, -30022.527876201617, -0.034, 0.906, 0.47600000000000003, 192.0, 0.0, 0.0, 0.0, 0.0, 0.0, 0.0, 0.0, 0.0, 0.0, 1.6541552046718197E9, 0.0, 2022-06-02 09:33:24.671
240.0, 21918.14296461856, -8109.190536640947, -62878.45228653578, -29208.16441871696, -14343.561451859649, -38722.25150135178, -11020.907583344888, -30035.84951589698, -0.034, 0.906, 0.47600000000000003, 192.0, 0.0, 0.0, 0.0, 0.0, 0.0, 0.0, 0.0, 0.0, 0.0, 1.6541552046718252E9, 0.0, 2022-06-02 09:33:24.671
241.0, 21915.639569239567, -8105.569554039187, -62880.12866736993, -29210.846628051597, -14349.998754262777, -38722.76559147425, -11020.907583344888, -30049.439376525806, -0.034, 0.906, 0.47600000000000003, 192.0, 0.0, 0.0, 0.0, 0.0, 0.0, 0.0, 0.0, 0.0, 0.0, 1.6541552051506715E9, 0.0, 2022-06-02 09:33:25.150
242.0, 21899.926292887485, -8097.344112079634, -62860.50383573816, -29203.202331447883, -14336.274783167219, -38707.74521920028, -10993.213771964762, -30019.018652322135, -0.034, 0.906, 0.47600000000000003, 192.0, 0.0, 0.0, 0.0, 0.0, 0.0, 0.0, 0.0, 0.0, 0.0, 1.6541552051508608E9, 0.0, 2022-06-02 09:33:25.150
243.0, 21906.318891801704, -8091.353844565612, -62856.99461185868, -29199.58134884612, -14326.283553395697, -38702.5372627422, -10983.513114871159, -30013.60953016395, -0.034, 0.906, 0.47600000000000003, 192.0, 0.0, 0.0, 0.0, 0.0, 0.0, 0.0, 0.0, 0.0, 0.0, 1.6541552051508749E9, 0.0, 2022-06-02 09:33:25.150
244.0, 21905.558932490225, -8101.590943526143, -62877.55821675756, -29200.765991302254, -14341.12511171402, -38722.787943218704, -11010.312856473072, -30034.79898390758, -0.034, 0.906, 0.47600000000000003, 192.0, 0.0, 0.0, 0.0, 0.0, 0.0, 0.0, 0.0, 0.0, 0.0, 1.6541552051508808E9, 0.0, 2022-06-02 09:33:25.150
245.0, 21894.874798640587, -8123.540356581254, -62901.273417624645, -29225.822296836654, -14367.634280638014, -38741.85398123908, -11041.538243477136, -30067.85721395698, -0.032, 0.908, 0.47800000000000004, 192.0, 255.0, 0.0, 28.0, 96.0, 14.0, 240.0, 0.0, 0.0, 0.0, 1.6541552051508865E9, 0.0, 2022-06-02 09:33:25.150
246.0, 21897.57935971968, -8117.393626856045, -62889.11406864096, -29219.675567111444, -14360.258204967762, -38730.74516424479, -11030.60824043849, -30057.95539116328, -0.032, 0.908, 0.47800000000000004, 192.0, 0.0, 0.0, 0.0, 0.0, 0.0, 0.0, 0.0, 0.0, 0.0, 1.6541552051508925E9, 0.0, 2022-06-02 09:33:25.150
247.0, 21907.19060983546, -8103.133213893559, -62872.39496378839, -29209.036136750718, -14341.192166947385, -38714.964832659345, -11015.096129786507, -30026.774707648125, -0.032, 0.908, 0.47800000000000004, 192.0, 0.0, 0.0, 0.0, 0.0, 0.0, 0.0, 0.0, 0.0, 0.0, 1.654155205150898E9, 0.0, 2022-06-02 09:33:25.150
248.0, 21927.061310656227, -8090.88445793205, -62865.15299858487, -29204.565787859654, -14327.64700980747, -38707.968736644834, -11011.452795440293, -30004.735887615192, -0.032, 0.908, 0.47800000000000004, 192.0, 0.0, 0.0, 0.0, 0.0, 0.0, 0.0, 0.0, 0.0, 0.0, 1.6541552051509037E9, 0.0, 2022-06-02 09:33:25.150
249.0, 21917.427708795993, -8111.828042486673, -62884.10727788297, -29214.60172112009, -14348.12120772853, -38728.37587933253, -11026.09318805852, -30022.684338412804, -0.032, 0.908, 0.47800000000000004, 192.0, 0.0, 0.0, 0.0, 0.0, 0.0, 0.0, 0.0, 0.0, 0.0, 1.6541552051509092E9, 0.0, 2022-06-02 09:33:25.150
250.0, 21907.704699957932, -8126.468435104899, -62900.02171993515, -29225.755241603285, -14364.437981180905, -38743.060975439665, -11032.508138717192, -30056.927210918333, -0.032, 0.908, 0.47800000000000004, 192.0, 0.0, 0.0, 0.0, 0.0, 0.0, 0.0, 0.0, 0.0, 0.0, 1.654155205150916E9, 0.0, 2022-06-02 09:33:25.150
251.0, 21915.639569239567, -8114.577307054676, -62886.9906529177, -29216.50161939879, -14356.950146788377, -38731.70628925637, -11027.747217148211, -30052.94860040529, -0.032, 0.908, 0.47800000000000004, 192.0, 0.0, 0.0, 0.0, 0.0, 0.0, 0.0, 0.0, 0.0, 0.0, 1.6541552051509216E9, 0.0, 2022-06-02 09:33:25.150
252.0, 21923.328569332192, -8098.864030702595, -62864.97418462923, -29199.626052335032, -14339.135806457498, -38712.12616111352, -11005.909562815377, -30040.09634734349, -0.032, 0.908, 0.47800000000000004, 192.0, 0.0, 0.0, 0.0, 0.0, 0.0, 0.0, 0.0, 0.0, 0.0, 1.6541552051509275E9, 0.0, 2022-06-02 09:33:25.150
253.0, 21923.95441817694, -8103.647304016031, -62870.5397689986, -29205.437505893413, -14338.21938493483, -38717.44587629389, -10997.706472600279, -30019.644501166884, -0.032, 0.908, 0.47800000000000004, 192.0, 0.0, 0.0, 0.0, 0.0, 0.0, 0.0, 0.0, 0.0, 0.0, 1.6541552051509333E9, 0.0, 2022-06-02 09:33:25.150
254.0, 21924.08852864367, -8113.191498898447, -62880.4415917923, -29219.139125244514, -14347.852986795067, -38728.91232119946, -11011.005760551187, -30043.80673692307, -0.032, 0.908, 0.47800000000000004, 192.0, 0.0, 0.0, 0.0, 0.0, 0.0, 0.0, 0.0, 0.0, 0.0, 1.6541552051509387E9, 0.0, 2022-06-02 09:33:25.150
255.0, 21916.690101228967, -8126.89311824955, -62894.59024603251, -29235.724119630355, -14363.834484080611, -38744.960873718366, -11035.61503119648, -30059.47530978624, -0.038, 0.904, 0.47800000000000004, 192.0, 254.0, 208.0, 28.0, 64.0, 14.0, 240.0, 0.0, 0.0, 0.0, 1.6541552051509445E9, 0.0, 2022-06-02 09:33:25.150
0.0, 21904.016662122805, -8128.010705472316, -62901.16165890237, -29239.03217780974, -14372.775181862735, -38749.855905754084, -11049.51781624768, -30060.682303986825, -0.038, 0.904, 0.47800000000000004, 192.0, 0.0, 0.0, 0.0, 0.0, 0.0, 0.0, 0.0, 0.0, 0.0, 1.6541552051509619E9, 0.0, 2022-06-02 09:33:25.150
1.0, 21919.417014052513, -8110.151661652525, -62876.77590570163, -29212.813581563663, -14352.300983941674, -38725.06782115315, -11027.769568892667, -30035.223667052232, -0.038, 0.904, 0.47800000000000004, 192.0, 0.0, 0.0, 0.0, 0.0, 0.0, 0.0, 0.0, 0.0, 0.0, 1.6541552051509671E9, 0.0, 2022-06-02 09:33:25.150
2.0, 21938.192479394973, -8099.355769080612, -62861.62142296093, -29202.218854691848, -14339.784007046701, -38711.00857389076, -11011.676312884845, -30030.46274548325, -0.038, 0.904, 0.47800000000000004, 192.0, 0.0, 0.0, 0.0, 0.0, 0.0, 0.0, 0.0, 0.0, 0.0, 1.654155205150973E9, 0.0, 2022-06-02 09:33:25.150
3.0, 21936.650209027554, -8101.79210922624, -62876.37357430143, -29219.54145664471, -14352.368039175039, -38727.45945780986, -11039.23601379824, -30042.689149700305, -0.038, 0.904, 0.47800000000000004, 192.0, 0.0, 0.0, 0.0, 0.0, 0.0, 0.0, 0.0, 0.0, 0.0, 1.6541552051509783E9, 0.0, 2022-06-02 09:33:25.150
4.0, 21935.309104360236, -8104.764891238796, -62881.20155110378, -29215.45108740939, -14355.676097354424, -38733.71794625735, -11031.144682305418, -30043.33735028951, -0.038, 0.904, 0.47800000000000004, 192.0, 0.0, 0.0, 0.0, 0.0, 0.0, 0.0, 0.0, 0.0, 0.0, 1.6541552051509836E9, 0.0, 2022-06-02 09:33:25.150
5.0, 21923.641493754567, -8106.240106372847, -62872.8419986775, -29206.465686138356, -14349.395257162483, -38726.05129790918, -11014.246763497205, -30022.729041901715, -0.038, 0.904, 0.47800000000000004, 192.0, 0.0, 0.0, 0.0, 0.0, 0.0, 0.0, 0.0, 0.0, 0.0, 1.6541552051509905E9, 0.0, 2022-06-02 09:33:25.150
6.0, 21935.510270060335, -8090.906809676506, -62853.15011181237, -29198.39670638999, -14334.799568033168, -38705.62180347703, -11006.446004682304, -30018.549265688573, -0.038, 0.904, 0.47800000000000004, 192.0, 0.0, 0.0, 0.0, 0.0, 0.0, 0.0, 0.0, 0.0, 0.0, 1.6541552051509955E9, 0.0, 2022-06-02 09:33:25.150
7.0, 21928.894153701563, -8101.6132952705975, -62865.66708870734, -29201.034212235718, -14338.733475057303, -38720.93274842892, -11014.537336175124, -30040.1410508324, -0.038, 0.904, 0.47800000000000004, 192.0, 0.0, 0.0, 0.0, 0.0, 0.0, 0.0, 0.0, 0.0, 0.0, 1.6541552051510007E9, 0.0, 2022-06-02 09:33:25.151
8.0, 21934.683255515487, -8104.876649961073, -62874.47367602273, -29208.63380535052, -14347.674172839425, -38729.60522527757, -11031.502310216703, -30031.89325712839, -0.038, 0.904, 0.47800000000000004, 192.0, 0.0, 0.0, 0.0, 0.0, 0.0, 0.0, 0.0, 0.0, 0.0, 1.6541552051510062E9, 0.0, 2022-06-02 09:33:25.151
9.0, 21932.828060725697, -8111.738635508852, -62883.99551916069, -29220.748450845298, -14356.726629343824, -38739.931731215926, -11033.536318962137, -30051.98747539371, -0.038, 0.898, 0.482, 192.0, 254.0, 208.0, 28.0, 16.0, 15.0, 16.0, 0.0, 0.0, 0.0, 1.6541552051510115E9, 0.0, 2022-06-02 09:33:25.151
10.0, 21932.738653747878, -8114.957286710416, -62885.94012092831, -29225.330558458634, -14363.074524769132, -38745.05028069619, -11034.855071884998, -30060.7940627091, -0.038, 0.898, 0.482, 192.0, 0.0, 0.0, 0.0, 0.0, 0.0, 0.0, 0.0, 0.0, 0.0, 1.6541552051510167E9, 0.0, 2022-06-02 09:33:25.151
11.0, 21940.76293000733, -8095.55597252321, -62865.19770207378, -29205.504561126778, -14350.64695485198, -38723.23497810781, -11042.074685344063, -30025.791230892093, -0.038, 0.898, 0.482, 192.0, 0.0, 0.0, 0.0, 0.0, 0.0, 0.0, 0.0, 0.0, 0.0, 1.654155205151022E9, 0.0, 2022-06-02 09:33:25.151
12.0, 21941.94757246346, -8088.001082897316, -62857.2851845366, -29199.96132850186, -14344.813149549145, -38717.11060012705, -11028.820100882067, -30038.79994616508, -0.038, 0.898, 0.482, 192.0, 0.0, 0.0, 0.0, 0.0, 0.0, 0.0, 0.0, 0.0, 0.0, 1.6541552051510272E9, 0.0, 2022-06-02 09:33:25.151
13.0, 21931.375197336103, -8102.619123771086, -62871.65735622137, -29218.513276399768, -14350.64695485198, -38736.71308001436, -11015.65492339789, -30051.56279224906, -0.038, 0.898, 0.482, 192.0, 0.0, 0.0, 0.0, 0.0, 0.0, 0.0, 0.0, 0.0, 0.0, 1.6541552051510322E9, 0.0, 2022-06-02 09:33:25.151
14.0, 21934.39268283757, -8109.324647107679, -62880.21807434775, -29224.88352356953, -14359.878225312023, -38745.20674290738, -11027.300182259105, -30020.627977922915, -0.038, 0.898, 0.482, 192.0, 0.0, 0.0, 0.0, 0.0, 0.0, 0.0, 0.0, 0.0, 0.0, 1.6541552051510377E9, 0.0, 2022-06-02 09:33:25.151
15.0, 21934.660903771033, -8109.905792463517, -62888.0411849071, -29228.72802361584, -14374.742135374801, -38750.973492976846, -11051.708287204301, -30049.215859081254, -0.038, 0.898, 0.482, 192.0, 0.0, 0.0, 0.0, 0.0, 0.0, 0.0, 0.0, 0.0, 0.0, 1.6541552051510427E9, 0.0, 2022-06-02 09:33:25.151
16.0, 21943.19927015296, -8090.593885254131, -62874.9430626563, -29218.78149733323, -14357.21836772184, -38739.015309693255, -11033.201042795306, -30053.8426701835, -0.038, 0.898, 0.482, 192.0, 0.0, 0.0, 0.0, 0.0, 0.0, 0.0, 0.0, 0.0, 0.0, 1.6541552051510477E9, 0.0, 2022-06-02 09:33:25.151
17.0, 21936.761967749833, -8098.975789424871, -62870.5397689986, -29216.769840332254, -14345.260184438252, -38729.582873533116, -11017.644228654413, -30024.04779482458, -0.038, 0.898, 0.482, 192.0, 0.0, 0.0, 0.0, 0.0, 0.0, 0.0, 0.0, 0.0, 0.0, 1.654155205151053E9, 0.0, 2022-06-02 09:33:25.151
18.0, 21935.331456104694, -8113.973809954383, -62870.360955042954, -29224.50354391379, -14346.400123405472, -38730.29812935569, -11023.634496168435, -30033.681396684817, -0.038, 0.898, 0.482, 192.0, 0.0, 0.0, 0.0, 0.0, 0.0, 0.0, 0.0, 0.0, 0.0, 1.6541552051510582E9, 0.0, 2022-06-02 09:33:25.151
19.0, 21942.662828286033, -8125.395551371044, -62875.345394056494, -29230.382052705536, -14355.832559565612, -38745.452612096386, -11034.117464317975, -30048.634713725416, -0.036000000000000004, 0.906, 0.48, 192.0, 254.0, 224.0, 28.0, 80.0, 15.0, 0.0, 0.0, 0.0, 0.0, 1.654155205151064E9, 0.0, 2022-06-02 09:33:25.151
20.0, 21925.54139203327, -8133.4198276305, -62879.3910598029, -29240.46268945488, -14365.376754448029, -38756.33791164612, -11041.024153354663, -30054.692036472803, -0.036000000000000004, 0.906, 0.48, 192.0, 0.0, 0.0, 0.0, 0.0, 0.0, 0.0, 0.0, 0.0, 0.0, 1.6541552051510692E9, 0.0, 2022-06-02 09:33:25.151
21.0, 21927.01660716732, -8118.019475700793, -62864.77301892913, -29210.041965251206, -14349.17173971793, -38734.36614684655, -11027.166071792373, -30041.437452010807, -0.036000000000000004, 0.906, 0.48, 192.0, 0.0, 0.0, 0.0, 0.0, 0.0, 0.0, 0.0, 0.0, 0.0, 1.6541552051510744E9, 0.0, 2022-06-02 09:33:25.151
22.0, 21952.274078401813, -8096.003007412316, -62850.49025422219, -29197.68145056742, -14332.564393587638, -38713.13198961401, -11019.499423444204, -30013.229550508207, -0.036000000000000004, 0.906, 0.48, 192.0, 0.0, 0.0, 0.0, 0.0, 0.0, 0.0, 0.0, 0.0, 0.0, 1.6541552051510816E9, 0.0, 2022-06-02 09:33:25.151
23.0, 21958.957249993953, -8096.204173112414, -62860.68264969381, -29212.5453606302, -14341.728608814314, -38723.212626363355, -11036.151473063406, -30037.592951964492, -0.036000000000000004, 0.906, 0.48, 192.0, 0.0, 0.0, 0.0, 0.0, 0.0, 0.0, 0.0, 0.0, 0.0, 1.6541552051510868E9, 0.0, 2022-06-02 09:33:25.151
24.0, 21948.496633588868, -8113.392664598545, -62877.2899958241, -29232.103137028593, -14354.022068264732, -38743.88798998451, -11021.55578393409, -30036.676530441826, -0.036000000000000004, 0.906, 0.48, 192.0, 0.0, 0.0, 0.0, 0.0, 0.0, 0.0, 0.0, 0.0, 0.0, 1.654155205151092E9, 0.0, 2022-06-02 09:33:25.151
25.0, 21947.826081255207, -8108.698798262931, -62872.260853321655, -29224.749413102796, -14350.64695485198, -38741.76457426126, -11015.029074553142, -30034.70957692976, -0.036000000000000004, 0.906, 0.48, 192.0, 0.0, 0.0, 0.0, 0.0, 0.0, 0.0, 0.0, 0.0, 0.0, 1.6541552051510973E9, 0.0, 2022-06-02 09:33:25.151
26.0, 21959.940726749985, -8094.103109133614, -62856.05583859156, -29206.041002993705, -14337.302963412163, -38722.027983907225, -11002.400338935893, -30042.912667144858, -0.036000000000000004, 0.906, 0.48, 192.0, 0.0, 0.0, 0.0, 0.0, 0.0, 0.0, 0.0, 0.0, 0.0, 1.6541552051511023E9, 0.0, 2022-06-02 09:33:25.151
27.0, 21969.417866399035, -8086.212943340892, -62848.232728032206, -29198.55316860118, -14327.512899340738, -38714.36133555905, -10997.84058306701, -30019.599797677973, -0.036000000000000004, 0.906, 0.48, 192.0, 0.0, 0.0, 0.0, 0.0, 0.0, 0.0, 0.0, 0.0, 0.0, 1.6541552051511075E9, 0.0, 2022-06-02 09:33:25.151
28.0, 21969.082590232207, -8096.070062645682, -62856.07819033602, -29205.325747171137, -14328.161099929941, -38718.9881466613, -11002.377987191438, -30000.198483490763, -0.038, 0.908, 0.47400000000000003, 192.0, 254.0, 208.0, 28.0, 96.0, 14.0, 208.0, 0.0, 0.0, 0.0, 1.6541552051511135E9, 0.0, 2022-06-02 09:33:25.151
29.0, 21950.888270245585, -8122.668638547497, -62886.61067326197, -29233.198372506904, -14361.55460614617, -38743.37389986204, -11036.307935274594, -30049.90876315937, -0.038, 0.908, 0.47400000000000003, 192.0, 0.0, 0.0, 0.0, 0.0, 0.0, 0.0, 0.0, 0.0, 0.0, 1.6541552051511185E9, 0.0, 2022-06-02 09:33:25.151
30.0, 21943.333380619693, -8124.568536826198, -62891.572760531046, -29238.4510324539, -14372.350498718084, -38743.59741730659, -11059.173769852374, -30059.52001327515, -0.038, 0.908, 0.47400000000000003, 192.0, 0.0, 0.0, 0.0, 0.0, 0.0, 0.0, 0.0, 0.0, 0.0, 1.6541552051511245E9, 0.0, 2022-06-02 09:33:25.151
31.0, 21948.831909755696, -8103.602600527121, -62865.53297824061, -29222.20131423489, -14349.328201929118, -38720.2398443508, -11032.351676506005, -30045.013731123658, -0.038, 0.908, 0.47400000000000003, 192.0, 0.0, 0.0, 0.0, 0.0, 0.0, 0.0, 0.0, 0.0, 0.0, 1.6541552051511295E9, 0.0, 2022-06-02 09:33:25.151
32.0, 21959.44898837197, -8099.042844658237, -62860.90616713836, -29214.333500186625, -14334.888975010988, -38723.88317869701, -11006.267190726661, -30040.45397525477, -0.038, 0.908, 0.47400000000000003, 192.0, 0.0, 0.0, 0.0, 0.0, 0.0, 0.0, 0.0, 0.0, 0.0, 1.6541552051511347E9, 0.0, 2022-06-02 09:33:25.151
33.0, 21971.518930377835, -8107.625914529075, -62876.77590570163, -29220.770802589752, -14342.823844292623, -38739.10471667108, -11018.605353665991, -30031.155649561366, -0.038, 0.908, 0.47400000000000003, 192.0, 0.0, 0.0, 0.0, 0.0, 0.0, 0.0, 0.0, 0.0, 0.0, 1.65415520515114E9, 0.0, 2022-06-02 09:33:25.151
34.0, 21957.77260753782, -8119.60644955712, -62896.60190303349, -29238.473384198354, -14363.02982128022, -38754.28155115623, -11042.924051633365, -30052.903896916378, -0.038, 0.908, 0.47400000000000003, 192.0, 0.0, 0.0, 0.0, 0.0, 0.0, 0.0, 0.0, 0.0, 0.0, 1.6541552051511452E9, 0.0, 2022-06-02 09:33:25.151
35.0, 21953.749293535864, -8119.293525134746, -62891.215132619756, -29233.377186462545, -14367.32135621564, -38747.24075165281, -11049.741333692233, -30056.23430684022, -0.038, 0.908, 0.47400000000000003, 192.0, 0.0, 0.0, 0.0, 0.0, 0.0, 0.0, 0.0, 0.0, 0.0, 1.6541552051511505E9, 0.0, 2022-06-02 09:33:25.151
36.0, 21968.50144487637, -8103.2002691269245, -62864.16952182884, -29224.905875313983, -14349.059980995653, -38726.25246360928, -11024.930897346843, -30029.009882093655, -0.038, 0.908, 0.47400000000000003, 192.0, 0.0, 0.0, 0.0, 0.0, 0.0, 0.0, 0.0, 0.0, 0.0, 1.6541552051511557E9, 0.0, 2022-06-02 09:33:25.151
37.0, 21964.29931691877, -8095.064234145193, -62857.039315347596, -29202.755296558775, -14336.49830061177, -38718.742277472295, -11003.808498836577, -30013.833047608503, -0.038, 0.908, 0.47400000000000003, 192.0, 0.0, 0.0, 0.0, 0.0, 0.0, 0.0, 0.0, 0.0, 0.0, 1.6541552051511607E9, 0.0, 2022-06-02 09:33:25.151
38.0, 21956.476206359413, -8107.961190695905, -62877.44645803529, -29219.988491533815, -14348.903518784467, -38741.02696669423, -11025.8026153806, -30040.543382232594, -0.036000000000000004, 0.908, 0.47600000000000003, 192.0, 254.0, 224.0, 28.0, 96.0, 14.0, 224.0, 0.0, 0.0, 0.0, 1.654155205151166E9, 0.0, 2022-06-02 09:33:25.151
39.0, 21961.52770060631, -8112.878574476073, -62888.912902940865, -29230.091480027615, -14362.51573115775, -38755.89087675701, -11043.035810355641, -30062.828071454536, -0.036000000000000004, 0.908, 0.47600000000000003, 192.0, 0.0, 0.0, 0.0, 0.0, 0.0, 0.0, 0.0, 0.0, 0.0, 1.6541552051511712E9, 0.0, 2022-06-02 09:33:25.151
40.0, 21972.189482711492, -8101.725053992875, -62875.88183592342, -29216.903950798984, -14365.26499572575, -38739.10471667108, -11043.75106617821, -30043.89614390089, -0.036000000000000004, 0.908, 0.47600000000000003, 192.0, 0.0, 0.0, 0.0, 0.0, 0.0, 0.0, 0.0, 0.0, 0.0, 1.6541552051511765E9, 0.0, 2022-06-02 09:33:25.151
41.0, 21984.25942471736, -8082.927236905961, -62856.27935603612, -29194.149874943483, -14343.829672793112, -38710.986222146304, -11026.830795625543, -30031.580332706017, -0.036000000000000004, 0.908, 0.47600000000000003, 192.0, 0.0, 0.0, 0.0, 0.0, 0.0, 0.0, 0.0, 0.0, 0.0, 1.6541552051511817E9, 0.0, 2022-06-02 09:33:25.151
42.0, 21999.7938871138, -8078.143963592525, -62849.50677746616, -29193.34521214309, -14330.59744007557, -38711.63442273551, -11016.973676320753, -30030.328635016518, -0.036000000000000004, 0.908, 0.47600000000000003, 192.0, 0.0, 0.0, 0.0, 0.0, 0.0, 0.0, 0.0, 0.0, 0.0, 1.6541552051511867E9, 0.0, 2022-06-02 09:33:25.151
43.0, 21985.06408751775, -8096.941780679439, -62866.896434652386, -29215.07110775365, -14342.488568125793, -38737.696556770396, -11008.79293785011, -30023.533704702106, -0.036000000000000004, 0.908, 0.47600000000000003, 192.0, 0.0, 0.0, 0.0, 0.0, 0.0, 0.0, 0.0, 0.0, 0.0, 1.6541552051511943E9, 0.0, 2022-06-02 09:33:25.151
44.0, 21969.216700698937, -8109.771681996785, -62882.36384181546, -29231.857267839587, -14359.073562511632, -38754.460365111874, -11032.642249183924, -30068.28189710163, -0.036000000000000004, 0.908, 0.47600000000000003, 192.0, 0.0, 0.0, 0.0, 0.0, 0.0, 0.0, 0.0, 0.0, 0.0, 1.6541552051511993E9, 0.0, 2022-06-02 09:33:25.151
45.0, 21968.09911347617, -8109.481109318866, -62880.866274936954, -29239.45686095439, -14358.403010177972, -38753.58864707812, -11041.225319054762, -30053.8426701835, -0.036000000000000004, 0.908, 0.47600000000000003, 192.0, 0.0, 0.0, 0.0, 0.0, 0.0, 0.0, 0.0, 0.0, 0.0, 1.6541552051512046E9, 0.0, 2022-06-02 09:33:25.151
46.0, 21979.118523492638, -8092.247914343824, -62861.6884781943, -29213.528837386235, -14341.192166947385, -38734.00851893527, -11017.666580398867, -30018.25869301065, -0.036000000000000004, 0.908, 0.47600000000000003, 192.0, 0.0, 0.0, 0.0, 0.0, 0.0, 0.0, 0.0, 0.0, 0.0, 1.6541552051512098E9, 0.0, 2022-06-02 09:33:25.151
47.0, 21997.290491734802, -8071.997233867316, -62844.90231810836, -29186.77379927323, -14325.16596617293, -38711.58971924659, -11012.682141385334, -30007.99924230567, -0.036000000000000004, 0.908, 0.47600000000000003, 192.0, 0.0, 0.0, 0.0, 0.0, 0.0, 0.0, 0.0, 0.0, 0.0, 1.6541552051512153E9, 0.0, 2022-06-02 09:33:25.151
48.0, 22004.375994727136, -8074.970015879872, -62856.324059525024, -29200.229549435324, -14331.089178453587, -38719.90456818397, -11022.718074645767, -30039.336388032007, -0.034, 0.906, 0.47800000000000004, 192.0, 254.0, 240.0, 28.0, 80.0, 14.0, 240.0, 0.0, 0.0, 0.0, 1.6541552051512203E9, 0.0, 2022-06-02 09:33:25.151
49.0, 22000.6432534031, -8089.096318375626, -62874.294862067094, -29219.273235711247, -14348.74705657328, -38737.45068758138, -11024.886193857932, -30059.721178975247, -0.034, 0.906, 0.47800000000000004, 192.0, 0.0, 0.0, 0.0, 0.0, 0.0, 0.0, 0.0, 0.0, 0.0, 1.6541552051512256E9, 0.0, 2022-06-02 09:33:25.151
50.0, 21992.55192191028, -8094.237219600346, -62875.3900975454, -29220.882561312028, -14350.512844385248, -38736.82483873664, -11020.70641764479, -30033.614341451448, -0.034, 0.906, 0.47800000000000004, 192.0, 0.0, 0.0, 0.0, 0.0, 0.0, 0.0, 0.0, 0.0, 0.0, 1.6541552051512308E9, 0.0, 2022-06-02 09:33:25.151
51.0, 22000.330328980726, -8081.250856071813, -62861.6884781943, -29202.330613414124, -14336.945335500877, -38715.61303324855, -11007.831812838533, -30028.719309415737, -0.034, 0.906, 0.47800000000000004, 192.0, 0.0, 0.0, 0.0, 0.0, 0.0, 0.0, 0.0, 0.0, 0.0, 1.654155205151236E9, 0.0, 2022-06-02 09:33:25.151
52.0, 22004.93478833852, -8071.259626300291, -62850.78082690011, -29198.687279067908, -14326.104739440054, -38703.65484996496, -10997.84058306701, -30017.52108544363, -0.034, 0.906, 0.47800000000000004, 192.0, 0.0, 0.0, 0.0, 0.0, 0.0, 0.0, 0.0, 0.0, 0.0, 1.6541552051512413E9, 0.0, 2022-06-02 09:33:25.151
53.0, 22001.380860970123, -8083.55308575071, -62862.20256831677, -29208.991433261806, -14337.16885294543, -38723.52555078573, -11015.476109442248, -30036.877696141924, -0.034, 0.906, 0.47800000000000004, 192.0, 0.0, 0.0, 0.0, 0.0, 0.0, 0.0, 0.0, 0.0, 0.0, 1.6541552051512463E9, 0.0, 2022-06-02 09:33:25.151
54.0, 21991.613148643155, -8104.228449371869, -62889.78462097462, -29230.672625383453, -14362.873359069034, -38748.33598713112, -11040.66652544338, -30065.219708111254, -0.034, 0.906, 0.47800000000000004, 192.0, 0.0, 0.0, 0.0, 0.0, 0.0, 0.0, 0.0, 0.0, 0.0, 1.6541552051512516E9, 0.0, 2022-06-02 09:33:25.151
55.0, 21985.98050904042, -8102.037978415249, -62891.48335355322, -29233.69011088492, -14369.891806828, -38741.96573996136, -11057.251519829217, -30049.618190481448, -0.034, 0.906, 0.47800000000000004, 192.0, 0.0, 0.0, 0.0, 0.0, 0.0, 0.0, 0.0, 0.0, 0.0, 1.654155205151257E9, 0.0, 2022-06-02 09:33:25.151
56.0, 21987.858055574663, -8087.330530563657, -62872.59612948849, -29210.801924562686, -14352.859777553056, -38724.93371068641, -11038.341944020027, -30020.784440134103, -0.034, 0.906, 0.47800000000000004, 192.0, 0.0, 0.0, 0.0, 0.0, 0.0, 0.0, 0.0, 0.0, 0.0, 1.6541552051512656E9, 0.0, 2022-06-02 09:33:25.151
57.0, 22002.185523770517, -8076.400527525012, -62853.41833274584, -29200.25190117978, -14332.184413931896, -38715.031887892714, -11003.853202325488, -30029.926303616325, -0.034, 0.906, 0.47800000000000004, 192.0, 0.0, 0.0, 0.0, 0.0, 0.0, 0.0, 0.0, 0.0, 0.0, 1.6541552051512723E9, 0.0, 2022-06-02 09:33:25.151
58.0, 21997.02227080134, -8084.380100295556, -62863.34250728399, -29212.187732718914, -14335.537175600193, -38723.078515896625, -11007.205963993783, -30016.291739498585, -0.038, 0.9, 0.482, 192.0, 254.0, 208.0, 28.0, 32.0, 15.0, 16.0, 0.0, 0.0, 0.0, 1.6541552051512775E9, 0.0, 2022-06-02 09:33:25.151
59.0, 21982.851264816676, -8106.664789517497, -62887.61650176245, -29236.886410342027, -14361.822827079633, -38746.92782723044, -11039.884214387443, -30045.86309741296, -0.038, 0.9, 0.482, 192.0, 0.0, 0.0, 0.0, 0.0, 0.0, 0.0, 0.0, 0.0, 0.0, 1.6541552051512828E9, 0.0, 2022-06-02 09:33:25.151
60.0, 21987.992166041397, -8098.886382447051, -62881.849751692986, -29221.195485734403, -14360.973460790332, -38738.747088759796, -11045.338040034538, -30054.42381553934, -0.038, 0.9, 0.482, 192.0, 0.0, 0.0, 0.0, 0.0, 0.0, 0.0, 0.0, 0.0, 0.0, 1.654155205151288E9, 0.0, 2022-06-02 09:33:25.151
61.0, 21991.74725910989, -8087.55404800821, -62871.92557715483, -29209.68433733992, -14354.916138042945, -38725.91718744245, -11048.623746469468, -30034.843687396493, -0.038, 0.9, 0.482, 192.0, 0.0, 0.0, 0.0, 0.0, 0.0, 0.0, 0.0, 0.0, 0.0, 1.6541552051512935E9, 0.0, 2022-06-02 09:33:25.151
62.0, 22010.098041307694, -8071.237274555836, -62855.47469323572, -29197.77085754524, -14334.821919777623, -38708.460475022854, -11027.769568892667, -30026.193562292287, -0.038, 0.9, 0.482, 192.0, 0.0, 0.0, 0.0, 0.0, 0.0, 0.0, 0.0, 0.0, 0.0, 1.6541552051512985E9, 0.0, 2022-06-02 09:33:25.151
63.0, 22018.099965822694, -8073.651262957009, -62862.58254797251, -29206.53274137172, -14332.40793137645, -38717.691745482894, -11008.41295819437, -30039.872829898934, -0.038, 0.9, 0.482, 192.0, 0.0, 0.0, 0.0, 0.0, 0.0, 0.0, 0.0, 0.0, 0.0, 1.6541552051513052E9, 0.0, 2022-06-02 09:33:25.151
64.0, 22026.21364905997, -8073.695966445919, -62868.30459455307, -29209.68433733992, -14343.896728026479, -38730.700460755885, -11024.03682756863, -30045.03608286811, -0.038, 0.9, 0.482, 192.0, 0.0, 0.0, 0.0, 0.0, 0.0, 0.0, 0.0, 0.0, 0.0, 1.654155205151314E9, 0.0, 2022-06-02 09:33:25.151
65.0, 22025.58780021522, -8073.807725168196, -62867.5893387305, -29210.73486932932, -14350.445789151883, -38728.733507243815, -11031.926993361354, -30029.479268727217, -0.038, 0.9, 0.482, 192.0, 0.0, 0.0, 0.0, 0.0, 0.0, 0.0, 0.0, 0.0, 0.0, 1.6541552051513193E9, 0.0, 2022-06-02 09:33:25.151
66.0, 22022.279742035837, -8068.063326843182, -62853.23951879019, -29201.369488402546, -14340.208690191352, -38711.99205064679, -11016.124310031451, -30010.927320829313, -0.038, 0.9, 0.482, 192.0, 0.0, 0.0, 0.0, 0.0, 0.0, 0.0, 0.0, 0.0, 0.0, 1.6541552051513245E9, 0.0, 2022-06-02 09:33:25.151
67.0, 22034.528497997344, -8061.961300606883, -62839.7837686281, -29195.379220888524, -14326.887050495989, -38700.54795748567, -11003.115594758463, -30007.686317883294, -0.038, 0.9, 0.482, 192.0, 0.0, 0.0, 0.0, 0.0, 0.0, 0.0, 0.0, 0.0, 0.0, 1.6541552051513298E9, 0.0, 2022-06-02 09:33:25.151
68.0, 22028.56058222778, -8072.287806545235, -62852.904242623365, -29208.946729772895, -14337.772350045723, -38712.461437280355, -11022.51690894567, -30022.75139364617, -0.032, 0.904, 0.48, 192.0, 255.0, 0.0, 28.0, 64.0, 15.0, 0.0, 0.0, 0.0, 0.0, 1.654155205151335E9, 0.0, 2022-06-02 09:33:25.151
69.0, 22020.290436779313, -8085.385928796045, -62865.39886777388, -29207.180941960927, -14348.143559472986, -38730.767515989246, -11024.997952580208, -30053.8426701835, -0.032, 0.904, 0.48, 192.0, 0.0, 0.0, 0.0, 0.0, 0.0, 0.0, 0.0, 0.0, 0.0, 1.6541552051513402E9, 0.0, 2022-06-02 09:33:25.151
70.0, 22008.086384306716, -8095.60067601212, -62876.12770511243, -29220.077898511638, -14361.308736957162, -38738.43416433742, -11022.136929289929, -30064.415045310863, -0.032, 0.904, 0.48, 192.0, 0.0, 0.0, 0.0, 0.0, 0.0, 0.0, 0.0, 0.0, 0.0, 1.6541552051513457E9, 0.0, 2022-06-02 09:33:25.151
71.0, 22014.12135530965, -8081.563780494187, -62862.15786482786, -29215.853418809584, -14350.065809496142, -38724.33021358612, -11026.428464225348, -30030.19452454979, -0.032, 0.904, 0.48, 192.0, 0.0, 0.0, 0.0, 0.0, 0.0, 0.0, 0.0, 0.0, 0.0, 1.654155205151351E9, 0.0, 2022-06-02 09:33:25.151
72.0, 22031.22043981796, -8054.898149359006, -62847.53982395409, -29197.54734010069, -14330.284515653197, -38708.21460583384, -11010.357559961982, -30007.015765549633, -0.032, 0.904, 0.48, 192.0, 0.0, 0.0, 0.0, 0.0, 0.0, 0.0, 0.0, 0.0, 0.0, 1.6541552051513562E9, 0.0, 2022-06-02 09:33:25.151
73.0, 22034.30498055279, -8066.252835542302, -62855.1841205578, -29195.893311010997, -14331.35739938705, -38718.85403619457, -11015.766682120167, -30030.820373394537, -0.032, 0.904, 0.48, 192.0, 0.0, 0.0, 0.0, 0.0, 0.0, 0.0, 0.0, 0.0, 0.0, 1.6541552051513617E9, 0.0, 2022-06-02 09:33:25.151
74.0, 22014.702500665488, -8099.020492913783, -62873.98193764472, -29218.133296744025, -14344.433169893406, -38738.747088759796, -11027.858975870487, -30056.971914407244, -0.032, 0.904, 0.48, 192.0, 0.0, 0.0, 0.0, 0.0, 0.0, 0.0, 0.0, 0.0, 0.0, 1.6541552051513672E9, 0.0, 2022-06-02 09:33:25.151
75.0, 22007.438183717513, -8101.769757481785, -62879.14519061389, -29224.63765438052, -14351.541024630193, -38745.921998729944, -11029.602411938002, -30054.736739961714, -0.032, 0.904, 0.48, 192.0, 0.0, 0.0, 0.0, 0.0, 0.0, 0.0, 0.0, 0.0, 0.0, 1.6541552051513724E9, 0.0, 2022-06-02 09:33:25.151
76.0, 22013.048471575796, -8089.968036409383, -62860.950870627275, -29210.153723973483, -14337.951164001366, -38727.39240257649, -11019.27590599965, -30035.246018796686, -0.032, 0.904, 0.48, 192.0, 0.0, 0.0, 0.0, 0.0, 0.0, 0.0, 0.0, 0.0, 0.0, 1.654155205151378E9, 0.0, 2022-06-02 09:33:25.151
77.0, 22024.380806014637, -8081.69789096092, -62852.85953913445, -29198.240244178804, -14326.328256884606, -38717.7364489718, -11011.27398148465, -30025.344196002985, -0.032, 0.904, 0.48, 192.0, 0.0, 0.0, 0.0, 0.0, 0.0, 0.0, 0.0, 0.0, 0.0, 1.6541552051513832E9, 0.0, 2022-06-02 09:33:25.151
78.0, 22027.107718838182, -8088.336359064146, -62862.7390101837, -29206.242168693803, -14331.066826709131, -38726.632443265014, -11017.532469932135, -30023.936036102303, -0.03, 0.906, 0.47600000000000003, 192.0, 255.0, 16.0, 28.0, 80.0, 14.0, 224.0, 0.0, 0.0, 0.0, 1.6541552051513884E9, 0.0, 2022-06-02 09:33:25.151
79.0, 22024.26904729236, -8098.551106280221, -62874.093696366996, -29218.69209035541, -14345.528405371715, -38738.00948119277, -11033.513967217681, -30044.454937512273, -0.03, 0.906, 0.47600000000000003, 192.0, 0.0, 0.0, 0.0, 0.0, 0.0, 0.0, 0.0, 0.0, 0.0, 1.6541552051513937E9, 0.0, 2022-06-02 09:33:25.151
80.0, 22029.231134561436, -8088.515173019788, -62875.07717312303, -29218.222703721847, -14351.496321141281, -38736.511914314266, -11050.747162192722, -30055.027312639635, -0.03, 0.906, 0.47600000000000003, 192.0, 0.0, 0.0, 0.0, 0.0, 0.0, 0.0, 0.0, 0.0, 0.0, 1.654155205151399E9, 0.0, 2022-06-02 09:33:25.151
81.0, 22040.295248066814, -8067.616291954076, -62856.54757696958, -29198.128485456527, -14333.100835454565, -38712.64025123599, -11032.865766628476, -30027.0876320705, -0.03, 0.906, 0.47600000000000003, 192.0, 0.0, 0.0, 0.0, 0.0, 0.0, 0.0, 0.0, 0.0, 0.0, 1.6541552051514041E9, 0.0, 2022-06-02 09:33:25.151
82.0, 22039.468233521966, -8071.080812344649, -62857.62046070343, -29197.636747078508, -14329.07752145261, -38711.50031226877, -11028.060141570586, -30001.204311991252, -0.03, 0.906, 0.47600000000000003, 192.0, 0.0, 0.0, 0.0, 0.0, 0.0, 0.0, 0.0, 0.0, 0.0, 1.6541552051514094E9, 0.0, 2022-06-02 09:33:25.151
83.0, 22032.36037878518, -8085.07300437367, -62873.15492309987, -29209.30435768418, -14340.49926286927, -38728.599396777085, -11014.246763497205, -30018.41515522184, -0.03, 0.906, 0.47600000000000003, 192.0, 0.0, 0.0, 0.0, 0.0, 0.0, 0.0, 0.0, 0.0, 0.0, 1.6541552051514146E9, 0.0, 2022-06-02 09:33:25.151
84.0, 22044.095044624217, -8087.956379408405, -62872.81964693304, -29224.01180553577, -14342.26505068124, -38740.2446556383, -10999.65107436789, -30067.879565701434, -0.03, 0.906, 0.47600000000000003, 192.0, 0.0, 0.0, 0.0, 0.0, 0.0, 0.0, 0.0, 0.0, 0.0, 1.6541552051514199E9, 0.0, 2022-06-02 09:33:25.151
85.0, 22038.015370132372, -8091.264437587791, -62876.172408601335, -29224.749413102796, -14350.64695485198, -38741.20578064988, -11026.56257469208, -30053.082710872022, -0.03, 0.906, 0.47600000000000003, 192.0, 0.0, 0.0, 0.0, 0.0, 0.0, 0.0, 0.0, 0.0, 0.0, 1.6541552051514251E9, 0.0, 2022-06-02 09:33:25.151
86.0, 22039.17766084405, -8082.524905505766, -62867.83520791951, -29210.51135188477, -14343.203823948363, -38725.0901728976, -11032.619897439468, -30037.32473103103, -0.03, 0.906, 0.47600000000000003, 192.0, 0.0, 0.0, 0.0, 0.0, 0.0, 0.0, 0.0, 0.0, 0.0, 1.6541552051514325E9, 0.0, 2022-06-02 09:33:25.151
87.0, 22048.118358626172, -8076.065251358182, -62861.80023691658, -29210.51135188477, -14335.9842104893, -38715.724791970824, -11028.082493315042, -30006.144047515878, -0.03, 0.906, 0.47600000000000003, 192.0, 0.0, 0.0, 0.0, 0.0, 0.0, 0.0, 0.0, 0.0, 0.0, 1.6541552051514375E9, 0.0, 2022-06-02 09:33:25.151
88.0, 22043.49154752392, -8090.906809676506, -62878.04995513558, -29216.367508932057, -14352.233928708307, -38733.986167190815, -11031.32349626106, -30032.60851295096, -0.036000000000000004, 0.91, 0.47600000000000003, 192.0, 254.0, 224.0, 28.0, 112.0, 14.0, 224.0, 0.0, 0.0, 0.0, 1.6541552051514428E9, 0.0, 2022-06-02 09:33:25.151
89.0, 22045.324390569258, -8092.359673066101, -62880.19572260329, -29221.195485734403, -14352.233928708307, -38742.09985042809, -11024.282696757638, -30060.168213864355, -0.036000000000000004, 0.91, 0.47600000000000003, 192.0, 0.0, 0.0, 0.0, 0.0, 0.0, 0.0, 0.0, 0.0, 0.0, 1.654155205151448E9, 0.0, 2022-06-02 09:33:25.151
90.0, 22034.282628808338, -8093.834888200151, -62881.02273714814, -29222.60364563509, -14355.452579909872, -38738.031832937224, -11027.054313070097, -30043.56086773406, -0.036000000000000004, 0.91, 0.47600000000000003, 192.0, 0.0, 0.0, 0.0, 0.0, 0.0, 0.0, 0.0, 0.0, 0.0, 1.6541552051514533E9, 0.0, 2022-06-02 09:33:25.151
91.0, 22046.754902214398, -8077.406356025501, -62862.87312065043, -29203.35879365907, -14341.058056480653, -38716.32828907112, -11023.61214442398, -30027.646425681884, -0.036000000000000004, 0.91, 0.47600000000000003, 192.0, 0.0, 0.0, 0.0, 0.0, 0.0, 0.0, 0.0, 0.0, 0.0, 1.6541552051514585E9, 0.0, 2022-06-02 09:33:25.151
92.0, 22055.762655229886, -8071.349033278112, -62855.586451958, -29197.54734010069, -14328.898707496966, -38709.511007012254, -11003.786147092122, -30020.024480822623, -0.036000000000000004, 0.91, 0.47600000000000003, 192.0, 0.0, 0.0, 0.0, 0.0, 0.0, 0.0, 0.0, 0.0, 0.0, 1.6541552051514635E9, 0.0, 2022-06-02 09:33:25.151
93.0, 22052.946335428518, -8078.993329881827, -62868.68457420881, -29213.461782152866, -14341.84036753659, -38723.972585674834, -11021.332266489539, -30037.03415835311, -0.036000000000000004, 0.91, 0.47600000000000003, 192.0, 0.0, 0.0, 0.0, 0.0, 0.0, 0.0, 0.0, 0.0, 0.0, 1.6541552051514688E9, 0.0, 2022-06-02 09:33:25.151
94.0, 22050.577050516255, -8091.93498992145, -62888.2423506072, -29235.053567296694, -14364.326222458629, -38747.91130398647, -11054.904586661409, -30065.487929044717, -0.036000000000000004, 0.91, 0.47600000000000003, 192.0, 0.0, 0.0, 0.0, 0.0, 0.0, 0.0, 0.0, 0.0, 0.0, 1.654155205151474E9, 0.0, 2022-06-02 09:33:25.151
95.0, 22043.804471946296, -8089.74451896483, -62891.25983610867, -29236.037044052726, -14371.590539406603, -38744.33502487362, -11075.915226449399, -30070.22649886924, -0.036000000000000004, 0.91, 0.47600000000000003, 192.0, 0.0, 0.0, 0.0, 0.0, 0.0, 0.0, 0.0, 0.0, 0.0, 1.6541552051514812E9, 0.0, 2022-06-02 09:33:25.151
96.0, 22044.139748113128, -8079.194495581925, -62880.73216447022, -29226.73871835932, -14365.063830025654, -38729.493466555294, -11072.294243847638, -30041.07982409952, -0.036000000000000004, 0.91, 0.47600000000000003, 192.0, 0.0, 0.0, 0.0, 0.0, 0.0, 0.0, 0.0, 0.0, 0.0, 1.6541552051514864E9, 0.0, 2022-06-02 09:33:25.151
97.0, 22051.202899361004, -8070.320853033168, -62868.572815486536, -29215.96517753186, -14344.723742571325, -38718.675222238926, -11012.525679174147, -30002.41130619184, -0.036000000000000004, 0.91, 0.47600000000000003, 192.0, 0.0, 0.0, 0.0, 0.0, 0.0, 0.0, 0.0, 0.0, 0.0, 1.6541552051514916E9, 0.0, 2022-06-02 09:33:25.151
98.0, 22058.89189945363, -8077.071079858671, -62875.32304231203, -29214.713479842365, -14342.9356030149, -38721.960928673856, -11006.758929104679, -30037.257675797664, -0.034, 0.902, 0.47800000000000004, 192.0, 254.0, 240.0, 28.0, 48.0, 14.0, 240.0, 0.0, 0.0, 0.0, 1.654155205151497E9, 0.0, 2022-06-02 09:33:25.151
99.0, 22059.11541689818, -8089.3421875646345, -62888.95760642977, -29234.15949751848, -14356.771332832735, -38740.51287657176, -11023.7015514018, -30057.57541150754, -0.034, 0.902, 0.47800000000000004, 192.0, 0.0, 0.0, 0.0, 0.0, 0.0, 0.0, 0.0, 0.0, 0.0, 1.654155205151502E9, 0.0, 2022-06-02 09:33:25.151
100.0, 22055.82971046325, -8093.499612033322, -62891.30453959758, -29242.83197436714, -14370.31648997265, -38744.111507429065, -11041.270022543673, -30040.722196188235, -0.034, 0.902, 0.47800000000000004, 192.0, 0.0, 0.0, 0.0, 0.0, 0.0, 0.0, 0.0, 0.0, 0.0, 1.6541552051515071E9, 0.0, 2022-06-02 09:33:25.151
101.0, 22066.80441699081, -8076.892265903029, -62873.4901992667, -29213.35002343059, -14355.452579909872, -38723.011460663256, -11031.815234639078, -30034.79898390758, -0.034, 0.902, 0.47800000000000004, 192.0, 0.0, 0.0, 0.0, 0.0, 0.0, 0.0, 0.0, 0.0, 0.0, 1.6541552051515124E9, 0.0, 2022-06-02 09:33:25.151
102.0, 22071.69944902652, -8072.60073096761, -62874.719545211745, -29210.93603502942, -14345.237832693796, -38716.48475128231, -11018.001856565697, -30024.003091335668, -0.034, 0.902, 0.47800000000000004, 192.0, 0.0, 0.0, 0.0, 0.0, 0.0, 0.0, 0.0, 0.0, 0.0, 1.6541552051515176E9, 0.0, 2022-06-02 09:33:25.151
103.0, 22078.784952018854, -8075.707623446897, -62882.09562088199, -29222.335424701625, -14347.115379228042, -38724.4419723084, -11021.354618233994, -30020.359756989452, -0.034, 0.902, 0.47800000000000004, 192.0, 0.0, 0.0, 0.0, 0.0, 0.0, 0.0, 0.0, 0.0, 0.0, 1.6541552051515229E9, 0.0, 2022-06-02 09:33:25.151
104.0, 22075.4098386061, -8082.256684572302, -62897.16069664487, -29242.630808667043, -14359.475893911827, -38737.405984092475, -11042.275851044162, -30042.689149700305, -0.034, 0.902, 0.47800000000000004, 192.0, 0.0, 0.0, 0.0, 0.0, 0.0, 0.0, 0.0, 0.0, 0.0, 1.654155205151528E9, 0.0, 2022-06-02 09:33:25.151
105.0, 22067.385562346648, -8091.733824221352, -62907.88953398342, -29259.305210030703, -14372.328146973628, -38747.821897008645, -11047.550862735614, -30067.343123834507, -0.034, 0.902, 0.47800000000000004, 192.0, 0.0, 0.0, 0.0, 0.0, 0.0, 0.0, 0.0, 0.0, 0.0, 1.654155205151533E9, 0.0, 2022-06-02 09:33:25.151
106.0, 22077.64501305163, -8081.966111894383, -62895.26079836617, -29230.247942238802, -14359.900577056478, -38737.45068758138, -11019.544126933113, -30056.770748707146, -0.034, 0.902, 0.47800000000000004, 192.0, 0.0, 0.0, 0.0, 0.0, 0.0, 0.0, 0.0, 0.0, 0.0, 1.6541552056315403E9, 0.0, 2022-06-02 09:33:25.631
107.0, 22091.43603938056, -8059.301443016701, -62875.09952486748, -29212.29949144119, -14337.906460512455, -38714.1378181145, -11004.233181981228, -30018.303396499563, -0.036000000000000004, 0.9, 0.482, 192.0, 254.0, 224.0, 28.0, 32.0, 15.0, 16.0, 0.0, 0.0, 0.0, 1.6541552056317484E9, 0.0, 2022-06-02 09:33:25.631
108.0, 22088.776181790374, -8057.69211741592, -62878.92167316934, -29211.137200729514, -14336.274783167219, -38718.00466990527, -11012.480975685237, -30006.769896360627, -0.036000000000000004, 0.9, 0.482, 192.0, 0.0, 0.0, 0.0, 0.0, 0.0, 0.0, 0.0, 0.0, 0.0, 1.6541552056317549E9, 0.0, 2022-06-02 09:33:25.631
109.0, 22067.631431535654, -8089.409242798, -62917.36667363247, -29246.050625568703, -14370.875283584033, -38752.0463767107, -11053.004688382709, -30060.056455142076, -0.036000000000000004, 0.9, 0.482, 192.0, 0.0, 0.0, 0.0, 0.0, 0.0, 0.0, 0.0, 0.0, 0.0, 1.6541552056317604E9, 0.0, 2022-06-02 09:33:25.631
110.0, 22066.670306524076, -8098.953437680417, -62928.07315922656, -29259.148747819516, -14382.006452322776, -38753.45453661138, -11059.889025674944, -30048.366492791953, -0.036000000000000004, 0.9, 0.482, 192.0, 0.0, 0.0, 0.0, 0.0, 0.0, 0.0, 0.0, 0.0, 0.0, 1.654155205631766E9, 0.0, 2022-06-02 09:33:25.631
111.0, 22078.784952018854, -8080.356786293601, -62902.480411825236, -29231.097308528104, -14359.632356123015, -38733.13680090151, -11036.41969399687, -30042.666797955848, -0.036000000000000004, 0.9, 0.482, 192.0, 0.0, 0.0, 0.0, 0.0, 0.0, 0.0, 0.0, 0.0, 0.0, 1.654155205631771E9, 0.0, 2022-06-02 09:33:25.631
112.0, 22098.99092900645, -8060.620195939565, -62877.222940590735, -29206.063354738162, -14336.230079678307, -38712.170864602434, -11013.151528018896, -30041.14687933289, -0.036000000000000004, 0.9, 0.482, 192.0, 0.0, 0.0, 0.0, 0.0, 0.0, 0.0, 0.0, 0.0, 0.0, 1.6541552056317766E9, 0.0, 2022-06-02 09:33:25.631
113.0, 22101.024937751885, -8065.828152397651, -62887.68355699582, -29214.489962397813, -14341.393332647483, -38720.70923098436, -11018.828871110543, -30033.346120517985, -0.036000000000000004, 0.9, 0.482, 192.0, 0.0, 0.0, 0.0, 0.0, 0.0, 0.0, 0.0, 0.0, 0.0, 1.654155205631782E9, 0.0, 2022-06-02 09:33:25.631
114.0, 22097.046327238837, -8081.407318283001, -62908.761252017175, -29235.92528533045, -14360.571129390137, -38746.52549583024, -11041.650002199412, -30046.71246370226, -0.036000000000000004, 0.9, 0.482, 192.0, 0.0, 0.0, 0.0, 0.0, 0.0, 0.0, 0.0, 0.0, 0.0, 1.6541552056317873E9, 0.0, 2022-06-02 09:33:25.631
115.0, 22098.633301095164, -8079.730937448852, -62906.01198744917, -29235.008863807783, -14363.767428847246, -38749.632388309525, -11034.296278273616, -30066.650219756393, -0.036000000000000004, 0.9, 0.482, 192.0, 0.0, 0.0, 0.0, 0.0, 0.0, 0.0, 0.0, 0.0, 0.0, 1.6541552056317923E9, 0.0, 2022-06-02 09:33:25.631
116.0, 22101.09199298525, -8064.911730874984, -62887.370632573446, -29211.226607707336, -14344.656687337958, -38723.838475208104, -11006.490708171214, -30028.36168150445, -0.036000000000000004, 0.9, 0.482, 192.0, 0.0, 0.0, 0.0, 0.0, 0.0, 0.0, 0.0, 0.0, 0.0, 1.6541552056317973E9, 0.0, 2022-06-02 09:33:25.631
117.0, 22109.85387681173, -8057.133323804537, -62873.378440544424, -29199.849569779584, -14332.40793137645, -38709.26513782324, -11001.103937757485, -30000.109076512945, -0.038, 0.9, 0.47400000000000003, 192.0, 254.0, 208.0, 28.0, 32.0, 14.0, 208.0, 0.0, 0.0, 0.0, 1.6541552056318023E9, 0.0, 2022-06-02 09:33:25.631
118.0, 22115.553571647833, -8064.934082619439, -62875.971242901236, -29215.78636357622, -14336.878280267512, -38713.13198961401, -11010.55872566208, -30031.781498406115, -0.038, 0.9, 0.47400000000000003, 192.0, 0.0, 0.0, 0.0, 0.0, 0.0, 0.0, 0.0, 0.0, 0.0, 1.6541552056318076E9, 0.0, 2022-06-02 09:33:25.631
119.0, 22107.819868066297, -8082.770774694774, -62902.23454263622, -29237.758128375786, -14363.94624280289, -38742.5468853172, -11049.696630203323, -30057.977742907733, -0.038, 0.9, 0.47400000000000003, 192.0, 0.0, 0.0, 0.0, 0.0, 0.0, 0.0, 0.0, 0.0, 0.0, 1.6541552056318128E9, 0.0, 2022-06-02 09:33:25.631
120.0, 22102.14252497465, -8086.861143930095, -62916.27143815416, -29236.998169064307, -14380.620644166547, -38755.376786634544, -11059.576101252569, -30055.85432718448, -0.038, 0.9, 0.47400000000000003, 192.0, 0.0, 0.0, 0.0, 0.0, 0.0, 0.0, 0.0, 0.0, 0.0, 1.6541552056318185E9, 0.0, 2022-06-02 09:33:25.631
121.0, 22106.501115143434, -8072.60073096761, -62894.05380416558, -29221.240189223314, -14358.246547966784, -38732.801524734685, -11018.828871110543, -30055.876678928937, -0.038, 0.9, 0.47400000000000003, 192.0, 0.0, 0.0, 0.0, 0.0, 0.0, 0.0, 0.0, 0.0, 0.0, 1.654155205631824E9, 0.0, 2022-06-02 09:33:25.631
122.0, 22107.149315732637, -8069.449134999411, -62876.37357430143, -29204.006994248273, -14335.492472111282, -38714.80837044816, -11005.50723141518, -30013.631881908404, -0.038, 0.9, 0.47400000000000003, 192.0, 0.0, 0.0, 0.0, 0.0, 0.0, 0.0, 0.0, 0.0, 0.0, 1.6541552056318293E9, 0.0, 2022-06-02 09:33:25.631
123.0, 22121.90146707314, -8066.476352986855, -62878.631100491424, -29201.034212235718, -14331.826786020612, -38708.393419789485, -11009.50819367268, -29985.066352494523, -0.038, 0.9, 0.47400000000000003, 192.0, 0.0, 0.0, 0.0, 0.0, 0.0, 0.0, 0.0, 0.0, 0.0, 1.654155205631834E9, 0.0, 2022-06-02 09:33:25.631
124.0, 22125.410690952624, -8071.013757111283, -62887.05770815107, -29208.186770461416, -14341.639201836491, -38715.098943126075, -11009.351731461493, -30022.17024829033, -0.038, 0.9, 0.47400000000000003, 192.0, 0.0, 0.0, 0.0, 0.0, 0.0, 0.0, 0.0, 0.0, 0.0, 1.6541552056318393E9, 0.0, 2022-06-02 09:33:25.631
125.0, 22114.61479838071, -8078.970978137372, -62895.70783325528, -29222.380128190536, -14353.038591508699, -38724.77724847523, -11039.28071728715, -30032.005015850667, -0.038, 0.9, 0.47400000000000003, 192.0, 0.0, 0.0, 0.0, 0.0, 0.0, 0.0, 0.0, 0.0, 0.0, 1.6541552056318443E9, 0.0, 2022-06-02 09:33:25.631
126.0, 22111.08322275677, -8082.949588650416, -62899.395871090404, -29219.31793920016, -14359.051210767177, -38726.67714675393, -11047.260290057695, -30035.98362636371, -0.038, 0.9, 0.47400000000000003, 192.0, 0.0, 0.0, 0.0, 0.0, 0.0, 0.0, 0.0, 0.0, 0.0, 1.6541552056318493E9, 0.0, 2022-06-02 09:33:25.631
127.0, 22132.920877089608, -8062.2295215403465, -62878.273472580135, -29193.88165401002, -14334.151367443965, -38704.0348296207, -11012.123347773952, -30003.908873070348, -0.034, 0.91, 0.47600000000000003, 192.0, 254.0, 240.0, 28.0, 112.0, 14.0, 224.0, 0.0, 0.0, 0.0, 1.6541552056318543E9, 0.0, 2022-06-02 09:33:25.631
128.0, 22125.835374097274, -8063.257701785291, -62887.437687806814, -29202.755296558775, -14336.654762822958, -38709.578062245615, -11006.244838982206, -30002.545416658573, -0.034, 0.91, 0.47600000000000003, 192.0, 0.0, 0.0, 0.0, 0.0, 0.0, 0.0, 0.0, 0.0, 0.0, 1.6541552056318643E9, 0.0, 2022-06-02 09:33:25.631
129.0, 22118.928685060586, -8079.574475237665, -62901.87691472494, -29219.92143630045, -14349.596422862582, -38729.06878341064, -11017.867746098966, -30034.642521696394, -0.034, 0.91, 0.47600000000000003, 192.0, 0.0, 0.0, 0.0, 0.0, 0.0, 0.0, 0.0, 0.0, 0.0, 1.6541552056318693E9, 0.0, 2022-06-02 09:33:25.631
130.0, 22112.04434776835, -8088.179896852958, -62907.93423747233, -29224.88352356953, -14363.163931746953, -38738.23299863732, -11032.41873173937, -30027.825239637525, -0.034, 0.91, 0.47600000000000003, 192.0, 0.0, 0.0, 0.0, 0.0, 0.0, 0.0, 0.0, 0.0, 0.0, 1.6541552056318743E9, 0.0, 2022-06-02 09:33:25.631
131.0, 22129.09872878775, -8066.096373331115, -62888.0411849071, -29201.369488402546, -14343.874376282023, -38713.9366524144, -11013.03976929662, -30022.32671050152, -0.034, 0.91, 0.47600000000000003, 192.0, 0.0, 0.0, 0.0, 0.0, 0.0, 0.0, 0.0, 0.0, 0.0, 1.6541552056318793E9, 0.0, 2022-06-02 09:33:25.631
132.0, 22147.09188307427, -8050.2489865123025, -62868.572815486536, -29181.901118981972, -14327.803472018657, -38698.692762695886, -11009.41878669486, -30016.828181365512, -0.034, 0.91, 0.47600000000000003, 192.0, 0.0, 0.0, 0.0, 0.0, 0.0, 0.0, 0.0, 0.0, 0.0, 1.6541552056318846E9, 0.0, 2022-06-02 09:33:25.631
133.0, 22135.75954863543, -8068.979748365849, -62886.677728495335, -29201.5930058471, -14342.689733825891, -38717.9376146719, -11016.101958286996, -30032.630864695417, -0.034, 0.91, 0.47600000000000003, 192.0, 0.0, 0.0, 0.0, 0.0, 0.0, 0.0, 0.0, 0.0, 0.0, 1.6541552056318896E9, 0.0, 2022-06-02 09:33:25.631
134.0, 22124.986007807973, -8089.74451896483, -62908.31421712807, -29225.084689269628, -14363.812132336156, -38745.720833029845, -11036.7549701637, -30061.86694644296, -0.034, 0.91, 0.47600000000000003, 192.0, 0.0, 0.0, 0.0, 0.0, 0.0, 0.0, 0.0, 0.0, 0.0, 1.6541552056318948E9, 0.0, 2022-06-02 09:33:25.631
135.0, 22124.360158963224, -8085.832963685151, -62903.41918509236, -29219.96613978936, -14365.846141081589, -38741.65281553898, -11047.99789762472, -30038.263504298153, -0.034, 0.91, 0.47600000000000003, 192.0, 0.0, 0.0, 0.0, 0.0, 0.0, 0.0, 0.0, 0.0, 0.0, 1.6541552056319E9, 0.0, 2022-06-02 09:33:25.631
