%OpenBCI Raw EEG Data
%Number of channels = 8
%Sample Rate = 250 Hz
%Board = OpenBCI_GUI$BoardCytonSerial
Sample Index, EXG Channel 0, EXG Channel 1, EXG Channel 2, EXG Channel 3, EXG Channel 4, EXG Channel 5, EXG Channel 6, EXG Channel 7, Accel Channel 0, Accel Channel 1, Accel Channel 2, Other, Other, Other, Other, Other, Other, Other, Analog Channel 0, Analog Channel 1, Analog Channel 2, Timestamp, Other, Timestamp (Formatted)
0.0, 0.0, 0.0, 0.0, 0.0, 0.0, 0.0, 0.0, 0.0, -0.038, 0.904, 0.486, 192.0, 254.0, 208.0, 28.0, 64.0, 15.0, 48.0, 0.0, 0.0, 0.0, 1.6541559741373377E9, 0.0, 2022-06-02 09:46:14.137
1.0, 26432.793013190392, -3214.1808526731556, -60221.18749871106, -34515.13910474051, -10822.178223392752, -34305.435038260825, -4024.543347900313, -25518.070223101407, -0.038, 0.904, 0.486, 192.0, 0.0, 0.0, 0.0, 0.0, 0.0, 0.0, 0.0, 0.0, 0.0, 1.6541559746188505E9, 0.0, 2022-06-02 09:46:14.618
2.0, 26430.937818400602, -3230.7658470589936, -60240.678219876085, -34541.4024044755, -10837.265650900084, -34325.68571873733, -4044.5705109322685, -25527.413252283724, -0.038, 0.904, 0.486, 192.0, 0.0, 0.0, 0.0, 0.0, 0.0, 0.0, 0.0, 0.0, 0.0, 1.6541559746190488E9, 0.0, 2022-06-02 09:46:14.619
3.0, 26423.51703924144, -3244.2439489655435, -60259.02900207389, -34566.4587100099, -10861.137313978352, -34342.1589544009, -4060.9543396180084, -25538.18679311118, -0.038, 0.904, 0.486, 192.0, 0.0, 0.0, 0.0, 0.0, 0.0, 0.0, 0.0, 0.0, 0.0, 1.6541559746190548E9, 0.0, 2022-06-02 09:46:14.619
4.0, 26414.2857687814, -3236.912576784203, -60247.4731501905, -34551.661855180486, -10861.137313978352, -34333.62058801897, -4054.51703721488, -25523.926380148696, -0.038, 0.904, 0.486, 192.0, 0.0, 0.0, 0.0, 0.0, 0.0, 0.0, 0.0, 0.0, 0.0, 1.6541559746190605E9, 0.0, 2022-06-02 09:46:14.619
5.0, 26418.532600227907, -3228.2177481910885, -60235.67142911809, -34531.36647121507, -10851.727229562668, -34319.02489888965, -4060.0155663508854, -25504.90504561723, -0.038, 0.904, 0.486, 192.0, 0.0, 0.0, 0.0, 0.0, 0.0, 0.0, 0.0, 0.0, 0.0, 1.6541559746190667E9, 0.0, 2022-06-02 09:46:14.619
6.0, 26437.218658592545, -3225.9602220011025, -60237.48192041897, -34522.87280832205, -10849.067371972487, -34315.89565466591, -4090.391587065648, -25503.362775249814, -0.038, 0.904, 0.486, 192.0, 0.0, 0.0, 0.0, 0.0, 0.0, 0.0, 0.0, 0.0, 0.0, 1.6541559746190724E9, 0.0, 2022-06-02 09:46:14.619
7.0, 26438.872687682237, -3236.174969217178, -60251.04942930334, -34546.2527330223, -10858.365697665895, -34335.87811420895, -4061.960168118497, -25539.036159400483, -0.038, 0.904, 0.486, 192.0, 0.0, 0.0, 0.0, 0.0, 0.0, 0.0, 0.0, 0.0, 0.0, 1.6541559746190782E9, 0.0, 2022-06-02 09:46:14.619
8.0, 26432.435385279106, -3244.936853043658, -60257.71024915102, -34572.53838450174, -10862.701936090223, -34354.78769001814, -4049.1526185456064, -25568.763979526044, -0.02, 0.91, 0.47400000000000003, 192.0, 255.0, 96.0, 28.0, 112.0, 14.0, 208.0, 0.0, 0.0, 0.0, 1.654155974619084E9, 0.0, 2022-06-02 09:46:14.619
9.0, 26433.351806801777, -3239.483027396563, -60250.55769092533, -34552.19829704741, -10862.165494223296, -34345.84699223602, -4046.5821679332457, -25561.700828278164, -0.02, 0.91, 0.47400000000000003, 192.0, 0.0, 0.0, 0.0, 0.0, 0.0, 0.0, 0.0, 0.0, 0.0, 1.65415597461909E9, 0.0, 2022-06-02 09:46:14.619
10.0, 26450.361484332265, -3221.6016318323177, -60233.1680337391, -34534.00397706079, -10846.34045914894, -34322.17649485785, -4035.8086271057878, -25494.71265014561, -0.02, 0.91, 0.47400000000000003, 192.0, 0.0, 0.0, 0.0, 0.0, 0.0, 0.0, 0.0, 0.0, 0.0, 1.6541559746190956E9, 0.0, 2022-06-02 09:46:14.619
11.0, 26454.429501823128, -3214.9184602401806, -60231.089321504754, -34535.92622708395, -10834.874014243367, -34316.141523854916, -4031.450036937003, -25494.533836189967, -0.02, 0.91, 0.47400000000000003, 192.0, 0.0, 0.0, 0.0, 0.0, 0.0, 0.0, 0.0, 0.0, 0.0, 1.6541559746191015E9, 0.0, 2022-06-02 09:46:14.619
12.0, 26460.263307125966, -3222.7415707995383, -60247.69666763505, -34541.804735875696, -10846.876901015867, -34333.59823627451, -4040.4354382080364, -25533.29176107547, -0.02, 0.91, 0.47400000000000003, 192.0, 0.0, 0.0, 0.0, 0.0, 0.0, 0.0, 0.0, 0.0, 0.0, 1.6541559746191072E9, 0.0, 2022-06-02 09:46:14.619
13.0, 26454.76477798996, -3234.520940127485, -60258.60431892924, -34551.81831739168, -10866.009994269609, -34349.57973356006, -4064.910598386598, -25538.969104167118, -0.02, 0.91, 0.47400000000000003, 192.0, 0.0, 0.0, 0.0, 0.0, 0.0, 0.0, 0.0, 0.0, 0.0, 1.654155974619113E9, 0.0, 2022-06-02 09:46:14.619
14.0, 26441.57724876133, -3234.006850005013, -60253.68693514907, -34547.01269233378, -10869.943901293744, -34345.24349513573, -4072.2419705679386, -25536.063377387927, -0.02, 0.91, 0.47400000000000003, 192.0, 0.0, 0.0, 0.0, 0.0, 0.0, 0.0, 0.0, 0.0, 0.0, 1.6541559746191187E9, 0.0, 2022-06-02 09:46:14.619
15.0, 26439.09620512679, -3223.6356405777506, -60235.358504695716, -34534.115735783074, -10850.989621995643, -34325.21633210377, -4056.1487145601172, -25539.349083822857, -0.02, 0.91, 0.47400000000000003, 192.0, 0.0, 0.0, 0.0, 0.0, 0.0, 0.0, 0.0, 0.0, 0.0, 1.6541559746191247E9, 0.0, 2022-06-02 09:46:14.619
16.0, 26449.400359320683, -3227.3460301573314, -60239.18065299757, -34540.73185214184, -10846.116941704386, -34324.5010762812, -4044.749324887911, -25544.557040280946, -0.02, 0.91, 0.47400000000000003, 192.0, 0.0, 0.0, 0.0, 0.0, 0.0, 0.0, 0.0, 0.0, 0.0, 1.6541559746191304E9, 0.0, 2022-06-02 09:46:14.619
17.0, 26451.389664577207, -3233.269242437988, -60251.20589151453, -34539.83778236363, -10851.235491184652, -34335.431079319846, -4049.711412156989, -25531.525973263502, -0.014, 0.912, 0.47000000000000003, 192.0, 255.0, 144.0, 28.0, 128.0, 14.0, 176.0, 0.0, 0.0, 0.0, 1.654155974619136E9, 0.0, 2022-06-02 09:46:14.619
18.0, 26447.411054064163, -3240.153579730222, -60261.1747695416, -34546.4538987224, -10862.634880856858, -34351.03259694965, -4057.8921506276315, -25541.71836873512, -0.014, 0.912, 0.47000000000000003, 192.0, 0.0, 0.0, 0.0, 0.0, 0.0, 0.0, 0.0, 0.0, 0.0, 1.654155974619142E9, 0.0, 2022-06-02 09:46:14.619
19.0, 26454.96594369006, -3230.2070534476106, -60250.71415313651, -34546.8562301226, -10860.355002922417, -34336.548666542614, -4059.769697161877, -25520.372452780302, -0.014, 0.912, 0.47000000000000003, 192.0, 0.0, 0.0, 0.0, 0.0, 0.0, 0.0, 0.0, 0.0, 0.0, 1.654155974619148E9, 0.0, 2022-06-02 09:46:14.619
20.0, 26466.342981617807, -3218.628849819762, -60236.94547855204, -34533.82516310515, -10849.067371972487, -34319.8519134345, -4050.89605461312, -25519.456031257636, -0.014, 0.912, 0.47000000000000003, 192.0, 0.0, 0.0, 0.0, 0.0, 0.0, 0.0, 0.0, 0.0, 0.0, 1.6541559746191535E9, 0.0, 2022-06-02 09:46:14.619
21.0, 26472.28854564292, -3213.5997073173176, -60232.16220523861, -34527.76784035777, -10837.19859566672, -34314.241625576215, -4029.03604853583, -25521.177115580693, -0.014, 0.912, 0.47000000000000003, 192.0, 0.0, 0.0, 0.0, 0.0, 0.0, 0.0, 0.0, 0.0, 0.0, 1.6541559746191597E9, 0.0, 2022-06-02 09:46:14.619
22.0, 26472.959097976578, -3220.0593614649015, -60241.95226931004, -34545.64923592201, -10841.423075368772, -34322.779991958145, -4040.3907347191257, -25520.059528357928, -0.014, 0.912, 0.47000000000000003, 192.0, 0.0, 0.0, 0.0, 0.0, 0.0, 0.0, 0.0, 0.0, 0.0, 1.6541559746191723E9, 0.0, 2022-06-02 09:46:14.619
23.0, 26464.934821717125, -3236.554948872918, -60260.59362418576, -34546.36449174458, -10864.601834368925, -34340.683739266846, -4076.2205810809833, -25545.4287583147, -0.014, 0.912, 0.47000000000000003, 192.0, 0.0, 0.0, 0.0, 0.0, 0.0, 0.0, 0.0, 0.0, 0.0, 1.6541559746191783E9, 0.0, 2022-06-02 09:46:14.619
24.0, 26463.39255134971, -3237.8289983068703, -60258.04552531785, -34554.656988937495, -10871.664985616802, -34339.968483444274, -4074.2983310578265, -25540.421967556715, -0.014, 0.912, 0.47000000000000003, 192.0, 0.0, 0.0, 0.0, 0.0, 0.0, 0.0, 0.0, 0.0, 0.0, 1.6541559746191835E9, 0.0, 2022-06-02 09:46:14.619
25.0, 26474.166092177165, -3221.869852765781, -60232.966868039, -34535.434488705934, -10846.295755660029, -34323.830523947545, -4030.6677258810673, -25526.742699950064, -0.014, 0.912, 0.47000000000000003, 192.0, 0.0, 0.0, 0.0, 0.0, 0.0, 0.0, 0.0, 0.0, 0.0, 1.6541559746191893E9, 0.0, 2022-06-02 09:46:14.619
26.0, 26491.064010985378, -3218.4723876085745, -60235.33615295126, -34528.61720664707, -10838.182072422753, -34326.71389898228, -4036.1439032726175, -25522.76408943702, -0.014, 0.912, 0.47000000000000003, 192.0, 0.0, 0.0, 0.0, 0.0, 0.0, 0.0, 0.0, 0.0, 0.0, 1.6541559746191945E9, 0.0, 2022-06-02 09:46:14.619
27.0, 26479.977545735546, -3226.362553401298, -60248.3225164798, -34539.3013404967, -10847.122770204875, -34333.08414615204, -4064.642377453134, -25533.381168053293, -0.006, 0.912, 0.468, 192.0, 255.0, 208.0, 28.0, 128.0, 14.0, 160.0, 0.0, 0.0, 0.0, 1.6541559746192E9, 0.0, 2022-06-02 09:46:14.619
28.0, 26481.653926569692, -3233.4480563936304, -60259.49838870745, -34558.74735817282, -10861.316127933995, -34344.9082189689, -4074.3653862911924, -25556.358761353345, -0.006, 0.912, 0.468, 192.0, 0.0, 0.0, 0.0, 0.0, 0.0, 0.0, 0.0, 0.0, 0.0, 1.6541559746192052E9, 0.0, 2022-06-02 09:46:14.619
29.0, 26476.177749178143, -3231.0564197369126, -60254.31278399382, -34541.06712830867, -10864.266558202096, -34339.052061921604, -4067.1681245765835, -25532.66591223072, -0.006, 0.912, 0.468, 192.0, 0.0, 0.0, 0.0, 0.0, 0.0, 0.0, 0.0, 0.0, 0.0, 1.6541559746192107E9, 0.0, 2022-06-02 09:46:14.619
30.0, 26481.139836447222, -3209.4199311041752, -60229.03296101487, -34516.077878007636, -10838.271479400573, -34312.07350636405, -4038.0438015513187, -25495.874940857288, -0.006, 0.912, 0.468, 192.0, 0.0, 0.0, 0.0, 0.0, 0.0, 0.0, 0.0, 0.0, 0.0, 1.654155974619216E9, 0.0, 2022-06-02 09:46:14.619
31.0, 26479.061124212876, -3219.0982364533234, -60241.661696632116, -34532.79698286021, -10843.926470747767, -34326.78095421564, -4040.189569019028, -25542.411272813235, -0.006, 0.912, 0.468, 192.0, 0.0, 0.0, 0.0, 0.0, 0.0, 0.0, 0.0, 0.0, 0.0, 1.6541559746192217E9, 0.0, 2022-06-02 09:46:14.619
32.0, 26482.838569025826, -3230.654088336717, -60255.631536916684, -34542.54234344272, -10853.358906907906, -34345.37760560246, -4049.286729012338, -25578.285822664002, -0.006, 0.912, 0.468, 192.0, 0.0, 0.0, 0.0, 0.0, 0.0, 0.0, 0.0, 0.0, 0.0, 1.6541559746192267E9, 0.0, 2022-06-02 09:46:14.619
33.0, 26481.497464358505, -3242.9922512760463, -60265.06397307682, -34556.84745989412, -10861.919625034288, -34354.38535861795, -4062.3401477742373, -25540.153746623248, -0.006, 0.912, 0.468, 192.0, 0.0, 0.0, 0.0, 0.0, 0.0, 0.0, 0.0, 0.0, 0.0, 1.6541559746192322E9, 0.0, 2022-06-02 09:46:14.619
34.0, 26486.280737671943, -3235.035030249957, -60254.91628109411, -34546.40919523349, -10858.76802906609, -34336.950997942804, -4048.772638889866, -25528.39672903976, -0.006, 0.912, 0.468, 192.0, 0.0, 0.0, 0.0, 0.0, 0.0, 0.0, 0.0, 0.0, 0.0, 1.6541559746192377E9, 0.0, 2022-06-02 09:46:14.619
35.0, 26494.170903464666, -3228.977707502569, -60252.45758920403, -34548.577314445654, -10856.666965087292, -34322.779991958145, -4050.0466883238187, -25537.8291651999, -0.006, 0.912, 0.468, 192.0, 0.0, 0.0, 0.0, 0.0, 0.0, 0.0, 0.0, 0.0, 0.0, 1.654155974619243E9, 0.0, 2022-06-02 09:46:14.619
36.0, 26497.255444199498, -3223.2109574331, -60246.37791471218, -34536.99911081781, -10848.553281850014, -34319.67309947885, -4039.295499240816, -25531.973008152607, -0.006, 0.912, 0.468, 192.0, 0.0, 0.0, 0.0, 0.0, 0.0, 0.0, 0.0, 0.0, 0.0, 1.6541559746192484E9, 0.0, 2022-06-02 09:46:14.619
37.0, 26503.826857069358, -3225.110855711801, -60249.95419382503, -34531.12060202606, -10847.390991138338, -34333.57588453006, -4047.3421272447263, -25556.24700263107, -0.008, 0.908, 0.466, 192.0, 255.0, 192.0, 28.0, 96.0, 14.0, 144.0, 0.0, 0.0, 0.0, 1.6541559746192539E9, 0.0, 2022-06-02 09:46:14.619
38.0, 26498.52949363345, -3237.9631087736025, -60260.59362418576, -34552.08653832514, -10861.204369211719, -34349.24445739323, -4060.060269839796, -25572.429665616713, -0.008, 0.908, 0.466, 192.0, 0.0, 0.0, 0.0, 0.0, 0.0, 0.0, 0.0, 0.0, 0.0, 1.654155974619259E9, 0.0, 2022-06-02 09:46:14.619
39.0, 26488.068877228365, -3240.3547454303202, -60261.06301081932, -34556.31101802719, -10870.010956527109, -34345.39995734691, -4079.126307860173, -25554.324752607914, -0.008, 0.908, 0.466, 192.0, 0.0, 0.0, 0.0, 0.0, 0.0, 0.0, 0.0, 0.0, 0.0, 1.6541559746192644E9, 0.0, 2022-06-02 09:46:14.619
40.0, 26487.532435361438, -3228.195396446633, -60249.59656591375, -34546.11862255557, -10863.081915745965, -34325.26103559268, -4069.4032990221144, -25536.75628146604, -0.008, 0.908, 0.466, 192.0, 0.0, 0.0, 0.0, 0.0, 0.0, 0.0, 0.0, 0.0, 0.0, 1.65415597461927E9, 0.0, 2022-06-02 09:46:14.619
41.0, 26503.603339624806, -3222.6074603328066, -60242.57811815478, -34537.334386984636, -10852.755409807613, -34316.208579088285, -4055.3440517597264, -25522.697034203655, -0.008, 0.908, 0.466, 192.0, 0.0, 0.0, 0.0, 0.0, 0.0, 0.0, 0.0, 0.0, 0.0, 1.6541559746192756E9, 0.0, 2022-06-02 09:46:14.619
42.0, 26511.359394950796, -3225.9155185121917, -60250.602394414236, -34535.94857882841, -10856.555206365014, -34331.20659961779, -4065.1788193200614, -25561.231441644602, -0.008, 0.908, 0.466, 192.0, 0.0, 0.0, 0.0, 0.0, 0.0, 0.0, 0.0, 0.0, 0.0, 1.6541559746192808E9, 0.0, 2022-06-02 09:46:14.619
43.0, 26513.81808684088, -3229.737666814049, -60255.09509504976, -34548.9572941014, -10861.740811078645, -34342.87421022346, -4064.5976739642233, -25565.321810879926, -0.008, 0.908, 0.466, 192.0, 0.0, 0.0, 0.0, 0.0, 0.0, 0.0, 0.0, 0.0, 0.0, 1.6541559746192884E9, 0.0, 2022-06-02 09:46:14.619
44.0, 26522.9599503231, -3224.9990969895243, -60248.25546124643, -34541.089480053124, -10862.43371515676, -34333.754698485696, -4067.3916420211367, -25552.715427007133, -0.008, 0.908, 0.466, 192.0, 0.0, 0.0, 0.0, 0.0, 0.0, 0.0, 0.0, 0.0, 0.0, 1.654155974619294E9, 0.0, 2022-06-02 09:46:14.619
45.0, 26530.492488204538, -3205.1060444243008, -60226.93189703607, -34524.77270660075, -10841.959517235699, -34309.39129702941, -4028.4325514355364, -25538.119737877816, -0.008, 0.908, 0.466, 192.0, 0.0, 0.0, 0.0, 0.0, 0.0, 0.0, 0.0, 0.0, 0.0, 1.6541559746192992E9, 0.0, 2022-06-02 09:46:14.619
46.0, 26526.133898035754, -3203.9884572015358, -60228.720036592495, -34531.7017473819, -10835.388104365838, -34308.94426214031, -4047.453885967003, -25540.399615812257, -0.008, 0.908, 0.466, 192.0, 0.0, 0.0, 0.0, 0.0, 0.0, 0.0, 0.0, 0.0, 0.0, 1.6541559746193051E9, 0.0, 2022-06-02 09:46:14.619
47.0, 26518.847229343326, -3223.814454533393, -60244.992106555954, -34541.46945970887, -10849.559110350503, -34330.78191647314, -4050.6278336796563, -25554.168290396727, -0.01, 0.904, 0.47400000000000003, 192.0, 255.0, 176.0, 28.0, 64.0, 14.0, 208.0, 0.0, 0.0, 0.0, 1.6541559746193106E9, 0.0, 2022-06-02 09:46:14.619
48.0, 26514.82391534137, -3238.298384940432, -60258.24669101795, -34552.60062844761, -10865.585311124958, -34346.22697189176, -4052.7959528918213, -25561.4326073447, -0.01, 0.904, 0.47400000000000003, 192.0, 0.0, 0.0, 0.0, 0.0, 0.0, 0.0, 0.0, 0.0, 0.0, 1.654155974619316E9, 0.0, 2022-06-02 09:46:14.619
49.0, 26518.377842709764, -3231.0787714813678, -60250.378876969684, -34547.45972722289, -10856.309337176006, -34335.565189786576, -4050.672537168567, -25563.332505623403, -0.01, 0.904, 0.47400000000000003, 192.0, 0.0, 0.0, 0.0, 0.0, 0.0, 0.0, 0.0, 0.0, 0.0, 1.6541559746193216E9, 0.0, 2022-06-02 09:46:14.619
50.0, 26531.073633560376, -3213.5997073173176, -60231.804577327326, -34526.493790923814, -10832.460025842194, -34307.02201211715, -4007.6901325810118, -25527.70382496164, -0.01, 0.904, 0.47400000000000003, 192.0, 0.0, 0.0, 0.0, 0.0, 0.0, 0.0, 0.0, 0.0, 0.0, 1.654155974619327E9, 0.0, 2022-06-02 09:46:14.619
51.0, 26532.906476605713, -3219.9923062315356, -60237.951307052535, -34542.81056437619, -10829.733113018647, -34306.73143943923, -4014.172138473051, -25521.75826093653, -0.01, 0.904, 0.47400000000000003, 192.0, 0.0, 0.0, 0.0, 0.0, 0.0, 0.0, 0.0, 0.0, 0.0, 1.6541559746193323E9, 0.0, 2022-06-02 09:46:14.619
52.0, 26534.024063828478, -3227.3236784128762, -60248.434275202075, -34553.69586392592, -10838.606755567404, -34321.1483146129, -4036.970917817464, -25535.996322154562, -0.01, 0.904, 0.47400000000000003, 192.0, 0.0, 0.0, 0.0, 0.0, 0.0, 0.0, 0.0, 0.0, 0.0, 1.6541559746193376E9, 0.0, 2022-06-02 09:46:14.619
53.0, 26530.134860293256, -3232.7775040599713, -60255.698592150045, -34523.31984321116, -10849.827331283966, -34329.73138448374, -4047.677403411556, -25552.491909562577, -0.01, 0.904, 0.47400000000000003, 192.0, 0.0, 0.0, 0.0, 0.0, 0.0, 0.0, 0.0, 0.0, 0.0, 1.6541559746193433E9, 0.0, 2022-06-02 09:46:14.619
54.0, 26525.463345702094, -3234.0739052383788, -60257.44202821756, -34535.65800615049, -10859.460933144204, -34331.31835834007, -4055.567569204279, -25550.77082523952, -0.01, 0.904, 0.47400000000000003, 192.0, 0.0, 0.0, 0.0, 0.0, 0.0, 0.0, 0.0, 0.0, 0.0, 1.6541559746193483E9, 0.0, 2022-06-02 09:46:14.619
55.0, 26533.73349115056, -3215.4772538515635, -60235.44791167354, -34522.53753215522, -10841.981868980154, -34310.620642974456, -4038.557891673791, -25527.927342406198, -0.01, 0.904, 0.47400000000000003, 192.0, 0.0, 0.0, 0.0, 0.0, 0.0, 0.0, 0.0, 0.0, 0.0, 1.654155974619354E9, 0.0, 2022-06-02 09:46:14.619
56.0, 26540.81899414289, -3207.0729979363678, -60231.89398430515, -34526.58319790163, -10832.14710141982, -34310.35242204099, -4033.3052317267934, -25527.748528450553, -0.01, 0.904, 0.47400000000000003, 192.0, 0.0, 0.0, 0.0, 0.0, 0.0, 0.0, 0.0, 0.0, 0.0, 1.6541559746193593E9, 0.0, 2022-06-02 09:46:14.619
57.0, 26547.05513084592, -3215.656067807206, -60248.367219968706, -34552.37711100306, -10844.14998819232, -34328.74790772771, -4051.7901243913325, -25538.6785314892, -0.008, 0.904, 0.47800000000000004, 192.0, 255.0, 192.0, 28.0, 64.0, 14.0, 240.0, 0.0, 0.0, 0.0, 1.6541559746193645E9, 0.0, 2022-06-02 09:46:14.619
58.0, 26548.64210470225, -3221.7133905545943, -60254.26808050491, -34541.84943936461, -10855.884654031355, -34329.418460061366, -4050.51607495738, -25521.221819069604, -0.008, 0.904, 0.47800000000000004, 192.0, 0.0, 0.0, 0.0, 0.0, 0.0, 0.0, 0.0, 0.0, 0.0, 1.65415597461937E9, 0.0, 2022-06-02 09:46:14.619
59.0, 26558.92390715169, -3218.8970707532253, -60241.6169931432, -34530.11477352557, -10853.984755752654, -34315.73919245472, -4041.8883015976317, -25522.495868503556, -0.008, 0.904, 0.47800000000000004, 192.0, 0.0, 0.0, 0.0, 0.0, 0.0, 0.0, 0.0, 0.0, 0.0, 1.6541559746193757E9, 0.0, 2022-06-02 09:46:14.619
60.0, 26551.883107648267, -3216.8854137522476, -60232.698647105535, -34531.031195048236, -10848.977964994665, -34307.58080572853, -4045.2410632659276, -25524.596932482356, -0.008, 0.904, 0.47800000000000004, 192.0, 0.0, 0.0, 0.0, 0.0, 0.0, 0.0, 0.0, 0.0, 0.0, 1.654155974619381E9, 0.0, 2022-06-02 09:46:14.619
61.0, 26561.986096142067, -3209.8893177377367, -60223.64619060114, -34514.11092449557, -10834.739903776635, -34302.17168357035, -4033.975784060453, -25511.565865464912, -0.008, 0.904, 0.47800000000000004, 192.0, 0.0, 0.0, 0.0, 0.0, 0.0, 0.0, 0.0, 0.0, 0.0, 1.6541559746193864E9, 0.0, 2022-06-02 09:46:14.619
62.0, 26564.0201048875, -3209.6881520376387, -60230.70934184901, -34523.31984321116, -10834.292868887529, -34310.77710518564, -4037.41795270657, -25526.34036854987, -0.008, 0.904, 0.47800000000000004, 192.0, 0.0, 0.0, 0.0, 0.0, 0.0, 0.0, 0.0, 0.0, 0.0, 1.6541559746193917E9, 0.0, 2022-06-02 09:46:14.619
63.0, 26546.362226767807, -3224.2838411669545, -60251.54116768136, -34545.448070221915, -10855.594081353436, -34333.44177406332, -4058.763868661388, -25548.24507811607, -0.008, 0.904, 0.47800000000000004, 192.0, 0.0, 0.0, 0.0, 0.0, 0.0, 0.0, 0.0, 0.0, 0.0, 1.6541559746193972E9, 0.0, 2022-06-02 09:46:14.619
64.0, 26549.960857625112, -3219.4335126201527, -60247.093170534754, -34531.41117470398, -10859.81856105549, -34331.74304148472, -4059.903807628609, -25543.95354318065, -0.008, 0.904, 0.47800000000000004, 192.0, 0.0, 0.0, 0.0, 0.0, 0.0, 0.0, 0.0, 0.0, 0.0, 1.6541559746194048E9, 0.0, 2022-06-02 09:46:14.619
65.0, 26562.746055453546, -3208.8611374927927, -60235.04558027334, -34524.21391298937, -10854.67765983077, -34321.349480313, -4064.038880352841, -25543.998246669562, -0.008, 0.904, 0.47800000000000004, 192.0, 0.0, 0.0, 0.0, 0.0, 0.0, 0.0, 0.0, 0.0, 0.0, 1.65415597461941E9, 0.0, 2022-06-02 09:46:14.619
66.0, 26568.244584589553, -3206.8941839807253, -60231.13402499366, -34532.59581716011, -10849.693220817235, -34316.67796572184, -4056.931025616053, -25551.48608106209, -0.008, 0.904, 0.47800000000000004, 192.0, 0.0, 0.0, 0.0, 0.0, 0.0, 0.0, 0.0, 0.0, 0.0, 1.6541559746194153E9, 0.0, 2022-06-02 09:46:14.619
67.0, 26567.752846211537, -3217.9582974861023, -60244.58977515576, -34547.41502373398, -10854.476494130671, -34326.57978851555, -4045.2187115214724, -25534.230534342594, -0.006, 0.908, 0.47600000000000003, 192.0, 255.0, 208.0, 28.0, 96.0, 14.0, 224.0, 0.0, 0.0, 0.0, 1.6541559746194208E9, 0.0, 2022-06-02 09:46:14.619
68.0, 26560.77910194148, -3229.938832514147, -60258.89489160715, -34536.93205558444, -10870.010956527109, -34338.11328865448, -4080.065081127296, -25503.362775249814, -0.006, 0.908, 0.47600000000000003, 192.0, 0.0, 0.0, 0.0, 0.0, 0.0, 0.0, 0.0, 0.0, 0.0, 1.6541559746194263E9, 0.0, 2022-06-02 09:46:14.619
69.0, 26562.20961358662, -3224.7308760560604, -60253.530472937884, -34533.69105263842, -10874.950692051732, -34330.334881584036, -4088.75990972041, -25537.13626112178, -0.006, 0.908, 0.47600000000000003, 192.0, 0.0, 0.0, 0.0, 0.0, 0.0, 0.0, 0.0, 0.0, 0.0, 1.6541559746194315E9, 0.0, 2022-06-02 09:46:14.619
70.0, 26571.664401491216, -3208.0564746924015, -60234.68795236206, -34523.36454670007, -10858.745677321635, -34310.263015063174, -4052.3936214916257, -25570.328601637913, -0.006, 0.908, 0.47600000000000003, 192.0, 0.0, 0.0, 0.0, 0.0, 0.0, 0.0, 0.0, 0.0, 0.0, 1.654155974619437E9, 0.0, 2022-06-02 09:46:14.619
71.0, 26586.416552831717, -3202.3120763673874, -60228.94355403705, -34513.57448262865, -10843.211214925197, -34304.2950992936, -4025.280955467338, -25504.815638639408, -0.006, 0.908, 0.47600000000000003, 192.0, 0.0, 0.0, 0.0, 0.0, 0.0, 0.0, 0.0, 0.0, 0.0, 1.6541559746194425E9, 0.0, 2022-06-02 09:46:14.619
72.0, 26589.948128455657, -3216.68424805215, -60247.76372286841, -34530.91943632596, -10850.520235362083, -34320.74598321271, -4022.6881531105228, -25522.115888847817, -0.006, 0.908, 0.47600000000000003, 192.0, 0.0, 0.0, 0.0, 0.0, 0.0, 0.0, 0.0, 0.0, 0.0, 1.6541559746194477E9, 0.0, 2022-06-02 09:46:14.619
73.0, 26592.563282556926, -3220.1264166982673, -60254.98333632748, -34530.22653224785, -10857.62809009887, -34329.01612866118, -4052.617138936179, -25575.558909840456, -0.006, 0.908, 0.47600000000000003, 192.0, 0.0, 0.0, 0.0, 0.0, 0.0, 0.0, 0.0, 0.0, 0.0, 1.6541559746194532E9, 0.0, 2022-06-02 09:46:14.619
74.0, 26576.738247482568, -3214.7619980289937, -60252.85992060423, -34532.148782271004, -10861.137313978352, -34319.918968667866, -4064.4635634974916, -25525.938037149674, -0.006, 0.908, 0.47600000000000003, 192.0, 0.0, 0.0, 0.0, 0.0, 0.0, 0.0, 0.0, 0.0, 0.0, 1.6541559746194584E9, 0.0, 2022-06-02 09:46:14.619
75.0, 26579.755732984035, -3204.5472508129183, -60237.526623907885, -34513.7980000732, -10847.882729516356, -34297.20959630127, -4038.89316784062, -25505.888522373265, -0.006, 0.908, 0.47600000000000003, 192.0, 0.0, 0.0, 0.0, 0.0, 0.0, 0.0, 0.0, 0.0, 0.0, 1.654155974619464E9, 0.0, 2022-06-02 09:46:14.619
76.0, 26592.02684069, -3194.6677797636726, -60231.514004649405, -34518.26834896426, -10834.605793309904, -34295.53321546713, -4022.554042643791, -25532.710615719632, -0.006, 0.908, 0.47600000000000003, 192.0, 0.0, 0.0, 0.0, 0.0, 0.0, 0.0, 0.0, 0.0, 0.0, 1.6541559746194694E9, 0.0, 2022-06-02 09:46:14.619
77.0, 26588.249395877054, -3203.720236268072, -60251.20589151453, -34525.53266591224, -10846.00518298211, -34319.58369250104, -4035.7639236168775, -25549.11679614983, -0.006, 0.908, 0.47200000000000003, 192.0, 255.0, 208.0, 28.0, 96.0, 14.0, 192.0, 0.0, 0.0, 0.0, 1.654155974619475E9, 0.0, 2022-06-02 09:46:14.619
78.0, 26589.903424966746, -3214.8290532623596, -60261.442990475065, -34524.9962240453, -10858.946843021733, -34328.41263156088, -4048.616176678679, -25537.449185544156, -0.006, 0.908, 0.47200000000000003, 192.0, 0.0, 0.0, 0.0, 0.0, 0.0, 0.0, 0.0, 0.0, 0.0, 1.65415597461948E9, 0.0, 2022-06-02 09:46:14.619
79.0, 26608.209503675644, -3211.3198293828764, -60252.30112699284, -34524.750354856296, -10860.019726755587, -34318.06377387807, -4054.539388959335, -25532.263580830528, -0.006, 0.908, 0.47200000000000003, 192.0, 0.0, 0.0, 0.0, 0.0, 0.0, 0.0, 0.0, 0.0, 0.0, 1.6541559746194856E9, 0.0, 2022-06-02 09:46:14.619
80.0, 26601.12400068331, -3196.7688437424713, -60236.185519240564, -34515.63084311853, -10846.787494038046, -34301.255262047685, -4042.13417078664, -25509.643615441753, -0.006, 0.908, 0.47200000000000003, 192.0, 0.0, 0.0, 0.0, 0.0, 0.0, 0.0, 0.0, 0.0, 0.0, 1.6541559746194909E9, 0.0, 2022-06-02 09:46:14.619
81.0, 26589.9257767112, -3196.9700094425693, -60237.43721693006, -34529.69009038092, -10842.518310847081, -34303.53513998212, -4042.000060319908, -25520.260694058026, -0.006, 0.908, 0.47200000000000003, 192.0, 0.0, 0.0, 0.0, 0.0, 0.0, 0.0, 0.0, 0.0, 0.0, 1.6541559746194963E9, 0.0, 2022-06-02 09:46:14.619
82.0, 26590.037535433476, -3210.6269253047617, -60256.63736541717, -34538.40727071849, -10855.281156931062, -34320.120134367964, -4056.3498802602153, -25546.18871762618, -0.006, 0.908, 0.47200000000000003, 192.0, 0.0, 0.0, 0.0, 0.0, 0.0, 0.0, 0.0, 0.0, 0.0, 1.6541559746195016E9, 0.0, 2022-06-02 09:46:14.619
83.0, 26595.089029680377, -3218.0924079528345, -60270.27192953491, -34547.43737547843, -10871.91085480581, -34342.82950673455, -4062.6307204521563, -25558.079845676406, -0.006, 0.908, 0.47200000000000003, 192.0, 0.0, 0.0, 0.0, 0.0, 0.0, 0.0, 0.0, 0.0, 0.0, 1.654155974619507E9, 0.0, 2022-06-02 09:46:14.619
84.0, 26600.65461404975, -3214.203204417611, -60257.35262123974, -34533.55694217169, -10871.039136772053, -34334.939340941826, -4060.2390837954385, -25541.71836873512, -0.006, 0.908, 0.47200000000000003, 192.0, 0.0, 0.0, 0.0, 0.0, 0.0, 0.0, 0.0, 0.0, 0.0, 1.6541559746195123E9, 0.0, 2022-06-02 09:46:14.619
85.0, 26611.070526965923, -3198.065244920879, -60238.26423147491, -34516.92724429694, -10852.822465040977, -34308.18430282883, -4048.258548767394, -25514.248074799547, -0.006, 0.908, 0.47200000000000003, 192.0, 0.0, 0.0, 0.0, 0.0, 0.0, 0.0, 0.0, 0.0, 0.0, 1.6541559746195178E9, 0.0, 2022-06-02 09:46:14.619
86.0, 26629.823640563925, -3189.303361094399, -60231.849280816234, -34516.144933241005, -10841.870110257878, -34302.95399462629, -4044.5928626767236, -25509.509504975023, -0.006, 0.908, 0.47200000000000003, 192.0, 0.0, 0.0, 0.0, 0.0, 0.0, 0.0, 0.0, 0.0, 0.0, 1.6541559746195252E9, 0.0, 2022-06-02 09:46:14.619
87.0, 26635.210410977652, -3192.522012295963, -60230.664638360104, -34525.48796242332, -10837.28800264454, -34309.05602086258, -4037.6861736400338, -25524.932208649185, -0.008, 0.91, 0.47400000000000003, 192.0, 255.0, 192.0, 28.0, 112.0, 14.0, 208.0, 0.0, 0.0, 0.0, 1.6541559746195304E9, 0.0, 2022-06-02 09:46:14.619
88.0, 26614.669157823224, -3208.168233414678, -60245.081513533776, -34539.72602364136, -10851.526063862571, -34325.305739081596, -4051.4995517134134, -25545.451110059155, -0.008, 0.91, 0.47400000000000003, 192.0, 0.0, 0.0, 0.0, 0.0, 0.0, 0.0, 0.0, 0.0, 0.0, 1.654155974619536E9, 0.0, 2022-06-02 09:46:14.619
89.0, 26613.149239200266, -3208.5705648148737, -60244.813292600316, -34537.42379396246, -10862.43371515676, -34328.18911411633, -4053.8241331367653, -25531.61538024132, -0.008, 0.91, 0.47400000000000003, 192.0, 0.0, 0.0, 0.0, 0.0, 0.0, 0.0, 0.0, 0.0, 0.0, 1.6541559746195412E9, 0.0, 2022-06-02 09:46:14.619
90.0, 26618.670120080726, -3192.4102535736865, -60227.244821458444, -34525.30914846768, -10849.357944650406, -34310.754753441186, -4048.772638889866, -25526.273313316502, -0.008, 0.91, 0.47400000000000003, 192.0, 0.0, 0.0, 0.0, 0.0, 0.0, 0.0, 0.0, 0.0, 0.0, 1.654155974619547E9, 0.0, 2022-06-02 09:46:14.619
91.0, 26628.147259729776, -3184.6094947587844, -60220.472242888485, -34518.245997219805, -10834.359924120894, -34303.31162253757, -4029.6618973805785, -25535.437528543178, -0.008, 0.91, 0.47400000000000003, 192.0, 0.0, 0.0, 0.0, 0.0, 0.0, 0.0, 0.0, 0.0, 0.0, 1.654155974619552E9, 0.0, 2022-06-02 09:46:14.619
92.0, 26641.245381980585, -3196.880602464748, -60232.832757572265, -34537.51320094028, -10841.937165491243, -34319.09195412302, -4039.6531271521008, -25548.759168238543, -0.008, 0.91, 0.47400000000000003, 192.0, 0.0, 0.0, 0.0, 0.0, 0.0, 0.0, 0.0, 0.0, 0.0, 1.6541559746195576E9, 0.0, 2022-06-02 09:46:14.619
93.0, 26631.902352798268, -3212.9291549836585, -60247.249632745945, -34537.22262826236, -10861.137313978352, -34329.977253672754, -4037.4626561954806, -25515.76799342251, -0.008, 0.91, 0.47400000000000003, 192.0, 0.0, 0.0, 0.0, 0.0, 0.0, 0.0, 0.0, 0.0, 0.0, 1.6541559746195629E9, 0.0, 2022-06-02 09:46:14.619
94.0, 26629.287198696995, -3200.3451228553204, -60231.2681354604, -34522.47047692186, -10855.728191820168, -34315.06864012106, -4042.2459295089166, -25511.923493376198, -0.008, 0.91, 0.47400000000000003, 192.0, 0.0, 0.0, 0.0, 0.0, 0.0, 0.0, 0.0, 0.0, 0.0, 1.6541559746195683E9, 0.0, 2022-06-02 09:46:14.619
95.0, 26634.495155155084, -3186.5540965263963, -60221.25455394442, -34513.976814028836, -10846.51927310458, -34299.86945389145, -4057.132191316151, -25514.33748177737, -0.008, 0.91, 0.47400000000000003, 192.0, 0.0, 0.0, 0.0, 0.0, 0.0, 0.0, 0.0, 0.0, 0.0, 1.654155974619576E9, 0.0, 2022-06-02 09:46:14.619
96.0, 26649.895507084788, -3183.9836459140356, -60217.54416436484, -34504.99141275781, -10836.505691588603, -34301.07644809204, -4024.945679300509, -25499.853551370332, -0.012, 0.91, 0.47600000000000003, 192.0, 255.0, 160.0, 28.0, 112.0, 14.0, 224.0, 0.0, 0.0, 0.0, 1.6541559746195815E9, 0.0, 2022-06-02 09:46:14.619
97.0, 26669.788559650013, -3183.5813145138404, -60213.43144338506, -34518.55892164218, -10821.798243737012, -34303.333974282024, -4001.2081266889727, -25532.53180176399, -0.012, 0.91, 0.47600000000000003, 192.0, 0.0, 0.0, 0.0, 0.0, 0.0, 0.0, 0.0, 0.0, 0.0, 1.6541559746195867E9, 0.0, 2022-06-02 09:46:14.619
98.0, 26649.113196028855, -3205.9554107136028, -60242.10873152122, -34546.72211965587, -10843.926470747767, -34332.570056029566, -4041.6871358975336, -25562.796063756476, -0.012, 0.91, 0.47600000000000003, 192.0, 0.0, 0.0, 0.0, 0.0, 0.0, 0.0, 0.0, 0.0, 0.0, 1.654155974619592E9, 0.0, 2022-06-02 09:46:14.619
99.0, 26643.03352153701, -3209.107006681801, -60249.328344980284, -34540.39657597501, -10859.505636633116, -34335.58754153104, -4067.8163251657875, -25527.010920883527, -0.012, 0.91, 0.47600000000000003, 192.0, 0.0, 0.0, 0.0, 0.0, 0.0, 0.0, 0.0, 0.0, 0.0, 1.6541559746195977E9, 0.0, 2022-06-02 09:46:14.619
100.0, 26658.389169977807, -3191.7397012400274, -60232.38572268316, -34521.57640714364, -10848.463874872194, -34314.01810813166, -4062.5636652187904, -25546.00990367054, -0.012, 0.91, 0.47600000000000003, 192.0, 0.0, 0.0, 0.0, 0.0, 0.0, 0.0, 0.0, 0.0, 0.0, 1.654155974619603E9, 0.0, 2022-06-02 09:46:14.619
101.0, 26663.239498524606, -3188.744567483016, -60231.379894182675, -34526.22556999035, -10839.567880578981, -34307.51375049517, -4051.544255202324, -25542.34421757987, -0.012, 0.91, 0.47600000000000003, 192.0, 0.0, 0.0, 0.0, 0.0, 0.0, 0.0, 0.0, 0.0, 0.0, 1.654155974619609E9, 0.0, 2022-06-02 09:46:14.619
102.0, 26668.8944898718, -3188.588105271829, -60238.375990197186, -34531.96996831536, -10841.020743968576, -34315.26980582116, -4066.296406542827, -25533.224705842105, -0.012, 0.91, 0.47600000000000003, 192.0, 0.0, 0.0, 0.0, 0.0, 0.0, 0.0, 0.0, 0.0, 0.0, 1.6541559746196148E9, 0.0, 2022-06-02 09:46:14.619
103.0, 26665.60878343687, -3198.0875966653343, -60255.072743305296, -34531.96996831536, -10855.05763948651, -34332.74886998521, -4079.327473560271, -25586.399505901278, -0.012, 0.91, 0.47600000000000003, 192.0, 0.0, 0.0, 0.0, 0.0, 0.0, 0.0, 0.0, 0.0, 0.0, 1.6541559746196203E9, 0.0, 2022-06-02 09:46:14.619
104.0, 26656.824547865934, -3203.5414223124294, -60261.91237710862, -34546.23038127785, -10864.400668668828, -34331.76539322918, -4059.3673657616814, -25533.00118839755, -0.012, 0.91, 0.47600000000000003, 192.0, 0.0, 0.0, 0.0, 0.0, 0.0, 0.0, 0.0, 0.0, 0.0, 1.6541559746196258E9, 0.0, 2022-06-02 09:46:14.619
105.0, 26678.461036498673, -3180.8991051792036, -60237.48192041897, -34525.64442463451, -10839.500825345616, -34302.596366715, -4031.4053334480923, -25488.007126809018, -0.012, 0.91, 0.47600000000000003, 192.0, 0.0, 0.0, 0.0, 0.0, 0.0, 0.0, 0.0, 0.0, 0.0, 1.6541559746196313E9, 0.0, 2022-06-02 09:46:14.619
106.0, 26687.62525172535, -3176.6969772216057, -60237.25840297442, -34506.86895929205, -10830.068389185475, -34294.10270382198, -4036.3674207171707, -25547.26160136004, -0.014, 0.906, 0.47400000000000003, 192.0, 255.0, 144.0, 28.0, 80.0, 14.0, 208.0, 0.0, 0.0, 0.0, 1.6541559746196365E9, 0.0, 2022-06-02 09:46:14.619
107.0, 26690.687440715727, -3188.6104570162843, -60259.09605730725, -34524.86211357857, -10836.416284610783, -34307.401991772895, -4041.2401010084277, -25555.755264253054, -0.014, 0.906, 0.47400000000000003, 192.0, 0.0, 0.0, 0.0, 0.0, 0.0, 0.0, 0.0, 0.0, 0.0, 1.654155974619644E9, 0.0, 2022-06-02 09:46:14.619
108.0, 26676.538786475514, -3206.715370025083, -60287.34866229876, -34556.46748023838, -10857.896311032333, -34329.93255018384, -4068.9562641330085, -25544.266467603025, -0.014, 0.906, 0.47400000000000003, 192.0, 0.0, 0.0, 0.0, 0.0, 0.0, 0.0, 0.0, 0.0, 0.0, 1.6541559746196496E9, 0.0, 2022-06-02 09:46:14.619
109.0, 26662.65835316877, -3206.7377217695384, -60291.46138327854, -34557.62977095005, -10867.418154170295, -34326.98211991574, -4081.3391305612486, -25555.68820901969, -0.014, 0.906, 0.47400000000000003, 192.0, 0.0, 0.0, 0.0, 0.0, 0.0, 0.0, 0.0, 0.0, 0.0, 1.654155974619655E9, 0.0, 2022-06-02 09:46:14.619
110.0, 26670.414408494762, -3189.4151198166755, -60275.59164471527, -34542.922323098464, -10849.849683028422, -34311.29119530811, -4064.0835838417515, -25558.996267199072, -0.014, 0.906, 0.47400000000000003, 192.0, 0.0, 0.0, 0.0, 0.0, 0.0, 0.0, 0.0, 0.0, 0.0, 1.6541559746196601E9, 0.0, 2022-06-02 09:46:14.619
111.0, 26678.908071387777, -3182.530782524441, -60269.891949879166, -34515.854360563084, -10832.996467709121, -34311.35825054148, -4054.829961637254, -25558.459825332146, -0.014, 0.906, 0.47400000000000003, 192.0, 0.0, 0.0, 0.0, 0.0, 0.0, 0.0, 0.0, 0.0, 0.0, 1.6541559746196656E9, 0.0, 2022-06-02 09:46:14.619
112.0, 26692.207359338685, -3195.2042216306, -60283.05712736335, -34539.41309921898, -10837.62327881137, -34322.422364046855, -4070.967921133986, -25537.069205888416, -0.014, 0.906, 0.47400000000000003, 192.0, 0.0, 0.0, 0.0, 0.0, 0.0, 0.0, 0.0, 0.0, 0.0, 1.6541559746196709E9, 0.0, 2022-06-02 09:46:14.619
113.0, 26683.803103423492, -3205.284858379943, -60291.014348389435, -34548.53261095675, -10845.692258559735, -34328.52439028316, -4058.450944239014, -25551.3296188509, -0.014, 0.906, 0.47400000000000003, 192.0, 0.0, 0.0, 0.0, 0.0, 0.0, 0.0, 0.0, 0.0, 0.0, 1.6541559746196764E9, 0.0, 2022-06-02 09:46:14.619
114.0, 26671.688457928714, -3203.6978845236167, -60282.6771477076, -34545.2022010329, -10846.116941704386, -34324.389317558926, -4057.8921506276315, -25528.687301717677, -0.014, 0.906, 0.47400000000000003, 192.0, 0.0, 0.0, 0.0, 0.0, 0.0, 0.0, 0.0, 0.0, 0.0, 1.6541559746196818E9, 0.0, 2022-06-02 09:46:14.619
115.0, 26680.65150745529, -3180.6755877346504, -60253.61987991571, -34517.28487220823, -10823.385217593339, -34291.68871542081, -4043.22940626495, -25511.990548609563, -0.014, 0.906, 0.47400000000000003, 192.0, 0.0, 0.0, 0.0, 0.0, 0.0, 0.0, 0.0, 0.0, 0.0, 1.6541559746196873E9, 0.0, 2022-06-02 09:46:14.619
116.0, 26688.832245925936, -3178.7756894559493, -60252.59169967076, -34521.55405539919, -10812.254048854596, -34288.40300898588, -4029.2148624914726, -25514.069260843906, -0.01, 0.908, 0.47600000000000003, 192.0, 255.0, 176.0, 28.0, 96.0, 14.0, 224.0, 0.0, 0.0, 0.0, 1.6541559746196926E9, 0.0, 2022-06-02 09:46:14.619
117.0, 26687.357030791885, -3194.10898615229, -60272.84238014727, -34536.59677941761, -10828.436711840239, -34312.18526508633, -4063.0777553412627, -25535.012845398527, -0.01, 0.908, 0.47600000000000003, 192.0, 0.0, 0.0, 0.0, 0.0, 0.0, 0.0, 0.0, 0.0, 0.0, 1.6541559746197007E9, 0.0, 2022-06-02 09:46:14.619
118.0, 26678.170463820752, -3212.482120094552, -60292.84719143477, -34560.69195994043, -10850.095552217432, -34337.800364232105, -4074.968883391486, -25568.473406848123, -0.01, 0.908, 0.47600000000000003, 192.0, 0.0, 0.0, 0.0, 0.0, 0.0, 0.0, 0.0, 0.0, 0.0, 1.654155974619706E9, 0.0, 2022-06-02 09:46:14.619
119.0, 26679.109237087876, -3206.87183223627, -60286.56635124283, -34558.12150932807, -10853.448313885727, -34332.637111262935, -4057.42276399407, -25550.14497639477, -0.01, 0.908, 0.47600000000000003, 192.0, 0.0, 0.0, 0.0, 0.0, 0.0, 0.0, 0.0, 0.0, 0.0, 1.6541559746197116E9, 0.0, 2022-06-02 09:46:14.619
120.0, 26689.927481404244, -3190.845631461815, -60267.9249963671, -34548.107927812096, -10837.489168344639, -34309.346593540504, -4046.358650488693, -25501.753449649033, -0.01, 0.908, 0.47600000000000003, 192.0, 0.0, 0.0, 0.0, 0.0, 0.0, 0.0, 0.0, 0.0, 0.0, 1.654155974619717E9, 0.0, 2022-06-02 09:46:14.619
121.0, 26691.29093781602, -3189.39276807222, -60262.471170720004, -34541.00007307531, -10831.43184559725, -34304.6974306938, -4060.6190634511786, -25506.00028109554, -0.01, 0.908, 0.47600000000000003, 192.0, 0.0, 0.0, 0.0, 0.0, 0.0, 0.0, 0.0, 0.0, 0.0, 1.6541559750996659E9, 0.0, 2022-06-02 09:46:15.099
122.0, 26698.219978597164, -3190.353893083798, -60267.366202755715, -34528.997186302804, -10833.19763340922, -34322.86939893597, -4072.063156612296, -25577.48115986361, -0.01, 0.908, 0.47600000000000003, 192.0, 0.0, 0.0, 0.0, 0.0, 0.0, 0.0, 0.0, 0.0, 0.0, 1.6541559750998611E9, 0.0, 2022-06-02 09:46:15.099
123.0, 26690.08394361543, -3201.6415240337283, -60279.2796825504, -34539.41309921898, -10840.283136401551, -34337.71095725429, -4057.445115738525, -25571.06620920494, -0.01, 0.908, 0.47600000000000003, 192.0, 0.0, 0.0, 0.0, 0.0, 0.0, 0.0, 0.0, 0.0, 0.0, 1.65415597509987E9, 0.0, 2022-06-02 09:46:15.099
124.0, 26680.919728388755, -3208.749378770516, -60281.06782210682, -34555.23813429334, -10858.723325577179, -34338.24739912122, -4057.713336671989, -25515.790345166966, -0.01, 0.908, 0.47600000000000003, 192.0, 0.0, 0.0, 0.0, 0.0, 0.0, 0.0, 0.0, 0.0, 0.0, 1.654155975099878E9, 0.0, 2022-06-02 09:46:15.099
125.0, 26698.845827441914, -3189.951561683603, -60255.072743305296, -34541.98354983134, -10845.580499837459, -34317.12500061095, -4050.8289993797544, -25526.630941227788, -0.01, 0.908, 0.47600000000000003, 192.0, 0.0, 0.0, 0.0, 0.0, 0.0, 0.0, 0.0, 0.0, 0.0, 1.6541559750998864E9, 0.0, 2022-06-02 09:46:15.099
126.0, 26702.019775154567, -3185.7047302370943, -60241.505234420925, -34516.994299530306, -10824.346342604917, -34307.06671560606, -4029.550138658302, -25525.66981621621, -0.006, 0.91, 0.47200000000000003, 192.0, 255.0, 208.0, 28.0, 112.0, 14.0, 192.0, 0.0, 0.0, 0.0, 1.6541559750998948E9, 0.0, 2022-06-02 09:46:15.099
127.0, 26709.105278146897, -3183.8271837028487, -60240.052371031335, -34514.468552406855, -10813.438691310726, -34308.296061551104, -4028.7901793468213, -25514.829220155385, -0.006, 0.91, 0.47200000000000003, 192.0, 0.0, 0.0, 0.0, 0.0, 0.0, 0.0, 0.0, 0.0, 0.0, 1.654155975099903E9, 0.0, 2022-06-02 09:46:15.099
128.0, 26709.082926402443, -3193.974875685558, -60260.72773465249, -34537.08851779563, -10833.242336898129, -34323.0035094027, -4067.838676910243, -25542.76890072452, -0.006, 0.91, 0.47200000000000003, 192.0, 0.0, 0.0, 0.0, 0.0, 0.0, 0.0, 0.0, 0.0, 0.0, 1.6541559750999253E9, 0.0, 2022-06-02 09:46:15.099
129.0, 26707.831228712945, -3193.214916374078, -60265.86863587721, -34535.16626777247, -10844.66407831479, -34318.3990500449, -4079.1039561157177, -25547.753339738054, -0.006, 0.91, 0.47200000000000003, 192.0, 0.0, 0.0, 0.0, 0.0, 0.0, 0.0, 0.0, 0.0, 0.0, 1.6541559750999331E9, 0.0, 2022-06-02 09:46:15.099
130.0, 26712.7039090042, -3177.613398744273, -60250.468283947506, -34515.76495358526, -10826.223889139163, -34299.86945389145, -4034.802798605299, -25528.82141218441, -0.006, 0.91, 0.47200000000000003, 192.0, 0.0, 0.0, 0.0, 0.0, 0.0, 0.0, 0.0, 0.0, 0.0, 1.6541559750999413E9, 0.0, 2022-06-02 09:46:15.099
131.0, 26714.53675204954, -3172.8524771752927, -60243.5168914219, -34507.67362209244, -10807.001388907598, -34292.82865438803, -4005.1196819686515, -25506.044984584452, -0.006, 0.91, 0.47200000000000003, 192.0, 0.0, 0.0, 0.0, 0.0, 0.0, 0.0, 0.0, 0.0, 0.0, 1.6541559750999491E9, 0.0, 2022-06-02 09:46:15.099
132.0, 26716.682519517246, -3186.6658552486724, -60262.91820560911, -34522.157552499484, -10822.938182704233, -34310.08420110753, -4036.1886067615283, -25518.33844403487, -0.006, 0.91, 0.47200000000000003, 192.0, 0.0, 0.0, 0.0, 0.0, 0.0, 0.0, 0.0, 0.0, 0.0, 1.6541559750999572E9, 0.0, 2022-06-02 09:46:15.099
133.0, 26708.255911857595, -3200.2557158774994, -60282.29716805186, -34546.49860221131, -10842.965345736187, -34327.36209957148, -4053.7347261589443, -25539.460842545133, -0.006, 0.91, 0.47200000000000003, 192.0, 0.0, 0.0, 0.0, 0.0, 0.0, 0.0, 0.0, 0.0, 0.0, 1.654155975099965E9, 0.0, 2022-06-02 09:46:15.099
134.0, 26721.801068997513, -3190.1303756392454, -60271.12129582421, -34546.833878378144, -10840.819578268478, -34316.52150351066, -4053.5335604588463, -25519.880714402287, -0.006, 0.91, 0.47200000000000003, 192.0, 0.0, 0.0, 0.0, 0.0, 0.0, 0.0, 0.0, 0.0, 0.0, 1.6541559750999732E9, 0.0, 2022-06-02 09:46:15.099
135.0, 26741.358845395906, -3170.0585091183793, -60242.39930419914, -34509.7970378157, -10817.886688457333, -34289.18532004182, -4028.8572345801877, -25497.506618202522, -0.006, 0.91, 0.47200000000000003, 192.0, 0.0, 0.0, 0.0, 0.0, 0.0, 0.0, 0.0, 0.0, 0.0, 1.6541559750999813E9, 0.0, 2022-06-02 09:46:15.099
136.0, 26731.077042946465, -3170.237323074022, -60241.527586165386, -34507.65127034799, -10811.315275587473, -34292.53808171011, -4025.482121167436, -25499.786496136963, -0.008, 0.914, 0.47000000000000003, 192.0, 255.0, 192.0, 28.0, 144.0, 14.0, 176.0, 0.0, 0.0, 0.0, 1.6541559750999892E9, 0.0, 2022-06-02 09:46:15.099
137.0, 26732.373444124874, -3184.2518668474995, -60260.101885807744, -34544.68811091043, -10824.52515656056, -34311.246491819205, -4028.7231241134555, -25511.945845120652, -0.008, 0.914, 0.47000000000000003, 192.0, 0.0, 0.0, 0.0, 0.0, 0.0, 0.0, 0.0, 0.0, 0.0, 1.6541559750999973E9, 0.0, 2022-06-02 09:46:15.099
138.0, 26741.649418073826, -3189.5045267944965, -60266.36037425523, -34540.28481725274, -10830.984810708143, -34319.0472506341, -4047.163313289084, -25535.97397041011, -0.008, 0.914, 0.47000000000000003, 192.0, 0.0, 0.0, 0.0, 0.0, 0.0, 0.0, 0.0, 0.0, 0.0, 1.6541559751000051E9, 0.0, 2022-06-02 09:46:15.100
139.0, 26733.42397611427, -3186.084709892835, -60257.64319391766, -34527.678433379944, -10834.225813654162, -34313.325204053544, -4055.1205343151732, -25551.262563617536, -0.008, 0.914, 0.47000000000000003, 192.0, 0.0, 0.0, 0.0, 0.0, 0.0, 0.0, 0.0, 0.0, 0.0, 1.6541559751000133E9, 0.0, 2022-06-02 09:46:15.100
140.0, 26730.451194101715, -3178.9992069005025, -60245.68501063407, -34531.16530551497, -10826.961496706188, -34302.708125437275, -4046.6045196777013, -25502.111077560316, -0.008, 0.914, 0.47000000000000003, 192.0, 0.0, 0.0, 0.0, 0.0, 0.0, 0.0, 0.0, 0.0, 0.0, 1.6541559751000211E9, 0.0, 2022-06-02 09:46:15.100
141.0, 26729.53477257905, -3176.361701054776, -60243.181615255075, -34516.077878007636, -10819.585421035938, -34296.002602100685, -4042.4694469534693, -25501.23935952656, -0.008, 0.914, 0.47000000000000003, 192.0, 0.0, 0.0, 0.0, 0.0, 0.0, 0.0, 0.0, 0.0, 0.0, 1.6541559751000292E9, 0.0, 2022-06-02 09:46:15.100
142.0, 26725.48910683264, -3184.654198247695, -60255.54212993886, -34536.37326197306, -10826.827386239456, -34308.74309644021, -4045.062249310285, -25523.881676659785, -0.008, 0.914, 0.47000000000000003, 192.0, 0.0, 0.0, 0.0, 0.0, 0.0, 0.0, 0.0, 0.0, 0.0, 1.654155975100037E9, 0.0, 2022-06-02 09:46:15.100
143.0, 26725.62321729937, -3192.4326053181417, -60264.438124232074, -34542.20706727589, -10838.852624756411, -34323.4505442918, -4065.581150720257, -25543.215935613625, -0.008, 0.914, 0.47000000000000003, 192.0, 0.0, 0.0, 0.0, 0.0, 0.0, 0.0, 0.0, 0.0, 0.0, 1.6541559751000452E9, 0.0, 2022-06-02 09:46:15.100
144.0, 26716.056670672497, -3203.7649397569826, -60278.98910987248, -34553.11471857008, -10866.546436136538, -34334.06762290807, -4093.900810945131, -25541.49485129057, -0.008, 0.914, 0.47000000000000003, 192.0, 0.0, 0.0, 0.0, 0.0, 0.0, 0.0, 0.0, 0.0, 0.0, 1.6541559751000533E9, 0.0, 2022-06-02 09:46:15.100
145.0, 26725.824382999468, -3190.4880035505303, -60264.572234698804, -34534.540418927725, -10854.655308086314, -34316.007413388186, -4059.5014762284136, -25505.933225862173, -0.008, 0.914, 0.47000000000000003, 192.0, 0.0, 0.0, 0.0, 0.0, 0.0, 0.0, 0.0, 0.0, 0.0, 1.6541559751000614E9, 0.0, 2022-06-02 09:46:15.100
146.0, 26750.813633300502, -3172.9642358975693, -60238.77832159738, -34512.3451366836, -10821.57472629246, -34298.01425910166, -4038.602595162701, -25523.926380148696, -0.008, 0.918, 0.466, 192.0, 255.0, 192.0, 28.0, 176.0, 14.0, 144.0, 0.0, 0.0, 0.0, 1.6541559751000693E9, 0.0, 2022-06-02 09:46:15.100
147.0, 26749.91956352229, -3176.9875498995248, -60241.28171697637, -34516.25669196328, -10819.674828013758, -34300.629413202936, -4043.877606854154, -25524.507525504534, -0.008, 0.918, 0.466, 192.0, 0.0, 0.0, 0.0, 0.0, 0.0, 0.0, 0.0, 0.0, 0.0, 1.6541559751000776E9, 0.0, 2022-06-02 09:46:15.100
148.0, 26744.555144853013, -3185.2800470924435, -60256.01151657242, -34540.50833469729, -10835.321049132473, -34313.23579707573, -4067.5928077212347, -25523.367586537315, -0.008, 0.918, 0.466, 192.0, 0.0, 0.0, 0.0, 0.0, 0.0, 0.0, 0.0, 0.0, 0.0, 1.6541559751000853E9, 0.0, 2022-06-02 09:46:15.100
149.0, 26751.305371678518, -3179.647407489706, -60251.60822291473, -34527.678433379944, -10835.723380532669, -34308.83250341803, -4072.510191501402, -25538.790290211477, -0.008, 0.918, 0.466, 192.0, 0.0, 0.0, 0.0, 0.0, 0.0, 0.0, 0.0, 0.0, 0.0, 1.6541559751000934E9, 0.0, 2022-06-02 09:46:15.100
150.0, 26738.14019419434, -3181.8602301907817, -60250.177711269585, -34525.97970080134, -10828.906098473799, -34312.54289299761, -4046.090429555229, -25546.85926995984, -0.008, 0.918, 0.466, 192.0, 0.0, 0.0, 0.0, 0.0, 0.0, 0.0, 0.0, 0.0, 0.0, 1.654155975100104E9, 0.0, 2022-06-02 09:46:15.100
151.0, 26743.750482052623, -3177.322826066354, -60244.74623736695, -34534.29454973871, -10815.450348311704, -34309.72657319625, -4043.519978942869, -25509.531856719477, -0.008, 0.918, 0.466, 192.0, 0.0, 0.0, 0.0, 0.0, 0.0, 0.0, 0.0, 0.0, 0.0, 1.6541559751001112E9, 0.0, 2022-06-02 09:46:15.100
152.0, 26756.468624647692, -3179.1109656227786, -60247.85312984623, -34519.430639675935, -10815.495051800615, -34307.401991772895, -4050.314909257282, -25502.71457466061, -0.008, 0.918, 0.466, 192.0, 0.0, 0.0, 0.0, 0.0, 0.0, 0.0, 0.0, 0.0, 0.0, 1.6541559751001184E9, 0.0, 2022-06-02 09:46:15.100
153.0, 26756.66979034779, -3186.844669204315, -60259.900720107646, -34523.476305422344, -10830.515424074581, -34319.69545122331, -4055.031127337352, -25523.367586537315, -0.008, 0.918, 0.466, 192.0, 0.0, 0.0, 0.0, 0.0, 0.0, 0.0, 0.0, 0.0, 0.0, 1.6541559751001256E9, 0.0, 2022-06-02 09:46:15.100
154.0, 26748.62316234388, -3183.760128469483, -60252.99403107096, -34527.25375023529, -10834.136406676342, -34322.154143113396, -4061.3343192737484, -25547.306304848946, -0.008, 0.918, 0.466, 192.0, 0.0, 0.0, 0.0, 0.0, 0.0, 0.0, 0.0, 0.0, 0.0, 1.654155975100132E9, 0.0, 2022-06-02 09:46:15.100
155.0, 26760.58134562747, -3171.7348899525273, -60236.09611226274, -34510.556997127176, -10818.266668113074, -34309.52540749615, -4030.108932269685, -25536.018673899016, -0.008, 0.918, 0.466, 192.0, 0.0, 0.0, 0.0, 0.0, 0.0, 0.0, 0.0, 0.0, 0.0, 1.6541559751001387E9, 0.0, 2022-06-02 09:46:15.100
156.0, 26788.96806108571, -3155.8875031337147, -60217.611219598206, -34501.325726667135, -10795.020853879554, -34291.88988112091, -4033.998135804908, -25508.324862518893, -0.014, 0.918, 0.468, 192.0, 255.0, 144.0, 28.0, 176.0, 14.0, 160.0, 0.0, 0.0, 0.0, 1.654155975100145E9, 0.0, 2022-06-02 09:46:15.100
157.0, 26759.15083398233, -3172.6736632196503, -60237.97365879699, -34525.867942079065, -10808.923638930755, -34309.68186970733, -4048.5044179564024, -25521.914723147718, -0.014, 0.918, 0.468, 192.0, 0.0, 0.0, 0.0, 0.0, 0.0, 0.0, 0.0, 0.0, 0.0, 1.6541559751001525E9, 0.0, 2022-06-02 09:46:15.100
158.0, 26751.260668189607, -3188.1857738716335, -60254.49159794946, -34538.96606432987, -10827.609697295393, -34330.960730428786, -4051.61131043569, -25539.796118711965, -0.014, 0.918, 0.468, 192.0, 0.0, 0.0, 0.0, 0.0, 0.0, 0.0, 0.0, 0.0, 0.0, 1.654155975100166E9, 0.0, 2022-06-02 09:46:15.100
159.0, 26752.221793201184, -3185.369454070265, -60250.84826360325, -34542.74350914282, -10834.315220631985, -34324.36696581447, -4047.2974237558155, -25538.902048933753, -0.014, 0.918, 0.468, 192.0, 0.0, 0.0, 0.0, 0.0, 0.0, 0.0, 0.0, 0.0, 0.0, 1.6541559751001792E9, 0.0, 2022-06-02 09:46:15.100
160.0, 26750.746578067134, -3177.5016400219965, -60237.526623907885, -34530.69591888141, -10828.749636262613, -34310.10655285198, -4050.091391812729, -25522.093537103363, -0.014, 0.918, 0.468, 192.0, 0.0, 0.0, 0.0, 0.0, 0.0, 0.0, 0.0, 0.0, 0.0, 1.6541559751001916E9, 0.0, 2022-06-02 09:46:15.100
161.0, 26762.30242995053, -3167.91274165067, -60225.97077202449, -34517.35192744159, -10816.277362856552, -34298.84127364651, -4050.2702057683714, -25526.496830761058, -0.014, 0.918, 0.468, 192.0, 0.0, 0.0, 0.0, 0.0, 0.0, 0.0, 0.0, 0.0, 0.0, 1.6541559751002133E9, 0.0, 2022-06-02 09:46:15.100
162.0, 26767.10805500842, -3176.339349310321, -60234.73265585097, -34534.048680549706, -10821.462967570182, -34313.92870115384, -4056.551045960313, -25522.13824059227, -0.014, 0.918, 0.468, 192.0, 0.0, 0.0, 0.0, 0.0, 0.0, 0.0, 0.0, 0.0, 0.0, 1.6541559751002233E9, 0.0, 2022-06-02 09:46:15.100
163.0, 26770.907851565822, -3192.969047185069, -60250.55769092533, -34543.972855087864, -10840.529005590559, -34329.50786703919, -4064.5082669864023, -25532.06241513043, -0.014, 0.918, 0.468, 192.0, 0.0, 0.0, 0.0, 0.0, 0.0, 0.0, 0.0, 0.0, 0.0, 1.6541559751002328E9, 0.0, 2022-06-02 09:46:15.100
164.0, 26758.748502582133, -3188.2081256160886, -60242.30989722132, -34541.15653528649, -10844.19469168123, -34322.6011780025, -4050.2702057683714, -25546.63575251529, -0.014, 0.918, 0.468, 192.0, 0.0, 0.0, 0.0, 0.0, 0.0, 0.0, 0.0, 0.0, 0.0, 1.65415597510025E9, 0.0, 2022-06-02 09:46:15.100
165.0, 26758.703799093226, -3176.652273732695, -60225.143757479644, -34533.82516310515, -10832.772950264567, -34304.92094813835, -4048.8173423787766, -25511.007071853528, -0.014, 0.918, 0.468, 192.0, 0.0, 0.0, 0.0, 0.0, 0.0, 0.0, 0.0, 0.0, 0.0, 1.6541559751002576E9, 0.0, 2022-06-02 09:46:15.100
166.0, 26761.654229361324, -3175.400576043198, -60222.61801035619, -34521.174075743445, -10827.296772873018, -34302.641070203914, -4052.237159280439, -25525.91568540522, -0.014, 0.92, 0.47000000000000003, 192.0, 255.0, 144.0, 28.0, 192.0, 14.0, 176.0, 0.0, 0.0, 0.0, 1.6541559751002712E9, 0.0, 2022-06-02 09:46:15.100
167.0, 26751.81946180099, -3186.621151759762, -60234.084455261764, -34540.329520741645, -10832.035342697543, -34312.20761683078, -4045.5539876883017, -25522.652330714744, -0.014, 0.92, 0.47000000000000003, 192.0, 0.0, 0.0, 0.0, 0.0, 0.0, 0.0, 0.0, 0.0, 0.0, 1.65415597510028E9, 0.0, 2022-06-02 09:46:15.100
168.0, 26760.357828182918, -3192.589067529329, -60245.75206586743, -34546.58800918913, -10839.724342790169, -34320.187189601325, -4053.645319181123, -25530.76601395202, -0.014, 0.92, 0.47000000000000003, 192.0, 0.0, 0.0, 0.0, 0.0, 0.0, 0.0, 0.0, 0.0, 0.0, 1.6541559751002853E9, 0.0, 2022-06-02 09:46:15.100
169.0, 26765.90106080783, -3190.242134361522, -60242.68987687706, -34532.30524448219, -10842.71947654718, -34318.242587833716, -4058.674461683567, -25544.869964703317, -0.014, 0.92, 0.47000000000000003, 192.0, 0.0, 0.0, 0.0, 0.0, 0.0, 0.0, 0.0, 0.0, 0.0, 1.6541559751002944E9, 0.0, 2022-06-02 09:46:15.100
170.0, 26764.559956140514, -3180.0273871454465, -60233.41390292811, -34525.1973897454, -10833.398799109316, -34307.31258479507, -4054.740554659433, -25517.84670565685, -0.014, 0.92, 0.47000000000000003, 192.0, 0.0, 0.0, 0.0, 0.0, 0.0, 0.0, 0.0, 0.0, 0.0, 1.6541559751003E9, 0.0, 2022-06-02 09:46:15.100
171.0, 26766.504557908127, -3172.62895973074, -60232.60924012771, -34529.33246246963, -10825.709799016691, -34298.55070096859, -4062.161333818595, -25513.041080598963, -0.014, 0.92, 0.47000000000000003, 192.0, 0.0, 0.0, 0.0, 0.0, 0.0, 0.0, 0.0, 0.0, 0.0, 1.654155975100309E9, 0.0, 2022-06-02 09:46:15.100
172.0, 26762.347133439438, -3185.6153232592733, -60248.009592057424, -34542.005901575794, -10834.359924120894, -34310.08420110753, -4059.9261593730644, -25551.128453150806, -0.014, 0.92, 0.47000000000000003, 192.0, 0.0, 0.0, 0.0, 0.0, 0.0, 0.0, 0.0, 0.0, 0.0, 1.654155975100314E9, 0.0, 2022-06-02 09:46:15.100
173.0, 26768.96324979821, -3192.4102535736865, -60254.53630143837, -34555.66281743799, -10837.109188688897, -34315.158047098885, -4057.3110052717934, -25532.643560486267, -0.014, 0.92, 0.47000000000000003, 192.0, 0.0, 0.0, 0.0, 0.0, 0.0, 0.0, 0.0, 0.0, 0.0, 1.6541559751003196E9, 0.0, 2022-06-02 09:46:15.100
174.0, 26765.834005574467, -3191.2032593731, -60255.20685377203, -34537.602607918096, -10848.352116149917, -34320.254244834694, -4074.6336072246563, -25519.47838300209, -0.014, 0.92, 0.47000000000000003, 192.0, 0.0, 0.0, 0.0, 0.0, 0.0, 0.0, 0.0, 0.0, 0.0, 1.6541559751003249E9, 0.0, 2022-06-02 09:46:15.100
175.0, 26760.96132528321, -3179.1109656227786, -60238.19717624154, -34521.35288969909, -10833.331743875951, -34304.78683767162, -4047.61034817819, -25523.077013859394, -0.014, 0.92, 0.47000000000000003, 192.0, 0.0, 0.0, 0.0, 0.0, 0.0, 0.0, 0.0, 0.0, 0.0, 1.65415597510033E9, 0.0, 2022-06-02 09:46:15.100
176.0, 26776.38402895737, -3164.358814282276, -60223.28856268985, -34515.31791869616, -10802.531040016538, -34288.447712474794, -4001.789272044811, -25523.680510959686, -0.012, 0.916, 0.47200000000000003, 192.0, 255.0, 160.0, 28.0, 160.0, 14.0, 192.0, 0.0, 0.0, 0.0, 1.6541559751003356E9, 0.0, 2022-06-02 09:46:15.100
177.0, 26782.15077902684, -3175.7582039544827, -60237.70543786352, -34540.620093419566, -10802.32987431644, -34303.87041614895, -4007.9136500255645, -25549.25090661656, -0.012, 0.916, 0.47200000000000003, 192.0, 0.0, 0.0, 0.0, 0.0, 0.0, 0.0, 0.0, 0.0, 0.0, 1.654155975100341E9, 0.0, 2022-06-02 09:46:15.100
178.0, 26775.668773134803, -3194.3772070857535, -60265.3768974992, -34549.27021852377, -10829.129615918353, -34323.830523947545, -4048.8843976121425, -25528.039101128474, -0.012, 0.916, 0.47200000000000003, 192.0, 0.0, 0.0, 0.0, 0.0, 0.0, 0.0, 0.0, 0.0, 0.0, 1.6541559751003466E9, 0.0, 2022-06-02 09:46:15.100
179.0, 26774.14885451184, -3191.4044250731977, -60262.44881897555, -34534.87569509455, -10834.918717732276, -34309.7489249407, -4065.6929094425336, -25520.864191158318, -0.012, 0.916, 0.47200000000000003, 192.0, 0.0, 0.0, 0.0, 0.0, 0.0, 0.0, 0.0, 0.0, 0.0, 1.654155975100352E9, 0.0, 2022-06-02 09:46:15.100
180.0, 26777.68043013578, -3181.457898790586, -60255.87740610569, -34538.228456762845, -10830.426017096761, -34298.997735857694, -4068.2410083104387, -25528.687301717677, -0.012, 0.916, 0.47200000000000003, 192.0, 0.0, 0.0, 0.0, 0.0, 0.0, 0.0, 0.0, 0.0, 0.0, 1.6541559751003575E9, 0.0, 2022-06-02 09:46:15.100
181.0, 26784.944747083755, -3172.8077736863825, -60248.25546124643, -34519.87767456504, -10817.707874501692, -34293.52155846615, -4047.1409615446287, -25515.499772489045, -0.012, 0.916, 0.47200000000000003, 192.0, 0.0, 0.0, 0.0, 0.0, 0.0, 0.0, 0.0, 0.0, 0.0, 1.6541559751003628E9, 0.0, 2022-06-02 09:46:15.100
182.0, 26800.30039552455, -3179.58035225634, -60246.80259785683, -34522.06814552166, -10807.783699963535, -34294.259166033175, -4021.324696698749, -25517.511429490023, -0.012, 0.916, 0.47200000000000003, 192.0, 0.0, 0.0, 0.0, 0.0, 0.0, 0.0, 0.0, 0.0, 0.0, 1.6541559751003683E9, 0.0, 2022-06-02 09:46:15.100
183.0, 26795.315956511018, -3191.426776817653, -60260.41481023012, -34538.96606432987, -10817.305543101495, -34310.486532507726, -4041.3295079862487, -25537.8291651999, -0.012, 0.916, 0.47200000000000003, 192.0, 0.0, 0.0, 0.0, 0.0, 0.0, 0.0, 0.0, 0.0, 0.0, 1.6541559751003735E9, 0.0, 2022-06-02 09:46:15.100
184.0, 26788.833950618977, -3189.616285516773, -60259.341926496265, -34540.17305853046, -10825.03924668303, -34310.41947727436, -4036.389772461626, -25516.796173667455, -0.012, 0.916, 0.47200000000000003, 192.0, 0.0, 0.0, 0.0, 0.0, 0.0, 0.0, 0.0, 0.0, 0.0, 1.6541559751003788E9, 0.0, 2022-06-02 09:46:15.100
185.0, 26785.794113373056, -3176.316997565865, -60238.30893496382, -34524.12450601155, -10810.75648197609, -34292.11339856546, -4021.7940833323105, -25505.24032178406, -0.012, 0.916, 0.47400000000000003, 192.0, 255.0, 160.0, 28.0, 160.0, 14.0, 208.0, 0.0, 0.0, 0.0, 1.6541559751003847E9, 0.0, 2022-06-02 09:46:15.100
186.0, 26788.78924713007, -3171.2878550634214, -60230.10584474872, -34513.350965184094, -10798.66418822577, -34286.212538029264, -4021.257641465383, -25497.774839135986, -0.012, 0.916, 0.47400000000000003, 192.0, 0.0, 0.0, 0.0, 0.0, 0.0, 0.0, 0.0, 0.0, 0.0, 1.65415597510039E9, 0.0, 2022-06-02 09:46:15.100
187.0, 26785.235319761672, -3184.5647912698737, -60243.0698565328, -34525.085631023125, -10809.929467431244, -34300.405895758384, -4042.3129847422824, -25511.699975931642, -0.012, 0.916, 0.47400000000000003, 192.0, 0.0, 0.0, 0.0, 0.0, 0.0, 0.0, 0.0, 0.0, 0.0, 1.6541559751003957E9, 0.0, 2022-06-02 09:46:15.100
188.0, 26781.59198541546, -3195.3159803528765, -60257.75495263994, -34543.45876496539, -10827.43088333975, -34320.00837564569, -4070.18561007805, -25548.53565079399, -0.012, 0.916, 0.47400000000000003, 192.0, 0.0, 0.0, 0.0, 0.0, 0.0, 0.0, 0.0, 0.0, 0.0, 1.654155975100401E9, 0.0, 2022-06-02 09:46:15.100
189.0, 26780.452046448238, -3195.651256519706, -60258.24669101795, -34542.4529364649, -10836.617450310881, -34325.998643159706, -4068.911560644098, -25560.136206166295, -0.012, 0.916, 0.47400000000000003, 192.0, 0.0, 0.0, 0.0, 0.0, 0.0, 0.0, 0.0, 0.0, 0.0, 1.6541559751004064E9, 0.0, 2022-06-02 09:46:15.100
190.0, 26793.39370648786, -3178.2168958445664, -60237.41486518561, -34523.275139722246, -10819.786586736034, -34299.55652946908, -4032.7911416043216, -25510.09065033086, -0.012, 0.916, 0.47400000000000003, 192.0, 0.0, 0.0, 0.0, 0.0, 0.0, 0.0, 0.0, 0.0, 0.0, 1.6541559751004117E9, 0.0, 2022-06-02 09:46:15.100
191.0, 26804.63663394888, -3170.080860862835, -60227.043655758345, -34513.127447739535, -10801.9498946607, -34291.75577065418, -4008.5394988703133, -25518.226685312595, -0.012, 0.916, 0.47400000000000003, 192.0, 0.0, 0.0, 0.0, 0.0, 0.0, 0.0, 0.0, 0.0, 0.0, 1.654155975100417E9, 0.0, 2022-06-02 09:46:15.100
192.0, 26807.520008983614, -3175.1770585986446, -60232.49748140544, -34519.229473975836, -10802.463984783171, -34299.22125330225, -4023.22459497745, -25495.450257712637, -0.012, 0.916, 0.47400000000000003, 192.0, 0.0, 0.0, 0.0, 0.0, 0.0, 0.0, 0.0, 0.0, 0.0, 1.6541559751004255E9, 0.0, 2022-06-02 09:46:15.100
193.0, 26809.55401772905, -3180.005035400991, -60238.19717624154, -34532.148782271004, -10811.002351165098, -34296.87432013444, -4039.7648858743773, -25512.750507921042, -0.012, 0.916, 0.47400000000000003, 192.0, 0.0, 0.0, 0.0, 0.0, 0.0, 0.0, 0.0, 0.0, 0.0, 1.6541559751004307E9, 0.0, 2022-06-02 09:46:15.100
194.0, 26797.260558278627, -3188.9233814386585, -60250.33417348078, -34539.59191317462, -10826.223889139163, -34306.485570250225, -4053.064173825285, -25551.933115951197, -0.012, 0.916, 0.47400000000000003, 192.0, 0.0, 0.0, 0.0, 0.0, 0.0, 0.0, 0.0, 0.0, 0.0, 1.6541559751004364E9, 0.0, 2022-06-02 09:46:15.100
195.0, 26801.954424614243, -3178.7980412004044, -60241.102903020736, -34532.37229971556, -10817.909040201788, -34306.485570250225, -4041.4636184529804, -25529.737833707077, -0.01, 0.918, 0.47600000000000003, 192.0, 255.0, 176.0, 28.0, 176.0, 14.0, 224.0, 0.0, 0.0, 0.0, 1.6541559751004417E9, 0.0, 2022-06-02 09:46:15.100
196.0, 26813.152648586354, -3171.8242969303487, -60233.14568199464, -34505.70666858037, -10809.683598242236, -34300.09297133601, -4024.878624067143, -25488.05183029793, -0.01, 0.918, 0.47600000000000003, 192.0, 0.0, 0.0, 0.0, 0.0, 0.0, 0.0, 0.0, 0.0, 0.0, 1.6541559751004472E9, 0.0, 2022-06-02 09:46:15.100
197.0, 26825.088480125487, -3169.5444189959076, -60235.11263550671, -34499.17995919943, -10813.215173866174, -34296.40493350088, -4054.8523133817093, -25516.460897500623, -0.01, 0.918, 0.47600000000000003, 192.0, 0.0, 0.0, 0.0, 0.0, 0.0, 0.0, 0.0, 0.0, 0.0, 1.654155975100453E9, 0.0, 2022-06-02 09:46:15.100
198.0, 26808.391727017373, -3183.156631369189, -60249.57421416929, -34515.60849137408, -10824.323990860461, -34310.84416041901, -4061.4684297404806, -25545.652275759254, -0.01, 0.918, 0.47600000000000003, 192.0, 0.0, 0.0, 0.0, 0.0, 0.0, 0.0, 0.0, 0.0, 0.0, 1.6541559751004584E9, 0.0, 2022-06-02 09:46:15.100
199.0, 26799.361622257427, -3184.2742185919547, -60248.94836532455, -34525.53266591224, -10826.492110072626, -34312.74405869771, -4055.9475488600197, -25519.523086491, -0.01, 0.918, 0.47600000000000003, 192.0, 0.0, 0.0, 0.0, 0.0, 0.0, 0.0, 0.0, 0.0, 0.0, 1.6541559751004636E9, 0.0, 2022-06-02 09:46:15.100
200.0, 26807.07297409451, -3169.745584696005, -60230.172899982084, -34509.32765118214, -10817.506708801593, -34291.77812239863, -4045.03989756583, -25509.48715323057, -0.01, 0.918, 0.47600000000000003, 192.0, 0.0, 0.0, 0.0, 0.0, 0.0, 0.0, 0.0, 0.0, 0.0, 1.654155975100469E9, 0.0, 2022-06-02 09:46:15.100
201.0, 26819.232323078195, -3166.6610439611727, -60223.86970804569, -34510.914625038466, -10802.084005127432, -34292.13575030991, -4009.8135483042656, -25520.126583591293, -0.01, 0.918, 0.47600000000000003, 192.0, 0.0, 0.0, 0.0, 0.0, 0.0, 0.0, 0.0, 0.0, 0.0, 1.6541559751004746E9, 0.0, 2022-06-02 09:46:15.100
202.0, 26822.160401601843, -3174.305340564888, -60235.000876784434, -34521.57640714364, -10804.073310383954, -34305.144465582904, -4021.8164350767656, -25535.258714587537, -0.01, 0.918, 0.47600000000000003, 192.0, 0.0, 0.0, 0.0, 0.0, 0.0, 0.0, 0.0, 0.0, 0.0, 1.65415597510048E9, 0.0, 2022-06-02 09:46:15.100
203.0, 26817.198314332763, -3183.9389424251253, -60247.85312984623, -34536.37326197306, -10817.66317101278, -34318.13082911144, -4055.7016796710113, -25555.330581108403, -0.01, 0.918, 0.47600000000000003, 192.0, 0.0, 0.0, 0.0, 0.0, 0.0, 0.0, 0.0, 0.0, 0.0, 1.6541559751004858E9, 0.0, 2022-06-02 09:46:15.100
204.0, 26827.41306154884, -3186.1517651262006, -60248.88131009118, -34539.5025061968, -10824.391046093828, -34311.40295403039, -4050.1807987905504, -25541.271333846016, -0.01, 0.918, 0.47600000000000003, 192.0, 0.0, 0.0, 0.0, 0.0, 0.0, 0.0, 0.0, 0.0, 0.0, 1.654155975100492E9, 0.0, 2022-06-02 09:46:15.100
205.0, 26807.989395617176, -3177.8592679332814, -60238.04071403036, -34533.93692182743, -10817.66317101278, -34292.47102647675, -4040.033106807841, -25504.368603750303, -0.006, 0.908, 0.47800000000000004, 192.0, 255.0, 208.0, 28.0, 96.0, 14.0, 240.0, 0.0, 0.0, 0.0, 1.654155975100498E9, 0.0, 2022-06-02 09:46:15.100
206.0, 26803.027308348097, -3166.9292648946366, -60233.70447560603, -34528.08076478014, -10811.292923843017, -34284.804378128574, -4043.2964614983157, -25497.32780424688, -0.006, 0.908, 0.47800000000000004, 192.0, 0.0, 0.0, 0.0, 0.0, 0.0, 0.0, 0.0, 0.0, 0.0, 1.6541559751005037E9, 0.0, 2022-06-02 09:46:15.100
207.0, 26811.900950896856, -3173.590084742318, -60238.04071403036, -34511.02638376074, -10811.359979076384, -34293.70037242179, -4033.327583471249, -25522.607627225832, -0.006, 0.908, 0.47800000000000004, 192.0, 0.0, 0.0, 0.0, 0.0, 0.0, 0.0, 0.0, 0.0, 0.0, 1.6541559751005096E9, 0.0, 2022-06-02 09:46:15.100
208.0, 26820.84164867898, -3181.7037679795944, -60244.656830389125, -34521.01761353226, -10818.66899951327, -34305.47974174973, -4037.976746317953, -25529.491964518067, -0.006, 0.908, 0.47800000000000004, 192.0, 0.0, 0.0, 0.0, 0.0, 0.0, 0.0, 0.0, 0.0, 0.0, 1.6541559751005154E9, 0.0, 2022-06-02 09:46:15.100
209.0, 26826.764860959633, -3176.562866754874, -60240.7676268539, -34528.1478200135, -10824.256935627096, -34306.284404550126, -4047.4315342225477, -25536.845688443864, -0.006, 0.908, 0.47800000000000004, 192.0, 0.0, 0.0, 0.0, 0.0, 0.0, 0.0, 0.0, 0.0, 0.0, 1.6541559751005208E9, 0.0, 2022-06-02 09:46:15.100
210.0, 26831.235209850696, -3164.8282009158374, -60221.43336790006, -34520.347061198605, -10812.52226978806, -34292.87335787694, -4046.448057466514, -25515.700938189144, -0.006, 0.908, 0.47800000000000004, 192.0, 0.0, 0.0, 0.0, 0.0, 0.0, 0.0, 0.0, 0.0, 0.0, 1.6541559751005263E9, 0.0, 2022-06-02 09:46:15.100
211.0, 26836.46551805324, -3162.950654381592, -60215.95719050851, -34504.27615693524, -10800.586438248925, -34282.41274147186, -4027.002039790397, -25495.24909201254, -0.006, 0.908, 0.47800000000000004, 192.0, 0.0, 0.0, 0.0, 0.0, 0.0, 0.0, 0.0, 0.0, 0.0, 1.6541559751005335E9, 0.0, 2022-06-02 09:46:15.100
212.0, 26828.17302086032, -3172.7630701974717, -60227.98242902547, -34513.5968343731, -10802.911019672278, -34295.153235811384, -4025.638583378623, -25505.597949695344, -0.006, 0.908, 0.47800000000000004, 192.0, 0.0, 0.0, 0.0, 0.0, 0.0, 0.0, 0.0, 0.0, 0.0, 1.6541559751005394E9, 0.0, 2022-06-02 09:46:15.100
213.0, 26820.484020767693, -3189.3480645833097, -60242.17578675459, -34541.00007307531, -10821.306505358996, -34314.42043953186, -4042.2459295089166, -25524.86515341582, -0.006, 0.908, 0.47800000000000004, 192.0, 0.0, 0.0, 0.0, 0.0, 0.0, 0.0, 0.0, 0.0, 0.0, 1.6541559751005452E9, 0.0, 2022-06-02 09:46:15.100
214.0, 26814.136125342386, -3196.6570850201947, -60243.047504788345, -34541.15653528649, -10831.320086874974, -34317.035593633125, -4064.32945303076, -25537.404482055248, -0.006, 0.908, 0.47800000000000004, 192.0, 0.0, 0.0, 0.0, 0.0, 0.0, 0.0, 0.0, 0.0, 0.0, 1.654155975100554E9, 0.0, 2022-06-02 09:46:15.100
215.0, 26825.289645825585, -3176.071128376857, -60223.48972838995, -34517.86601756406, -10821.775891992556, -34297.27665153464, -4058.0039093499076, -25517.28791204547, -0.012, 0.904, 0.47600000000000003, 192.0, 255.0, 160.0, 28.0, 64.0, 14.0, 224.0, 0.0, 0.0, 0.0, 1.6541559751005597E9, 0.0, 2022-06-02 09:46:15.100
216.0, 26832.7327767292, -3166.146953838701, -60209.65399857212, -34515.519084396255, -10802.240467338619, -34289.63235493092, -4015.3120774402714, -25506.603778195833, -0.012, 0.904, 0.47600000000000003, 192.0, 0.0, 0.0, 0.0, 0.0, 0.0, 0.0, 0.0, 0.0, 0.0, 1.6541559751005652E9, 0.0, 2022-06-02 09:46:15.100
217.0, 26835.25852385265, -3171.757241696983, -60213.3643881517, -34511.36165992757, -10797.121917858352, -34297.58957595701, -4009.679437837534, -25504.390955494757, -0.012, 0.904, 0.47600000000000003, 192.0, 0.0, 0.0, 0.0, 0.0, 0.0, 0.0, 0.0, 0.0, 0.0, 1.654155975100571E9, 0.0, 2022-06-02 09:46:15.100
218.0, 26841.382901833404, -3178.239247589022, -60221.83569930026, -34517.55309314169, -10804.743862717613, -34304.22804406024, -4024.31983045576, -25522.831144670385, -0.012, 0.904, 0.47600000000000003, 192.0, 0.0, 0.0, 0.0, 0.0, 0.0, 0.0, 0.0, 0.0, 0.0, 1.6541559751005762E9, 0.0, 2022-06-02 09:46:15.100
219.0, 26839.30418959906, -3175.6687969766617, -60227.02130401389, -34525.48796242332, -10817.66317101278, -34303.31162253757, -4033.707563126989, -25519.29956904645, -0.012, 0.904, 0.47600000000000003, 192.0, 0.0, 0.0, 0.0, 0.0, 0.0, 0.0, 0.0, 0.0, 0.0, 1.6541559751005821E9, 0.0, 2022-06-02 09:46:15.100
220.0, 26846.099119913473, -3164.917607893659, -60216.963019009, -34517.50838965278, -10813.885726199833, -34284.15617753937, -4048.035031322841, -25504.27919677248, -0.012, 0.904, 0.47600000000000003, 192.0, 0.0, 0.0, 0.0, 0.0, 0.0, 0.0, 0.0, 0.0, 0.0, 1.6541559751005888E9, 0.0, 2022-06-02 09:46:15.100
221.0, 26858.929021230822, -3149.9642908530586, -60206.05536771481, -34486.55122358218, -10796.361958546873, -34272.13093902242, -4024.1857199890283, -25516.170324822706, -0.012, 0.904, 0.47600000000000003, 192.0, 0.0, 0.0, 0.0, 0.0, 0.0, 0.0, 0.0, 0.0, 0.0, 1.6541559751005943E9, 0.0, 2022-06-02 09:46:15.100
222.0, 26869.50139635818, -3155.2616542889664, -60212.44796662903, -34503.762066812764, -10791.109298599875, -34287.15131129638, -4005.387902902115, -25509.353042763836, -0.012, 0.904, 0.47600000000000003, 192.0, 0.0, 0.0, 0.0, 0.0, 0.0, 0.0, 0.0, 0.0, 0.0, 1.6541559751006002E9, 0.0, 2022-06-02 09:46:15.100
223.0, 26872.7423993042, -3166.526933494441, -60220.71811207749, -34519.005956531284, -10805.66028424028, -34290.45936947577, -4043.139999287129, -25491.873978599786, -0.012, 0.904, 0.47600000000000003, 192.0, 0.0, 0.0, 0.0, 0.0, 0.0, 0.0, 0.0, 0.0, 0.0, 1.654155975100609E9, 0.0, 2022-06-02 09:46:15.100
224.0, 26870.015486480654, -3161.363680525265, -60217.09712947573, -34511.22754946083, -10817.506708801593, -34284.6926194063, -4051.7901243913325, -25513.219894554604, -0.012, 0.904, 0.47600000000000003, 192.0, 0.0, 0.0, 0.0, 0.0, 0.0, 0.0, 0.0, 0.0, 0.0, 1.6541559751006143E9, 0.0, 2022-06-02 09:46:15.100
225.0, 26872.40712313737, -3150.4783809755304, -60205.74244329244, -34500.99045050031, -10808.051920896998, -34280.51284319316, -4017.5919553747126, -25504.390955494757, -0.01, 0.904, 0.47800000000000004, 192.0, 255.0, 176.0, 28.0, 64.0, 14.0, 240.0, 0.0, 0.0, 0.0, 1.65415597510062E9, 0.0, 2022-06-02 09:46:15.100
226.0, 26862.348838132482, -3143.459933216564, -60199.081623444756, -34496.78832254271, -10792.159830589275, -34280.334029237514, -4009.4335686485256, -25512.5716939654, -0.01, 0.904, 0.47800000000000004, 192.0, 0.0, 0.0, 0.0, 0.0, 0.0, 0.0, 0.0, 0.0, 0.0, 1.6541559751006265E9, 0.0, 2022-06-02 09:46:15.100
227.0, 26851.84351823849, -3163.4200410151534, -60221.656885344615, -34527.43256419093, -10806.822574951957, -34302.46225624827, -4023.2469467219053, -25526.496830761058, -0.01, 0.904, 0.47800000000000004, 192.0, 0.0, 0.0, 0.0, 0.0, 0.0, 0.0, 0.0, 0.0, 0.0, 1.654155975100632E9, 0.0, 2022-06-02 09:46:15.100
228.0, 26850.614172293448, -3169.522067251452, -60231.24578371594, -34524.191561244916, -10821.32885710345, -34308.40782027338, -4049.2420255234274, -25527.167383094715, -0.01, 0.904, 0.47800000000000004, 192.0, 0.0, 0.0, 0.0, 0.0, 0.0, 0.0, 0.0, 0.0, 0.0, 1.654155975100638E9, 0.0, 2022-06-02 09:46:15.100
229.0, 26845.294457113083, -3171.466669019064, -60234.956173295526, -34519.229473975836, -10832.348267119916, -34308.8995586514, -4059.2779587838604, -25512.750507921042, -0.01, 0.904, 0.47800000000000004, 192.0, 0.0, 0.0, 0.0, 0.0, 0.0, 0.0, 0.0, 0.0, 0.0, 1.654155975100644E9, 0.0, 2022-06-02 09:46:15.100
230.0, 26867.377980634927, -3143.2811192609215, -60209.25166717192, -34492.854415518574, -10811.09175814292, -34282.94918333879, -4041.508321941891, -25509.353042763836, -0.01, 0.904, 0.47800000000000004, 192.0, 0.0, 0.0, 0.0, 0.0, 0.0, 0.0, 0.0, 0.0, 0.0, 1.6541559751006505E9, 0.0, 2022-06-02 09:46:15.100
231.0, 26884.007678509675, -3127.0314010419133, -60198.07579494426, -34483.01964795824, -10794.126784101341, -34261.938543550794, -4031.517092170369, -25502.133429304773, -0.01, 0.904, 0.47800000000000004, 192.0, 0.0, 0.0, 0.0, 0.0, 0.0, 0.0, 0.0, 0.0, 0.0, 1.6541559751006567E9, 0.0, 2022-06-02 09:46:15.100
232.0, 26871.31188765906, -3146.142142551201, -60216.80655679781, -34504.41026740197, -10806.33083657394, -34279.48466294821, -4040.882473097143, -25491.069315799396, -0.01, 0.904, 0.47800000000000004, 192.0, 0.0, 0.0, 0.0, 0.0, 0.0, 0.0, 0.0, 0.0, 0.0, 1.6541559751006627E9, 0.0, 2022-06-02 09:46:15.100
233.0, 26862.572355577035, -3165.4540497605863, -60236.63255412967, -34522.425773432944, -10820.635953025336, -34306.53027373913, -4048.32560400076, -25525.178077838194, -0.01, 0.904, 0.47800000000000004, 192.0, 0.0, 0.0, 0.0, 0.0, 0.0, 0.0, 0.0, 0.0, 0.0, 1.6541559751006687E9, 0.0, 2022-06-02 09:46:15.100
234.0, 26871.289535914606, -3155.976910111536, -60229.65880985962, -34510.914625038466, -10818.624296024358, -34298.12601782394, -4044.391696976626, -25521.937074892176, -0.01, 0.904, 0.47800000000000004, 192.0, 0.0, 0.0, 0.0, 0.0, 0.0, 0.0, 0.0, 0.0, 0.0, 1.6541559751006746E9, 0.0, 2022-06-02 09:46:15.100
235.0, 26871.088370214507, -3145.7621628954607, -60213.72201606298, -34502.577424356634, -10810.600019764903, -34282.05511356057, -4025.8173973342655, -25511.47645848709, -0.008, 0.91, 0.47400000000000003, 192.0, 255.0, 192.0, 28.0, 112.0, 14.0, 208.0, 0.0, 0.0, 0.0, 1.6541559751006844E9, 0.0, 2022-06-02 09:46:15.100
236.0, 26874.50818711617, -3147.5503024518853, -60215.80072829733, -34493.12263645204, -10806.599057507403, -34283.99971532819, -4041.5306736863467, -25519.076051601896, -0.008, 0.91, 0.47400000000000003, 192.0, 0.0, 0.0, 0.0, 0.0, 0.0, 0.0, 0.0, 0.0, 0.0, 1.65415597510069E9, 0.0, 2022-06-02 09:46:15.100
237.0, 26882.08542848652, -3154.7699159109493, -60223.04269350084, -34505.036116246716, -10810.510612787082, -34293.18628229931, -4035.4957026834136, -25510.537685219966, -0.008, 0.91, 0.47400000000000003, 192.0, 0.0, 0.0, 0.0, 0.0, 0.0, 0.0, 0.0, 0.0, 0.0, 1.6541559751006954E9, 0.0, 2022-06-02 09:46:15.100
238.0, 26871.55775684807, -3165.364642782765, -60228.94355403705, -34516.703726852385, -10813.304580843995, -34302.26109054817, -4035.5180544278687, -25499.294757758948, -0.008, 0.91, 0.47400000000000003, 192.0, 0.0, 0.0, 0.0, 0.0, 0.0, 0.0, 0.0, 0.0, 0.0, 1.6541559751007013E9, 0.0, 2022-06-02 09:46:15.100
239.0, 26872.116550459454, -3159.4414305021087, -60224.29439119034, -34518.58127338663, -10816.23265936764, -34296.31552652306, -4059.121496572673, -25519.43367951318, -0.008, 0.91, 0.47400000000000003, 192.0, 0.0, 0.0, 0.0, 0.0, 0.0, 0.0, 0.0, 0.0, 0.0, 1.6541559751007075E9, 0.0, 2022-06-02 09:46:15.100
240.0, 26886.42166691085, -3148.28791001891, -60214.459623630006, -34506.17605521394, -10811.18116512074, -34288.8947473639, -4037.909691084587, -25537.38213031079, -0.008, 0.91, 0.47400000000000003, 192.0, 0.0, 0.0, 0.0, 0.0, 0.0, 0.0, 0.0, 0.0, 0.0, 1.6541559751007135E9, 0.0, 2022-06-02 09:46:15.100
241.0, 26891.07082975755, -3141.6270901712287, -60202.03205371286, -34483.64549680299, -10793.590342234414, -34280.66930540434, -4012.607516361179, -25508.503676474535, -0.008, 0.91, 0.47400000000000003, 192.0, 0.0, 0.0, 0.0, 0.0, 0.0, 0.0, 0.0, 0.0, 0.0, 1.65415597557918E9, 0.0, 2022-06-02 09:46:15.579
242.0, 26880.27493718564, -3146.142142551201, -60208.53641134935, -34494.35198239708, -10794.730281201635, -34288.11243630796, -4023.8280920777433, -25488.52121693149, -0.008, 0.91, 0.47400000000000003, 192.0, 0.0, 0.0, 0.0, 0.0, 0.0, 0.0, 0.0, 0.0, 0.0, 1.654155975579303E9, 0.0, 2022-06-02 09:46:15.579
243.0, 26893.820094325554, -3153.071183332346, -60218.080606231764, -34513.10509599508, -10803.08983362792, -34295.6449741894, -4034.9145573275755, -25511.29764453145, -0.008, 0.91, 0.47400000000000003, 192.0, 0.0, 0.0, 0.0, 0.0, 0.0, 0.0, 0.0, 0.0, 0.0, 1.6541559755793872E9, 0.0, 2022-06-02 09:46:15.579
244.0, 26882.755980820177, -3153.428811243631, -60218.88526903216, -34525.845590334604, -10809.370673819862, -34295.42145674484, -4036.635641650634, -25525.021615627007, -0.008, 0.91, 0.47400000000000003, 192.0, 0.0, 0.0, 0.0, 0.0, 0.0, 0.0, 0.0, 0.0, 0.0, 1.6541559755793931E9, 0.0, 2022-06-02 09:46:15.579
245.0, 26881.861911041968, -3141.403572726676, -60204.468393858486, -34485.85831950406, -10805.056787139987, -34284.93848859531, -4026.5997083902016, -25512.214066054115, -0.008, 0.912, 0.47400000000000003, 192.0, 255.0, 192.0, 28.0, 128.0, 14.0, 208.0, 0.0, 0.0, 0.0, 1.6541559755793989E9, 0.0, 2022-06-02 09:46:15.579
246.0, 26893.820094325554, -3129.2889272318994, -60189.93975996254, -34479.4880723343, -10783.688519440713, -34269.20286049877, -4016.6978855965003, -25469.589289377844, -0.008, 0.912, 0.47400000000000003, 192.0, 0.0, 0.0, 0.0, 0.0, 0.0, 0.0, 0.0, 0.0, 0.0, 1.6541559755794044E9, 0.0, 2022-06-02 09:46:15.579
247.0, 26892.635451869424, -3143.459933216564, -60203.59667582473, -34495.938956253405, -10792.718624200657, -34279.03762805911, -4021.5035106543914, -25491.739868133052, -0.008, 0.912, 0.47400000000000003, 192.0, 0.0, 0.0, 0.0, 0.0, 0.0, 0.0, 0.0, 0.0, 0.0, 1.65415597557941E9, 0.0, 2022-06-02 09:46:15.579
248.0, 26882.018373253155, -3158.5697124683516, -60217.07477773128, -34515.943767540906, -10804.296827828506, -34298.57305271304, -4024.163368244573, -25548.423892071714, -0.008, 0.912, 0.47400000000000003, 192.0, 0.0, 0.0, 0.0, 0.0, 0.0, 0.0, 0.0, 0.0, 0.0, 1.6541559755794156E9, 0.0, 2022-06-02 09:46:15.579
249.0, 26881.817207553057, -3161.676604947639, -60218.237068442955, -34500.431656888926, -10810.197688364708, -34293.58861369951, -4028.5666619022686, -25519.701900446642, -0.008, 0.912, 0.47400000000000003, 192.0, 0.0, 0.0, 0.0, 0.0, 0.0, 0.0, 0.0, 0.0, 0.0, 1.6541559755794213E9, 0.0, 2022-06-02 09:46:15.579
250.0, 26881.906614530875, -3156.3792415117314, -60214.23610618545, -34498.665869076955, -10810.063577897976, -34279.439959459305, -4034.7580951163886, -25508.123696818795, -0.008, 0.912, 0.47400000000000003, 192.0, 0.0, 0.0, 0.0, 0.0, 0.0, 0.0, 0.0, 0.0, 0.0, 1.6541559755794268E9, 0.0, 2022-06-02 09:46:15.579
251.0, 26888.41097216737, -3146.4103634846647, -60199.2604374004, -34483.26551714725, -10796.004330635587, -34269.87341283243, -4029.5277869138467, -25501.6193391823, -0.008, 0.912, 0.47400000000000003, 192.0, 0.0, 0.0, 0.0, 0.0, 0.0, 0.0, 0.0, 0.0, 0.0, 1.6541559755794325E9, 0.0, 2022-06-02 09:46:15.579
252.0, 26884.812341310066, -3155.3510612667874, -60207.82115552678, -34487.422941615936, -10798.373615547851, -34279.68582864831, -4038.7367056294333, -25506.447315984646, -0.008, 0.912, 0.47400000000000003, 192.0, 0.0, 0.0, 0.0, 0.0, 0.0, 0.0, 0.0, 0.0, 0.0, 1.654155975579438E9, 0.0, 2022-06-02 09:46:15.579
253.0, 26886.064038999564, -3160.2237415580444, -60221.12044347769, -34503.65030809049, -10812.388159321328, -34290.749942153685, -4052.773601147366, -25506.62612994029, -0.008, 0.912, 0.47400000000000003, 192.0, 0.0, 0.0, 0.0, 0.0, 0.0, 0.0, 0.0, 0.0, 0.0, 1.6541559755794437E9, 0.0, 2022-06-02 09:46:15.579
254.0, 26888.545082634104, -3155.820447900349, -60211.53154510636, -34501.50454062278, -10810.957647676189, -34282.12216879394, -4047.118609800173, -25501.976967093586, -0.008, 0.912, 0.47400000000000003, 192.0, 0.0, 0.0, 0.0, 0.0, 0.0, 0.0, 0.0, 0.0, 0.0, 1.6541559755794492E9, 0.0, 2022-06-02 09:46:15.579
255.0, 26889.126227989942, -3150.9924710980026, -60196.689986788035, -34496.58715684261, -10804.27447608405, -34271.90742157787, -4030.5559671587907, -25515.365662022316, -0.008, 0.904, 0.47000000000000003, 192.0, 255.0, 192.0, 28.0, 64.0, 14.0, 176.0, 0.0, 0.0, 0.0, 1.6541559755794547E9, 0.0, 2022-06-02 09:46:15.579
0.0, 26903.923082819354, -3138.3413837362987, -60183.16718139258, -34475.4871100768, -10791.578685233437, -34266.25243023067, -4010.7970250602993, -25501.842856626852, -0.008, 0.904, 0.47000000000000003, 192.0, 0.0, 0.0, 0.0, 0.0, 0.0, 0.0, 0.0, 0.0, 0.0, 1.654155975579472E9, 0.0, 2022-06-02 09:46:15.579
1.0, 26903.99013805272, -3147.7961716408936, -60187.414012839086, -34483.6902002919, -10790.774022433046, -34274.187299512305, -4025.482121167436, -25501.86520837131, -0.008, 0.904, 0.47000000000000003, 192.0, 0.0, 0.0, 0.0, 0.0, 0.0, 0.0, 0.0, 0.0, 0.0, 1.6541559755794773E9, 0.0, 2022-06-02 09:46:15.579
2.0, 26896.65876587138, -3161.8330671588265, -60201.74148103494, -34498.06237197666, -10805.816746451468, -34289.05120957508, -4044.190531276528, -25526.742699950064, -0.008, 0.904, 0.47000000000000003, 192.0, 0.0, 0.0, 0.0, 0.0, 0.0, 0.0, 0.0, 0.0, 0.0, 1.6541559755794828E9, 0.0, 2022-06-02 09:46:15.579
3.0, 26893.909501303377, -3165.074070104846, -60204.51309734739, -34489.05461896117, -10814.28805760003, -34294.035648588615, -4036.4121242060814, -25527.30149356145, -0.008, 0.904, 0.47000000000000003, 192.0, 0.0, 0.0, 0.0, 0.0, 0.0, 0.0, 0.0, 0.0, 0.0, 1.654155975579488E9, 0.0, 2022-06-02 09:46:15.579
4.0, 26892.14371349141, -3154.747564166494, -60184.62004478217, -34470.837947230095, -10795.199667835197, -34276.8918605914, -4013.5909931172127, -25493.66211815621, -0.008, 0.904, 0.47000000000000003, 192.0, 0.0, 0.0, 0.0, 0.0, 0.0, 0.0, 0.0, 0.0, 0.0, 1.6541559755794933E9, 0.0, 2022-06-02 09:46:15.579
5.0, 26885.639355854913, -3160.6037212137844, -60181.42374532506, -34466.658171016956, -10783.979092118632, -34272.376808211426, -4014.3509524286933, -25509.956539864128, -0.008, 0.904, 0.47000000000000003, 192.0, 0.0, 0.0, 0.0, 0.0, 0.0, 0.0, 0.0, 0.0, 0.0, 1.6541559755794983E9, 0.0, 2022-06-02 09:46:15.579
6.0, 26887.98628902272, -3169.455012018086, -60191.77260300787, -34490.35102013958, -10786.482487497628, -34276.6906948913, -4015.803815818288, -25499.18299903667, -0.008, 0.904, 0.47000000000000003, 192.0, 0.0, 0.0, 0.0, 0.0, 0.0, 0.0, 0.0, 0.0, 0.0, 1.6541559755795047E9, 0.0, 2022-06-02 09:46:15.579
7.0, 26884.208844209774, -3190.0633204058795, -60211.77741429537, -34512.3451366836, -10802.978074905644, -34289.76646539765, -4035.8309788502434, -25496.500789702033, -0.008, 0.904, 0.47000000000000003, 192.0, 0.0, 0.0, 0.0, 0.0, 0.0, 0.0, 0.0, 0.0, 0.0, 1.65415597557951E9, 0.0, 2022-06-02 09:46:15.579
8.0, 26874.41878013835, -3192.857288462793, -60209.09520496073, -34488.942860238894, -10811.695255243214, -34285.02789557313, -4043.251758009405, -25516.639711456268, -0.008, 0.914, 0.47400000000000003, 192.0, 255.0, 192.0, 28.0, 144.0, 14.0, 208.0, 0.0, 0.0, 0.0, 1.6541559755795152E9, 0.0, 2022-06-02 09:46:15.579
9.0, 26877.41391389536, -3176.6746254771506, -60191.61614079668, -34472.91665946444, -10802.128708616341, -34271.393331455394, -4040.480141696947, -25495.539664690456, -0.008, 0.914, 0.47400000000000003, 192.0, 0.0, 0.0, 0.0, 0.0, 0.0, 0.0, 0.0, 0.0, 0.0, 1.6541559755795205E9, 0.0, 2022-06-02 09:46:15.579
10.0, 26879.157349962876, -3175.91466616567, -60185.91644596058, -34482.930240980415, -10789.768193932558, -34264.41958718534, -4017.457844907981, -25480.09460927184, -0.008, 0.914, 0.47400000000000003, 192.0, 0.0, 0.0, 0.0, 0.0, 0.0, 0.0, 0.0, 0.0, 0.0, 1.6541559755795257E9, 0.0, 2022-06-02 09:46:15.579
11.0, 26878.710315073768, -3193.7066547520944, -60197.62876005516, -34496.31893590915, -10794.506763757083, -34275.55075592408, -4013.233365205928, -25497.350155991335, -0.008, 0.914, 0.47400000000000003, 192.0, 0.0, 0.0, 0.0, 0.0, 0.0, 0.0, 0.0, 0.0, 0.0, 1.6541559755795312E9, 0.0, 2022-06-02 09:46:15.579
12.0, 26874.46348362726, -3206.715370025083, -60211.33037940627, -34513.395668673, -10807.09079588542, -34292.582785199025, -4035.361592216682, -25526.742699950064, -0.008, 0.914, 0.47400000000000003, 192.0, 0.0, 0.0, 0.0, 0.0, 0.0, 0.0, 0.0, 0.0, 0.0, 1.6541559755795364E9, 0.0, 2022-06-02 09:46:15.579
13.0, 26858.66080029736, -3207.944715970125, -60205.921257248076, -34498.956441754875, -10807.493127285616, -34286.592517685, -4046.358650488693, -25528.5755429954, -0.008, 0.914, 0.47400000000000003, 192.0, 0.0, 0.0, 0.0, 0.0, 0.0, 0.0, 0.0, 0.0, 0.0, 1.6541559755795448E9, 0.0, 2022-06-02 09:46:15.579
14.0, 26857.36439911895, -3200.2557158774994, -60190.49855357392, -34491.13333119552, -10801.61461849387, -34267.99586629819, -4025.929156056542, -25489.86232159881, -0.008, 0.914, 0.47400000000000003, 192.0, 0.0, 0.0, 0.0, 0.0, 0.0, 0.0, 0.0, 0.0, 0.0, 1.6541559755795524E9, 0.0, 2022-06-02 09:46:15.579
15.0, 26860.046608453587, -3201.373303100265, -60185.20119013801, -34481.23150840181, -10793.009196878576, -34271.527441922124, -4015.4014844180924, -25482.6650598842, -0.008, 0.914, 0.47400000000000003, 192.0, 0.0, 0.0, 0.0, 0.0, 0.0, 0.0, 0.0, 0.0, 0.0, 1.6541559755795631E9, 0.0, 2022-06-02 09:46:15.579
16.0, 26861.544175332092, -3211.431588105153, -60191.2585128854, -34489.94868873939, -10792.651568967292, -34275.03666580161, -4028.477254924447, -25473.99258303554, -0.008, 0.914, 0.47400000000000003, 192.0, 0.0, 0.0, 0.0, 0.0, 0.0, 0.0, 0.0, 0.0, 0.0, 1.6541559755795715E9, 0.0, 2022-06-02 09:46:15.579
17.0, 26856.023294451632, -3232.2187104485884, -60208.91639100509, -34514.55795938468, -10807.493127285616, -34292.67219217685, -4036.6579933950898, -25516.3714905228, -0.008, 0.914, 0.47400000000000003, 192.0, 0.0, 0.0, 0.0, 0.0, 0.0, 0.0, 0.0, 0.0, 0.0, 1.654155975579579E9, 0.0, 2022-06-02 09:46:15.579
18.0, 26840.287666355096, -3245.383887932764, -60220.27107718839, -34520.39176468751, -10823.51932806007, -34305.70325919429, -4049.4878947124357, -25544.713502492134, -0.01, 0.918, 0.47400000000000003, 192.0, 255.0, 176.0, 28.0, 176.0, 14.0, 208.0, 0.0, 0.0, 0.0, 1.6541559755795913E9, 0.0, 2022-06-02 09:46:15.579
19.0, 26846.188526891296, -3235.0797337388676, -60206.52475434837, -34513.06039250617, -10813.751615733101, -34290.07938982003, -4044.704621399, -25535.70574947664, -0.01, 0.918, 0.47400000000000003, 192.0, 0.0, 0.0, 0.0, 0.0, 0.0, 0.0, 0.0, 0.0, 0.0, 1.654155975579604E9, 0.0, 2022-06-02 09:46:15.579
20.0, 26858.146710174886, -3226.8989952682255, -60192.73372801945, -34500.67752607793, -10793.120955600853, -34267.66059013135, -4020.4306269205367, -25491.248129755037, -0.01, 0.918, 0.47400000000000003, 192.0, 0.0, 0.0, 0.0, 0.0, 0.0, 0.0, 0.0, 0.0, 0.0, 1.6541559755796115E9, 0.0, 2022-06-02 09:46:15.579
21.0, 26851.150614160375, -3233.716277327094, -60201.652074057114, -34479.800996756676, -10793.925618401245, -34270.65572388837, -4023.4034089330926, -25485.6154901523, -0.01, 0.918, 0.47400000000000003, 192.0, 0.0, 0.0, 0.0, 0.0, 0.0, 0.0, 0.0, 0.0, 0.0, 1.6541559755796168E9, 0.0, 2022-06-02 09:46:15.579
22.0, 26841.74052974469, -3250.591844390851, -60224.22733595697, -34501.01280224476, -10813.975133177655, -34290.72759040923, -4051.7230691579666, -25522.18294408118, -0.01, 0.918, 0.47400000000000003, 192.0, 0.0, 0.0, 0.0, 0.0, 0.0, 0.0, 0.0, 0.0, 0.0, 1.6541559755796251E9, 0.0, 2022-06-02 09:46:15.579
23.0, 26842.008750678153, -3252.782315347471, -60223.266210945396, -34507.4948081368, -10816.053845411998, -34289.45354097528, -4043.184702776039, -25510.962368364617, -0.01, 0.918, 0.47400000000000003, 192.0, 0.0, 0.0, 0.0, 0.0, 0.0, 0.0, 0.0, 0.0, 0.0, 1.6541559755796301E9, 0.0, 2022-06-02 09:46:15.579
24.0, 26841.56171578905, -3246.7920478334486, -60211.173917195076, -34496.45304637588, -10808.163679619274, -34278.7917588701, -4026.3314874567377, -25493.8185803674, -0.01, 0.918, 0.47400000000000003, 192.0, 0.0, 0.0, 0.0, 0.0, 0.0, 0.0, 0.0, 0.0, 0.0, 1.6541559755796354E9, 0.0, 2022-06-02 09:46:15.579
25.0, 26843.148689645375, -3243.908672798714, -60202.836716513244, -34488.83110151662, -10800.206458593186, -34269.582840154515, -4025.03508627833, -25503.139257805262, -0.01, 0.918, 0.47400000000000003, 192.0, 0.0, 0.0, 0.0, 0.0, 0.0, 0.0, 0.0, 0.0, 0.0, 1.6541559755796406E9, 0.0, 2022-06-02 09:46:15.579
26.0, 26848.490756570194, -3247.7531728450267, -60207.754100293416, -34494.97783124183, -10794.998502135099, -34267.839404087, -4027.9855165464305, -25483.357963962313, -0.01, 0.918, 0.47400000000000003, 192.0, 0.0, 0.0, 0.0, 0.0, 0.0, 0.0, 0.0, 0.0, 0.0, 1.6541559755796459E9, 0.0, 2022-06-02 09:46:15.579
27.0, 26836.26435235314, -3267.4003562212415, -60222.975638267475, -34510.37818317153, -10804.497993528605, -34280.78106412662, -4034.1993015050057, -25490.599929165834, -0.01, 0.918, 0.47400000000000003, 192.0, 0.0, 0.0, 0.0, 0.0, 0.0, 0.0, 0.0, 0.0, 0.0, 1.654155975579651E9, 0.0, 2022-06-02 09:46:15.579
28.0, 26819.36643354493, -3276.0951848143563, -60226.93189703607, -34516.279043707735, -10815.025665167053, -34284.78202638412, -4039.7201823854666, -25531.369511052315, -0.008, 0.916, 0.47200000000000003, 192.0, 255.0, 192.0, 28.0, 160.0, 14.0, 192.0, 0.0, 0.0, 0.0, 1.654155975579656E9, 0.0, 2022-06-02 09:46:15.579
29.0, 26808.995224117665, -3278.0621383264233, -60227.937725536554, -34515.943767540906, -10818.825461724457, -34286.65957291837, -4046.3139469997823, -25530.34133080737, -0.008, 0.916, 0.47200000000000003, 192.0, 0.0, 0.0, 0.0, 0.0, 0.0, 0.0, 0.0, 0.0, 0.0, 1.6541559755796611E9, 0.0, 2022-06-02 09:46:15.579
30.0, 26819.96993064522, -3267.6238736657947, -60214.794899796834, -34497.95061325438, -10805.861449940377, -34266.274781975124, -4046.1798365330505, -25476.495978414536, -0.008, 0.916, 0.47200000000000003, 192.0, 0.0, 0.0, 0.0, 0.0, 0.0, 0.0, 0.0, 0.0, 0.0, 1.6541559755796664E9, 0.0, 2022-06-02 09:46:15.579
31.0, 26832.241038351185, -3264.1146497863115, -60203.23904791344, -34489.45695036137, -10785.700176441691, -34253.9366190358, -4014.84269080671, -25473.65730686871, -0.008, 0.916, 0.47200000000000003, 192.0, 0.0, 0.0, 0.0, 0.0, 0.0, 0.0, 0.0, 0.0, 0.0, 1.6541559755796716E9, 0.0, 2022-06-02 09:46:15.579
32.0, 26825.043776636576, -3282.5324872174847, -60217.54416436484, -34513.23920646181, -10794.618522479359, -34277.36124722496, -4017.2119757189726, -25503.116906060804, -0.008, 0.916, 0.47200000000000003, 192.0, 0.0, 0.0, 0.0, 0.0, 0.0, 0.0, 0.0, 0.0, 0.0, 1.6541559755796766E9, 0.0, 2022-06-02 09:46:15.579
33.0, 26807.11767758342, -3301.553821748951, -60229.65880985962, -34524.07980252264, -10813.99748492211, -34291.42049448735, -4037.328545728749, -25523.501697004045, -0.008, 0.916, 0.47200000000000003, 192.0, 0.0, 0.0, 0.0, 0.0, 0.0, 0.0, 0.0, 0.0, 0.0, 1.6541559755796816E9, 0.0, 2022-06-02 09:46:15.579
34.0, 26805.865979893922, -3295.496499001563, -60215.152527708124, -34498.464703376856, -10803.80508945049, -34275.81897685754, -4029.840711336221, -25518.114926590315, -0.008, 0.916, 0.47200000000000003, 192.0, 0.0, 0.0, 0.0, 0.0, 0.0, 0.0, 0.0, 0.0, 0.0, 1.6541559755796869E9, 0.0, 2022-06-02 09:46:15.579
35.0, 26811.520971241116, -3286.980484364091, -60200.132155434156, -34493.92729925243, -10784.694347941202, -34256.708235348255, -4010.84172854921, -25477.8147313374, -0.008, 0.916, 0.47200000000000003, 192.0, 0.0, 0.0, 0.0, 0.0, 0.0, 0.0, 0.0, 0.0, 0.0, 1.654155975579692E9, 0.0, 2022-06-02 09:46:15.579
36.0, 26820.21579983423, -3292.166089077722, -60202.501440346416, -34500.72222956684, -10779.553446716482, -34260.10570050546, -4013.188661717017, -25463.643725352733, -0.008, 0.916, 0.47200000000000003, 192.0, 0.0, 0.0, 0.0, 0.0, 0.0, 0.0, 0.0, 0.0, 0.0, 1.654155975579697E9, 0.0, 2022-06-02 09:46:15.579
37.0, 26810.44808750726, -3311.9920864095793, -60214.191402696546, -34509.3947064155, -10794.909095157278, -34282.12216879394, -4033.394638704615, -25501.03819382646, -0.008, 0.916, 0.47200000000000003, 192.0, 0.0, 0.0, 0.0, 0.0, 0.0, 0.0, 0.0, 0.0, 0.0, 1.654155975579702E9, 0.0, 2022-06-02 09:46:15.579
38.0, 26794.198369288253, -3320.0163626690346, -60220.20402195502, -34525.42090718995, -10810.577668020447, -34289.47589271973, -4056.841618638232, -25520.260694058026, -0.004, 0.916, 0.47000000000000003, 192.0, 255.0, 224.0, 28.0, 160.0, 14.0, 176.0, 0.0, 0.0, 0.0, 1.6541559755797071E9, 0.0, 2022-06-02 09:46:15.579
39.0, 26793.281947765583, -3318.250574857065, -60215.577210852774, -34504.52202612424, -10811.672903498758, -34281.45161646028, -4058.0039093499076, -25493.550359433935, -0.004, 0.916, 0.47000000000000003, 192.0, 0.0, 0.0, 0.0, 0.0, 0.0, 0.0, 0.0, 0.0, 0.0, 1.6541559755797124E9, 0.0, 2022-06-02 09:46:15.579
40.0, 26800.59096820247, -3313.1096736323448, -60205.362463636695, -34488.89815674999, -10797.077214369443, -34265.7383401082, -4032.455865437492, -25481.212196494605, -0.004, 0.916, 0.47000000000000003, 192.0, 0.0, 0.0, 0.0, 0.0, 0.0, 0.0, 0.0, 0.0, 0.0, 1.6541559755797174E9, 0.0, 2022-06-02 09:46:15.579
41.0, 26799.518084468615, -3314.5625370219395, -60202.25557115741, -34489.76987478374, -10789.097641598897, -34261.84913657298, -4014.9544495289865, -25484.81082735191, -0.004, 0.916, 0.47000000000000003, 192.0, 0.0, 0.0, 0.0, 0.0, 0.0, 0.0, 0.0, 0.0, 0.0, 1.6541559755797224E9, 0.0, 2022-06-02 09:46:15.579
42.0, 26795.36065999993, -3325.0231534270233, -60212.73853930695, -34501.459837133865, -10799.066519625965, -34273.65085764538, -4028.7231241134555, -25504.636824683766, -0.004, 0.916, 0.47000000000000003, 192.0, 0.0, 0.0, 0.0, 0.0, 0.0, 0.0, 0.0, 0.0, 0.0, 1.6541559755797276E9, 0.0, 2022-06-02 09:46:15.579
43.0, 26795.830046633488, -3327.5936040393835, -60210.52571660587, -34506.60073835859, -10803.782737706035, -34272.645029144885, -4036.993269561919, -25520.23834231357, -0.004, 0.916, 0.47000000000000003, 192.0, 0.0, 0.0, 0.0, 0.0, 0.0, 0.0, 0.0, 0.0, 0.0, 1.6541559755797348E9, 0.0, 2022-06-02 09:46:15.579
44.0, 26791.717325653713, -3330.23110988511, -60210.10103346122, -34509.95350002688, -10809.057749397487, -34275.57310766853, -4053.8241331367653, -25521.490040003067, -0.004, 0.916, 0.47000000000000003, 192.0, 0.0, 0.0, 0.0, 0.0, 0.0, 0.0, 0.0, 0.0, 0.0, 1.65415597557974E9, 0.0, 2022-06-02 09:46:15.579
45.0, 26793.30429951004, -3328.04063892849, -60212.20209744002, -34515.943767540906, -10807.962513919178, -34277.11537803595, -4038.580243418246, -25507.98958635206, -0.004, 0.916, 0.47000000000000003, 192.0, 0.0, 0.0, 0.0, 0.0, 0.0, 0.0, 0.0, 0.0, 0.0, 1.654155975579745E9, 0.0, 2022-06-02 09:46:15.579
46.0, 26803.317881026018, -3324.553766793462, -60210.54806835033, -34520.57057864316, -10804.766214462068, -34275.41664545735, -4017.2343274634277, -25487.04600179744, -0.004, 0.916, 0.47000000000000003, 192.0, 0.0, 0.0, 0.0, 0.0, 0.0, 0.0, 0.0, 0.0, 0.0, 1.65415597557975E9, 0.0, 2022-06-02 09:46:15.579
47.0, 26821.44514577927, -3326.364258094342, -60215.82308004178, -34516.077878007636, -10815.293886100519, -34289.96763109775, -4041.0165835638745, -25499.33946124786, -0.004, 0.916, 0.47000000000000003, 192.0, 0.0, 0.0, 0.0, 0.0, 0.0, 0.0, 0.0, 0.0, 0.0, 1.6541559755797553E9, 0.0, 2022-06-02 09:46:15.579
48.0, 26820.148744600865, -3324.397304582275, -60219.95815276601, -34519.20712223138, -10828.883746729345, -34294.326221266536, -4072.2643223123937, -25522.38410978128, -0.004, 0.92, 0.47000000000000003, 192.0, 255.0, 224.0, 28.0, 192.0, 14.0, 176.0, 0.0, 0.0, 0.0, 1.6541559755797603E9, 0.0, 2022-06-02 09:46:15.579
49.0, 26819.858171922944, -3304.4148450392304, -60202.12146069068, -34504.36556391306, -10818.266668113074, -34274.70138963478, -4038.4461329515143, -25516.43854575617, -0.004, 0.92, 0.47000000000000003, 192.0, 0.0, 0.0, 0.0, 0.0, 0.0, 0.0, 0.0, 0.0, 0.0, 1.654155975579765E9, 0.0, 2022-06-02 09:46:15.579
50.0, 26834.677378496814, -3291.9872751220796, -60193.33722511974, -34503.426790645935, -10806.710816229679, -34268.375845953924, -4015.5355948848246, -25459.12867297276, -0.004, 0.92, 0.47000000000000003, 192.0, 0.0, 0.0, 0.0, 0.0, 0.0, 0.0, 0.0, 0.0, 0.0, 1.6541559755797703E9, 0.0, 2022-06-02 09:46:15.579
51.0, 26855.397445606883, -3282.040748839468, -60193.04665244182, -34499.47053187735, -10799.8488306819, -34273.7402646232, -4020.7211995984558, -25486.353097719326, -0.004, 0.92, 0.47000000000000003, 192.0, 0.0, 0.0, 0.0, 0.0, 0.0, 0.0, 0.0, 0.0, 0.0, 1.6541559755797756E9, 0.0, 2022-06-02 09:46:15.579
52.0, 26862.862928254955, -3279.000911593546, -60203.57432408027, -34490.01574397275, -10811.158813376285, -34281.518671693644, -4041.910653342087, -25513.421060254703, -0.004, 0.92, 0.47000000000000003, 192.0, 0.0, 0.0, 0.0, 0.0, 0.0, 0.0, 0.0, 0.0, 0.0, 1.6541559755797806E9, 0.0, 2022-06-02 09:46:15.579
53.0, 26872.250660926184, -3266.4392312096634, -60196.17589666556, -34493.10028470758, -10815.875031456355, -34275.03666580161, -4033.41699044907, -25501.57463569339, -0.004, 0.92, 0.47000000000000003, 192.0, 0.0, 0.0, 0.0, 0.0, 0.0, 0.0, 0.0, 0.0, 0.0, 1.6541559755797856E9, 0.0, 2022-06-02 09:46:15.579
54.0, 26890.400277423894, -3245.339184443854, -60181.42374532506, -34489.34519163909, -10803.492165028116, -34260.37392143893, -4025.549176400802, -25488.94590007614, -0.004, 0.92, 0.47000000000000003, 192.0, 0.0, 0.0, 0.0, 0.0, 0.0, 0.0, 0.0, 0.0, 0.0, 1.6541559755797908E9, 0.0, 2022-06-02 09:46:15.579
55.0, 26902.157295007386, -3234.900919783225, -60177.28867260083, -34490.4404271174, -10790.796374177502, -34257.7364155932, -4021.391751932115, -25488.27534774248, -0.004, 0.92, 0.47000000000000003, 192.0, 0.0, 0.0, 0.0, 0.0, 0.0, 0.0, 0.0, 0.0, 0.0, 1.654155975579796E9, 0.0, 2022-06-02 09:46:15.579
56.0, 26907.342899721018, -3242.1205332422896, -60183.48010581495, -34475.665924032444, -10788.672958454246, -34267.45942443126, -4014.3956559176036, -25475.557205147412, -0.004, 0.92, 0.47000000000000003, 192.0, 0.0, 0.0, 0.0, 0.0, 0.0, 0.0, 0.0, 0.0, 0.0, 1.654155975579801E9, 0.0, 2022-06-02 09:46:15.579
57.0, 26917.8035161261, -3248.3790216897755, -60192.44315534153, -34491.42390387344, -10799.37944404834, -34274.96961056824, -4023.93985080002, -25502.37929849378, -0.004, 0.92, 0.47000000000000003, 192.0, 0.0, 0.0, 0.0, 0.0, 0.0, 0.0, 0.0, 0.0, 0.0, 1.654155975579806E9, 0.0, 2022-06-02 09:46:15.579
58.0, 26913.46727770177, -3250.189512990655, -60200.266265900886, -34503.53854936821, -10813.706912244192, -34278.83646235901, -4045.196359777017, -25515.924455633696, -0.006, 0.916, 0.47000000000000003, 192.0, 255.0, 208.0, 28.0, 160.0, 14.0, 176.0, 0.0, 0.0, 0.0, 1.654155975579811E9, 0.0, 2022-06-02 09:46:15.579
59.0, 26917.021205070163, -3235.683230839161, -60189.26920762887, -34490.35102013958, -10802.441633038716, -34261.893840061886, -4031.6288508926455, -25482.218024995094, -0.006, 0.916, 0.47000000000000003, 192.0, 0.0, 0.0, 0.0, 0.0, 0.0, 0.0, 0.0, 0.0, 0.0, 1.654155975579816E9, 0.0, 2022-06-02 09:46:15.579
60.0, 26934.209696556296, -3216.907765496703, -60177.66865225657, -34481.611488057555, -10782.07919383993, -34243.274836930614, -4005.4326063910257, -25471.489187656545, -0.006, 0.916, 0.47000000000000003, 192.0, 0.0, 0.0, 0.0, 0.0, 0.0, 0.0, 0.0, 0.0, 0.0, 1.654155975579821E9, 0.0, 2022-06-02 09:46:15.579
61.0, 26945.09499610603, -3218.584146330851, -60189.33626286224, -34483.06435144715, -10783.04031885151, -34252.237886457195, -4003.845632534699, -25483.246205240037, -0.006, 0.916, 0.47000000000000003, 192.0, 0.0, 0.0, 0.0, 0.0, 0.0, 0.0, 0.0, 0.0, 0.0, 1.6541559755798266E9, 0.0, 2022-06-02 09:46:15.579
62.0, 26950.14649035293, -3224.7308760560604, -60207.08354795975, -34489.367543383545, -10797.144269602808, -34265.91715406384, -4023.22459497745, -25509.084821830373, -0.006, 0.916, 0.47000000000000003, 192.0, 0.0, 0.0, 0.0, 0.0, 0.0, 0.0, 0.0, 0.0, 0.0, 1.6541559755798316E9, 0.0, 2022-06-02 09:46:15.579
63.0, 26943.888001905445, -3225.2226144340775, -60216.136004464155, -34506.10899998057, -10810.890592442822, -34270.43220644382, -4035.2051300054945, -25504.815638639408, -0.006, 0.916, 0.47000000000000003, 192.0, 0.0, 0.0, 0.0, 0.0, 0.0, 0.0, 0.0, 0.0, 0.0, 1.6541559755798368E9, 0.0, 2022-06-02 09:46:15.579
64.0, 26954.43802528835, -3206.7377217695384, -60201.56266707929, -34491.22273817334, -10798.954760903689, -34253.131956235404, -4022.039952521319, -25478.03824878195, -0.006, 0.916, 0.47000000000000003, 192.0, 0.0, 0.0, 0.0, 0.0, 0.0, 0.0, 0.0, 0.0, 0.0, 1.654155975579844E9, 0.0, 2022-06-02 09:46:15.579
65.0, 26965.926821938378, -3198.6463902767173, -60196.57822806576, -34484.94189798139, -10787.287150298018, -34246.02410149862, -4004.2479639348944, -25496.94782459114, -0.006, 0.916, 0.47000000000000003, 192.0, 0.0, 0.0, 0.0, 0.0, 0.0, 0.0, 0.0, 0.0, 0.0, 1.6541559755798492E9, 0.0, 2022-06-02 09:46:15.579
66.0, 26975.046333676142, -3201.2615443779882, -60205.362463636695, -34478.30342987817, -10786.32602528644, -34256.30590394806, -4005.5220133688467, -25481.167493005694, -0.006, 0.916, 0.47000000000000003, 192.0, 0.0, 0.0, 0.0, 0.0, 0.0, 0.0, 0.0, 0.0, 0.0, 1.6541559755798542E9, 0.0, 2022-06-02 09:46:15.579
67.0, 26975.515720309704, -3201.462710078086, -60216.65009458663, -34491.22273817334, -10795.110260857375, -34264.039607529594, -4036.8815108396425, -25481.48041742807, -0.006, 0.916, 0.47000000000000003, 192.0, 0.0, 0.0, 0.0, 0.0, 0.0, 0.0, 0.0, 0.0, 0.0, 1.6541559755798593E9, 0.0, 2022-06-02 09:46:15.579
68.0, 26985.66341229241, -3195.6065530307956, -60217.29829517583, -34501.035153989214, -10804.9003249288, -34262.92202030683, -4052.237159280439, -25484.38614420726, -0.006, 0.91, 0.47400000000000003, 192.0, 255.0, 208.0, 28.0, 112.0, 14.0, 208.0, 0.0, 0.0, 0.0, 1.6541559755798645E9, 0.0, 2022-06-02 09:46:15.579
69.0, 26993.642985062957, -3185.145936625712, -60202.434385113054, -34481.85735724656, -10797.211324836175, -34257.64700861538, -4023.872795566654, -25492.09749604434, -0.006, 0.91, 0.47400000000000003, 192.0, 0.0, 0.0, 0.0, 0.0, 0.0, 0.0, 0.0, 0.0, 0.0, 1.6541559755798695E9, 0.0, 2022-06-02 09:46:15.579
70.0, 26999.230921176782, -3173.746546953505, -60196.980559465956, -34458.65624650195, -10787.220095064653, -34255.88122080341, -4033.774618360355, -25504.368603750303, -0.006, 0.91, 0.47400000000000003, 192.0, 0.0, 0.0, 0.0, 0.0, 0.0, 0.0, 0.0, 0.0, 0.0, 1.6541559755798745E9, 0.0, 2022-06-02 09:46:15.579
71.0, 26998.135685698475, -3182.262561590977, -60213.58790559625, -34486.081836948615, -10789.544676488003, -34271.97447681123, -4033.774618360355, -25504.368603750303, -0.006, 0.91, 0.47400000000000003, 192.0, 0.0, 0.0, 0.0, 0.0, 0.0, 0.0, 0.0, 0.0, 0.0, 1.6541559755798795E9, 0.0, 2022-06-02 09:46:15.579
72.0, 26993.419467618405, -3195.941829197625, -60226.44015865805, -34513.127447739535, -10793.635045723326, -34281.40691297137, -4019.1118739976737, -25497.216045524605, -0.006, 0.91, 0.47400000000000003, 192.0, 0.0, 0.0, 0.0, 0.0, 0.0, 0.0, 0.0, 0.0, 0.0, 1.6541559755798848E9, 0.0, 2022-06-02 09:46:15.579
73.0, 26986.803351259634, -3200.7027507666053, -60231.379894182675, -34505.84077904711, -10806.04026389602, -34290.7946456426, -4031.4947404259137, -25526.943865650162, -0.006, 0.91, 0.47400000000000003, 192.0, 0.0, 0.0, 0.0, 0.0, 0.0, 0.0, 0.0, 0.0, 0.0, 1.6541559755798898E9, 0.0, 2022-06-02 09:46:15.579
74.0, 27008.05986023663, -3170.8631719187706, -60199.32749263376, -34468.78158674021, -10784.13555432982, -34265.42541568582, -4013.903917539587, -25477.94884180413, -0.006, 0.91, 0.47400000000000003, 192.0, 0.0, 0.0, 0.0, 0.0, 0.0, 0.0, 0.0, 0.0, 0.0, 1.654155975579895E9, 0.0, 2022-06-02 09:46:15.579
75.0, 27015.145363228963, -3162.5036194924855, -60190.63266404065, -34466.12172915003, -10771.350356501383, -34252.84138355749, -4003.9350395125202, -25462.816710807885, -0.006, 0.91, 0.47400000000000003, 192.0, 0.0, 0.0, 0.0, 0.0, 0.0, 0.0, 0.0, 0.0, 0.0, 1.6541559755799E9, 0.0, 2022-06-02 09:46:15.579
76.0, 27017.648758607957, -3167.555113739385, -60199.79687926733, -34480.40449385697, -10773.18319954672, -34254.42835741382, -4012.6969233390005, -25469.52223414448, -0.006, 0.91, 0.47400000000000003, 192.0, 0.0, 0.0, 0.0, 0.0, 0.0, 0.0, 0.0, 0.0, 0.0, 1.6541559755799053E9, 0.0, 2022-06-02 09:46:15.579
77.0, 27009.53507537068, -3179.0215586449576, -60215.86778353069, -34499.60464234408, -10783.956740374177, -34270.700427377276, -4022.330525199238, -25492.74569663354, -0.006, 0.91, 0.47400000000000003, 192.0, 0.0, 0.0, 0.0, 0.0, 0.0, 0.0, 0.0, 0.0, 0.0, 1.6541559755799103E9, 0.0, 2022-06-02 09:46:15.579
78.0, 26993.8217990186, -3192.0302739179465, -60229.72586509298, -34507.964194770364, -10802.151060360797, -34284.37969498392, -4025.1468450006064, -25509.733022419576, -0.006, 0.906, 0.47600000000000003, 192.0, 255.0, 208.0, 28.0, 80.0, 14.0, 224.0, 0.0, 0.0, 0.0, 1.6541559755799153E9, 0.0, 2022-06-02 09:46:15.579
79.0, 26996.794581031154, -3180.3179598233655, -60222.72976907847, -34505.77372381374, -10802.620446994359, -34278.45648270327, -4032.6346793931343, -25518.405499268236, -0.006, 0.906, 0.47600000000000003, 192.0, 0.0, 0.0, 0.0, 0.0, 0.0, 0.0, 0.0, 0.0, 0.0, 1.6541559755799203E9, 0.0, 2022-06-02 09:46:15.579
80.0, 27014.094831239563, -3158.9049886351813, -60205.42951887006, -34496.27423242023, -10783.80027816299, -34259.792776083086, -4015.066208251263, -25475.534853402958, -0.006, 0.906, 0.47600000000000003, 192.0, 0.0, 0.0, 0.0, 0.0, 0.0, 0.0, 0.0, 0.0, 0.0, 1.6541559755799255E9, 0.0, 2022-06-02 09:46:15.579
81.0, 27020.710947598334, -3156.7368694230163, -60201.98735022394, -34492.11680795155, -10775.41837399225, -34253.10960449095, -4009.388865159615, -25449.4056641347, -0.006, 0.906, 0.47600000000000003, 192.0, 0.0, 0.0, 0.0, 0.0, 0.0, 0.0, 0.0, 0.0, 0.0, 1.6541559755799305E9, 0.0, 2022-06-02 09:46:15.579
82.0, 27034.34551171607, -3155.8651513892596, -60203.37315838017, -34480.65036304598, -10774.70311816968, -34255.70240684777, -4020.1400542426177, -25478.70880111561, -0.006, 0.906, 0.47600000000000003, 192.0, 0.0, 0.0, 0.0, 0.0, 0.0, 0.0, 0.0, 0.0, 0.0, 1.6541559755799356E9, 0.0, 2022-06-02 09:46:15.579
83.0, 27032.713834370832, -3167.8903899062148, -60220.87457428868, -34504.63378484652, -10799.401795792795, -34269.716950621245, -4039.831941107743, -25518.6737202017, -0.006, 0.906, 0.47600000000000003, 192.0, 0.0, 0.0, 0.0, 0.0, 0.0, 0.0, 0.0, 0.0, 0.0, 1.6541559755799408E9, 0.0, 2022-06-02 09:46:15.579
84.0, 27028.35524420205, -3157.496828734497, -60210.97275149498, -34509.77468607124, -10798.641836481314, -34255.56829638103, -4027.493778168414, -25499.630033925776, -0.006, 0.906, 0.47600000000000003, 192.0, 0.0, 0.0, 0.0, 0.0, 0.0, 0.0, 0.0, 0.0, 0.0, 1.6541559755799458E9, 0.0, 2022-06-02 09:46:15.579
85.0, 27013.8266103061, -3154.5687502108517, -60205.787146781346, -34497.16830219845, -10791.601036977892, -34252.170831223826, -4021.4364554210256, -25488.498865187034, -0.006, 0.906, 0.47600000000000003, 192.0, 0.0, 0.0, 0.0, 0.0, 0.0, 0.0, 0.0, 0.0, 0.0, 1.6541559755799508E9, 0.0, 2022-06-02 09:46:15.579
86.0, 27012.552560872147, -3162.5706747258514, -60212.33620790675, -34493.077932963126, -10793.545638745503, -34266.54300290859, -4023.358705444182, -25510.49298173106, -0.006, 0.906, 0.47600000000000003, 192.0, 0.0, 0.0, 0.0, 0.0, 0.0, 0.0, 0.0, 0.0, 0.0, 1.654155975579958E9, 0.0, 2022-06-02 09:46:15.579
87.0, 27006.294072424662, -3178.6415789892176, -60231.089321504754, -34505.21493020236, -10810.108281386887, -34290.45936947577, -4045.2410632659276, -25502.80398163843, -0.006, 0.906, 0.47600000000000003, 192.0, 0.0, 0.0, 0.0, 0.0, 0.0, 0.0, 0.0, 0.0, 0.0, 1.654155975579963E9, 0.0, 2022-06-02 09:46:15.579
88.0, 27000.996708988754, -3188.074015149357, -60238.77832159738, -34523.11867751106, -10829.911926974288, -34295.60027070049, -4071.3031973008156, -25503.67569967219, -0.012, 0.914, 0.47600000000000003, 192.0, 255.0, 160.0, 28.0, 144.0, 14.0, 224.0, 0.0, 0.0, 0.0, 1.654155975579968E9, 0.0, 2022-06-02 09:46:15.579
89.0, 27016.262950451728, -3164.917607893659, -60213.09616721823, -34497.63768883201, -10814.913906444777, -34271.75095936668, -4060.931987873553, -25521.244170814058, -0.012, 0.914, 0.47600000000000003, 192.0, 0.0, 0.0, 0.0, 0.0, 0.0, 0.0, 0.0, 0.0, 0.0, 1.6541559755799735E9, 0.0, 2022-06-02 09:46:15.579
90.0, 27042.325084486616, -3136.2850232464107, -60182.206056381, -34466.38995008349, -10782.235656051118, -34244.97356950922, -4030.444208436514, -25483.42501919568, -0.012, 0.914, 0.47600000000000003, 192.0, 0.0, 0.0, 0.0, 0.0, 0.0, 0.0, 0.0, 0.0, 0.0, 1.6541559755799785E9, 0.0, 2022-06-02 09:46:15.579
91.0, 27041.900401341965, -3146.075087317835, -60193.31487337528, -34483.846662503085, -10785.521362486048, -34259.01046502715, -4016.3626094296706, -25471.735056845555, -0.012, 0.914, 0.47600000000000003, 192.0, 0.0, 0.0, 0.0, 0.0, 0.0, 0.0, 0.0, 0.0, 0.0, 1.6541559755799837E9, 0.0, 2022-06-02 09:46:15.579
92.0, 27039.35230247406, -3159.8437619023043, -60205.1612979366, -34497.7941510432, -10794.23854282362, -34272.53327042261, -4018.195452475006, -25500.702917659633, -0.012, 0.914, 0.47600000000000003, 192.0, 0.0, 0.0, 0.0, 0.0, 0.0, 0.0, 0.0, 0.0, 0.0, 1.6541559755799887E9, 0.0, 2022-06-02 09:46:15.579
93.0, 27038.413529206937, -3160.9613491250693, -60211.039806728346, -34495.8942527645, -10806.04026389602, -34276.64599140239, -4036.702696884, -25509.86713288631, -0.012, 0.914, 0.47600000000000003, 192.0, 0.0, 0.0, 0.0, 0.0, 0.0, 0.0, 0.0, 0.0, 0.0, 1.6541559755799947E9, 0.0, 2022-06-02 09:46:15.579
94.0, 27043.39796822047, -3152.6465001876954, -60207.24001017094, -34489.32283989464, -10804.922676673255, -34267.548831409076, -4057.713336671989, -25506.38026075128, -0.012, 0.914, 0.47600000000000003, 192.0, 0.0, 0.0, 0.0, 0.0, 0.0, 0.0, 0.0, 0.0, 0.0, 1.6541559755799997E9, 0.0, 2022-06-02 09:46:15.579
95.0, 27051.511651457746, -3137.9837558250138, -60197.896980988626, -34468.20044138437, -10790.908132899778, -34251.50027889017, -4042.89413009812, -25495.494961201544, -0.012, 0.914, 0.47600000000000003, 192.0, 0.0, 0.0, 0.0, 0.0, 0.0, 0.0, 0.0, 0.0, 0.0, 1.654155975580007E9, 0.0, 2022-06-02 09:46:15.580
96.0, 27045.744901388276, -3142.5435116938966, -60208.04467297133, -34480.67271479043, -10788.427089265238, -34256.95410453726, -4012.2722401943497, -25489.169417520694, -0.012, 0.914, 0.47600000000000003, 192.0, 0.0, 0.0, 0.0, 0.0, 0.0, 0.0, 0.0, 0.0, 0.0, 1.6541559755800123E9, 0.0, 2022-06-02 09:46:15.580
97.0, 27042.39213971998, -3149.9866425975138, -60219.22054519899, -34493.23439517432, -10795.266723068562, -34275.729569879724, -4030.2653944808717, -25504.368603750303, -0.012, 0.914, 0.47800000000000004, 192.0, 255.0, 160.0, 28.0, 144.0, 14.0, 240.0, 0.0, 0.0, 0.0, 1.6541559755800173E9, 0.0, 2022-06-02 09:46:15.580
98.0, 27036.02189255022, -3156.133372322723, -60223.80265281232, -34508.947671526395, -10808.208383108185, -34284.06677056155, -4041.79889461981, -25497.57367343589, -0.012, 0.914, 0.47800000000000004, 192.0, 0.0, 0.0, 0.0, 0.0, 0.0, 0.0, 0.0, 0.0, 0.0, 1.6541559755800223E9, 0.0, 2022-06-02 09:46:15.580
99.0, 27038.748805373765, -3149.494904219497, -60210.39160613914, -34500.18578769991, -10801.413452793771, -34268.97934305422, -4020.6317926206343, -25491.650461155234, -0.012, 0.914, 0.47800000000000004, 192.0, 0.0, 0.0, 0.0, 0.0, 0.0, 0.0, 0.0, 0.0, 0.0, 1.654155975580028E9, 0.0, 2022-06-02 09:46:15.580
100.0, 27055.132634059508, -3131.2558807439664, -60189.6044837957, -34480.426845601425, -10778.27939728253, -34249.04158700009, -4006.0808069802297, -25480.27342322748, -0.012, 0.914, 0.47800000000000004, 192.0, 0.0, 0.0, 0.0, 0.0, 0.0, 0.0, 0.0, 0.0, 0.0, 1.654155975580033E9, 0.0, 2022-06-02 09:46:15.580
101.0, 27057.59132594959, -3130.2277004990224, -60188.82217273977, -34468.334551851105, -10771.618577434849, -34252.61786611293, -4008.807719803777, -25486.777780863977, -0.012, 0.914, 0.47800000000000004, 192.0, 0.0, 0.0, 0.0, 0.0, 0.0, 0.0, 0.0, 0.0, 0.0, 1.654155975580038E9, 0.0, 2022-06-02 09:46:15.580
102.0, 27043.576782176115, -3152.6912036766057, -60213.766719551895, -34483.62314505853, -10794.730281201635, -34272.17564251133, -4029.41602819157, -25500.43469672617, -0.012, 0.914, 0.47800000000000004, 192.0, 0.0, 0.0, 0.0, 0.0, 0.0, 0.0, 0.0, 0.0, 0.0, 1.6541559755800433E9, 0.0, 2022-06-02 09:46:15.580
103.0, 27044.49320369878, -3154.747564166494, -60218.997027754434, -34501.750409811786, -10807.761348219079, -34277.607116413965, -4036.7697521173664, -25503.385126994268, -0.012, 0.914, 0.47800000000000004, 192.0, 0.0, 0.0, 0.0, 0.0, 0.0, 0.0, 0.0, 0.0, 0.0, 1.654155975580048E9, 0.0, 2022-06-02 09:46:15.580
104.0, 27054.97617184832, -3140.7106686485613, -60208.49170786044, -34495.84954927558, -10807.448423796704, -34265.60422964147, -4040.9942318194194, -25493.01391756701, -0.012, 0.914, 0.47800000000000004, 192.0, 0.0, 0.0, 0.0, 0.0, 0.0, 0.0, 0.0, 0.0, 0.0, 1.654155975580053E9, 0.0, 2022-06-02 09:46:15.580
105.0, 27057.144291060486, -3132.5299301779187, -60196.80174551031, -34469.60860128506, -10788.762365432069, -34250.7850230676, -4022.621097877157, -25482.799170350932, -0.012, 0.914, 0.47800000000000004, 192.0, 0.0, 0.0, 0.0, 0.0, 0.0, 0.0, 0.0, 0.0, 0.0, 1.654155976058664E9, 0.0, 2022-06-02 09:46:16.058
106.0, 27058.954782361365, -3133.312241233855, -60198.925161233565, -34477.5881740556, -10781.386289761816, -34258.92105804933, -4013.479234394936, -25503.072202571893, -0.012, 0.914, 0.47800000000000004, 192.0, 0.0, 0.0, 0.0, 0.0, 0.0, 0.0, 0.0, 0.0, 0.0, 1.654155976058756E9, 0.0, 2022-06-02 09:46:16.058
107.0, 27056.697256171377, -3147.8185233853487, -60215.53250736386, -34494.08376146362, -10797.814821936468, -34280.82576761553, -4036.3674207171707, -25511.923493376198, -0.008, 0.914, 0.47600000000000003, 192.0, 255.0, 192.0, 28.0, 144.0, 14.0, 224.0, 0.0, 0.0, 0.0, 1.6541559760588367E9, 0.0, 2022-06-02 09:46:16.058
108.0, 27056.20551779336, -3147.036212329413, -60214.81725154129, -34497.50357836528, -10805.302656328995, -34278.68000014782, -4046.738630144433, -25478.440580182145, -0.008, 0.914, 0.47600000000000003, 192.0, 0.0, 0.0, 0.0, 0.0, 0.0, 0.0, 0.0, 0.0, 0.0, 1.6541559760588431E9, 0.0, 2022-06-02 09:46:16.058
109.0, 27052.852756125067, -3137.7602383804606, -60201.383853123654, -34481.879708991015, -10795.557295746481, -34262.45263367327, -4026.84557757921, -25503.139257805262, -0.008, 0.914, 0.47600000000000003, 192.0, 0.0, 0.0, 0.0, 0.0, 0.0, 0.0, 0.0, 0.0, 0.0, 1.6541559760588489E9, 0.0, 2022-06-02 09:46:16.058
110.0, 27050.371712490527, -3132.976965067025, -60194.0077774534, -34476.69410427739, -10781.855676395378, -34255.59064812549, -4012.6745715945453, -25499.361812992312, -0.008, 0.914, 0.47600000000000003, 192.0, 0.0, 0.0, 0.0, 0.0, 0.0, 0.0, 0.0, 0.0, 0.0, 1.654155976058854E9, 0.0, 2022-06-02 09:46:16.058
111.0, 27054.573840448124, -3140.174226781634, -60202.61319906869, -34503.136217968015, -10783.353243273885, -34270.11928202144, -4028.4101996910813, -25486.062525041405, -0.008, 0.914, 0.47600000000000003, 192.0, 0.0, 0.0, 0.0, 0.0, 0.0, 0.0, 0.0, 0.0, 0.0, 1.654155976058859E9, 0.0, 2022-06-02 09:46:16.058
112.0, 27052.40572123596, -3154.6581571886727, -60214.459623630006, -34516.3460989411, -10794.75263294609, -34291.666363676355, -4034.735743371933, -25487.00129830853, -0.008, 0.914, 0.47600000000000003, 192.0, 0.0, 0.0, 0.0, 0.0, 0.0, 0.0, 0.0, 0.0, 0.0, 1.6541559760588646E9, 0.0, 2022-06-02 09:46:16.058
113.0, 27061.30171552917, -3153.2947007768994, -60210.99510323943, -34479.44336884539, -10801.055824882487, -34286.07842756253, -4053.1535808031063, -25488.744734376043, -0.008, 0.914, 0.47600000000000003, 192.0, 0.0, 0.0, 0.0, 0.0, 0.0, 0.0, 0.0, 0.0, 0.0, 1.6541559760588698E9, 0.0, 2022-06-02 09:46:16.058
114.0, 27061.659343440457, -3140.3530407372764, -60194.879495487156, -34472.96136295335, -10793.500935256594, -34269.292267476594, -4032.746438115411, -25511.252941042538, -0.008, 0.914, 0.47600000000000003, 192.0, 0.0, 0.0, 0.0, 0.0, 0.0, 0.0, 0.0, 0.0, 0.0, 1.654155976058875E9, 0.0, 2022-06-02 09:46:16.058
115.0, 27050.21525027934, -3135.7932848683936, -60183.837733726235, -34473.81072924265, -10778.927597871732, -34258.608133626956, -3999.3752836436374, -25495.629071668278, -0.008, 0.914, 0.47600000000000003, 192.0, 0.0, 0.0, 0.0, 0.0, 0.0, 0.0, 0.0, 0.0, 0.0, 1.654155976058881E9, 0.0, 2022-06-02 09:46:16.058
116.0, 27056.630200938012, -3134.4745319455305, -60183.63656802614, -34477.766988011244, -10776.781830404023, -34256.17179348133, -4022.330525199238, -25476.004240036516, -0.008, 0.914, 0.47600000000000003, 192.0, 0.0, 0.0, 0.0, 0.0, 0.0, 0.0, 0.0, 0.0, 0.0, 1.6541559760588863E9, 0.0, 2022-06-02 09:46:16.058
117.0, 27059.938259117396, -3138.0508110583796, -60192.152582663606, -34486.77474102673, -10789.097641598897, -34266.67711337532, -4045.5986911772125, -25503.988624094563, -0.018000000000000002, 0.916, 0.47400000000000003, 192.0, 255.0, 112.0, 28.0, 160.0, 14.0, 208.0, 0.0, 0.0, 0.0, 1.6541559760588913E9, 0.0, 2022-06-02 09:46:16.058
118.0, 27051.69046541339, -3143.2140640275557, -60191.75025126342, -34493.077932963126, -10793.545638745503, -34272.577973911524, -4023.649278122101, -25516.706766689633, -0.018000000000000002, 0.916, 0.47400000000000003, 192.0, 0.0, 0.0, 0.0, 0.0, 0.0, 0.0, 0.0, 0.0, 0.0, 1.6541559760588965E9, 0.0, 2022-06-02 09:46:16.058
119.0, 27057.524270716225, -3134.340421478799, -60177.24396911192, -34480.40449385697, -10786.728356686635, -34263.25729647366, -4012.4063506610814, -25484.296737229437, -0.018000000000000002, 0.916, 0.47400000000000003, 192.0, 0.0, 0.0, 0.0, 0.0, 0.0, 0.0, 0.0, 0.0, 0.0, 1.6541559760589018E9, 0.0, 2022-06-02 09:46:16.058
120.0, 27073.01402962375, -3124.550357407374, -60162.8494456827, -34471.01676118574, -10778.815839149456, -34251.2320579567, -4016.183795474028, -25470.058676011406, -0.018000000000000002, 0.916, 0.47400000000000003, 192.0, 0.0, 0.0, 0.0, 0.0, 0.0, 0.0, 0.0, 0.0, 0.0, 1.6541559760589073E9, 0.0, 2022-06-02 09:46:16.058
121.0, 27083.07231462864, -3119.0965317602795, -60160.681326470534, -34467.77575823972, -10774.412545491761, -34252.506107390655, -4021.704676354489, -25486.62131865279, -0.018000000000000002, 0.916, 0.47400000000000003, 192.0, 0.0, 0.0, 0.0, 0.0, 0.0, 0.0, 0.0, 0.0, 0.0, 1.6541559760589128E9, 0.0, 2022-06-02 09:46:16.058
122.0, 27068.968363877342, -3135.7932848683936, -60181.53550404734, -34489.34519163909, -10790.036414866021, -34272.77913961162, -4041.910653342087, -25507.18492355167, -0.018000000000000002, 0.916, 0.47400000000000003, 192.0, 0.0, 0.0, 0.0, 0.0, 0.0, 0.0, 0.0, 0.0, 0.0, 1.654155976058918E9, 0.0, 2022-06-02 09:46:16.058
123.0, 27068.990715621796, -3142.007069826969, -60187.86104772819, -34503.762066812764, -10799.535906259527, -34278.50118619218, -4041.6871358975336, -25506.93905436266, -0.018000000000000002, 0.916, 0.47400000000000003, 192.0, 0.0, 0.0, 0.0, 0.0, 0.0, 0.0, 0.0, 0.0, 0.0, 1.6541559760589232E9, 0.0, 2022-06-02 09:46:16.058
124.0, 27064.073331841628, -3129.7359621210057, -60170.65020449761, -34492.29562190719, -10792.584513733926, -34269.89576457689, -4017.3684379301594, -25489.6164524098, -0.018000000000000002, 0.916, 0.47400000000000003, 192.0, 0.0, 0.0, 0.0, 0.0, 0.0, 0.0, 0.0, 0.0, 0.0, 1.6541559760589285E9, 0.0, 2022-06-02 09:46:16.058
125.0, 27065.906174886964, -3120.012953282947, -60154.467541511964, -34474.749502509774, -10775.79835364799, -34253.7354533357, -4003.4656528789587, -25452.624315336267, -0.018000000000000002, 0.916, 0.47400000000000003, 192.0, 0.0, 0.0, 0.0, 0.0, 0.0, 0.0, 0.0, 0.0, 0.0, 1.6541559760589335E9, 0.0, 2022-06-02 09:46:16.058
126.0, 27085.039268140707, -3108.211232210545, -60146.13034083013, -34454.074138888616, -10764.622481420336, -34246.02410149862, -4012.4063506610814, -25471.489187656545, -0.018000000000000002, 0.916, 0.47400000000000003, 192.0, 0.0, 0.0, 0.0, 0.0, 0.0, 0.0, 0.0, 0.0, 0.0, 1.6541559760589392E9, 0.0, 2022-06-02 09:46:16.058
127.0, 27082.44646578389, -3124.0362672849024, -60164.458771283484, -34473.564860053644, -10779.464039738661, -34262.96672379574, -4028.32079271326, -25502.401650238236, -0.014, 0.908, 0.47600000000000003, 192.0, 255.0, 144.0, 28.0, 96.0, 14.0, 224.0, 0.0, 0.0, 0.0, 1.6541559760589447E9, 0.0, 2022-06-02 09:46:16.058
128.0, 27086.872111186043, -3123.4774736735194, -60162.55887300478, -34480.82917700162, -10780.983958361621, -34262.69850286228, -4011.892260538609, -25497.886597858265, -0.014, 0.908, 0.47600000000000003, 192.0, 0.0, 0.0, 0.0, 0.0, 0.0, 0.0, 0.0, 0.0, 0.0, 1.6541559760589545E9, 0.0, 2022-06-02 09:46:16.058
129.0, 27078.64666922649, -3120.2141189830445, -60158.78142819183, -34484.20429041437, -10784.068499096455, -34263.12318600693, -4015.423836162548, -25501.708746160122, -0.014, 0.908, 0.47600000000000003, 192.0, 0.0, 0.0, 0.0, 0.0, 0.0, 0.0, 0.0, 0.0, 0.0, 1.6541559760589595E9, 0.0, 2022-06-02 09:46:16.058
130.0, 27083.27348032874, -3116.101398003268, -60152.165311833065, -34464.31123784915, -10772.400888490783, -34256.216496970235, -4009.3665134151597, -25498.177170536183, -0.014, 0.908, 0.47600000000000003, 192.0, 0.0, 0.0, 0.0, 0.0, 0.0, 0.0, 0.0, 0.0, 0.0, 1.6541559760589647E9, 0.0, 2022-06-02 09:46:16.058
131.0, 27090.001355409786, -3119.275345715922, -60160.904843915094, -34474.280115876216, -10772.445591979695, -34256.10473824796, -4026.353839201193, -25480.742809861043, -0.014, 0.908, 0.47600000000000003, 192.0, 0.0, 0.0, 0.0, 0.0, 0.0, 0.0, 0.0, 0.0, 0.0, 1.6541559760589702E9, 0.0, 2022-06-02 09:46:16.058
132.0, 27084.7933989517, -3130.5406249213966, -60173.51122778789, -34491.91564225145, -10785.700176441691, -34268.06292153155, -4046.1798365330505, -25488.968251820595, -0.014, 0.908, 0.47600000000000003, 192.0, 0.0, 0.0, 0.0, 0.0, 0.0, 0.0, 0.0, 0.0, 0.0, 1.6541559760589757E9, 0.0, 2022-06-02 09:46:16.058
