%OpenBCI Raw EEG Data
%Number of channels = 8
%Sample Rate = 250 Hz
%Board = OpenBCI_GUI$BoardCytonSerial
Sample Index, EXG Channel 0, EXG Channel 1, EXG Channel 2, EXG Channel 3, EXG Channel 4, EXG Channel 5, EXG Channel 6, EXG Channel 7, Accel Channel 0, Accel Channel 1, Accel Channel 2, Other, Other, Other, Other, Other, Other, Other, Analog Channel 0, Analog Channel 1, Analog Channel 2, Timestamp, Other, Timestamp (Formatted)
0.0, 0.0, 0.0, 0.0, 0.0, 0.0, 0.0, 0.0, 0.0, -0.012, 1.026, 0.024, 192.0, 255.0, 160.0, 32.0, 16.0, 0.0, 192.0, 0.0, 0.0, 0.0, 1.6527835234178138E9, 0.0, 2022-05-17 12:32:03.417
1.0, 39385.673628529745, 59958.174521705456, -35449.73259565027, 18363.567395635535, 37489.35162894149, 10896.721291151202, 34204.405153322834, 18210.972036239153, -0.012, 1.026, 0.024, 192.0, 0.0, 0.0, 0.0, 0.0, 0.0, 0.0, 0.0, 0.0, 0.0, 1.6527835238967097E9, 0.0, 2022-05-17 12:32:03.896
2.0, 39324.6310144223, 59936.47097783935, -35479.34865705355, 18631.855384332586, 37599.12104596151, 10938.966088171732, 34214.21756913872, 18215.978826997143, -0.012, 1.026, 0.024, 192.0, 0.0, 0.0, 0.0, 0.0, 0.0, 0.0, 0.0, 0.0, 0.0, 1.652783523896822E9, 0.0, 2022-05-17 12:32:03.896
3.0, 39301.92164205571, 59952.094847213615, -35442.088299046554, 18488.491295396245, 37400.61520345393, 10926.337352554483, 34194.59273750696, 18226.439443402225, -0.012, 1.026, 0.024, 192.0, 0.0, 0.0, 0.0, 0.0, 0.0, 0.0, 0.0, 0.0, 0.0, 1.6527835238968287E9, 0.0, 2022-05-17 12:32:03.896
4.0, 39329.950729602664, 59966.8022950652, -35399.77644679266, 18125.722482886613, 37205.99856448157, 10863.305433190517, 34161.24393477964, 18210.234428672127, -0.012, 1.026, 0.024, 192.0, 0.0, 0.0, 0.0, 0.0, 0.0, 0.0, 0.0, 0.0, 0.0, 1.6527835238968349E9, 0.0, 2022-05-17 12:32:03.896
5.0, 39370.67560800024, 59973.37370793506, -35401.51988286017, 18008.956969852086, 37209.0831052164, 10848.665040572292, 34153.42082422028, 18204.75825128058, -0.012, 1.026, 0.024, 192.0, 0.0, 0.0, 0.0, 0.0, 0.0, 0.0, 0.0, 0.0, 0.0, 1.65278352389684E9, 0.0, 2022-05-17 12:32:03.896
6.0, 39362.00313115158, 59955.157036203986, -35449.46437471681, 18347.295325672072, 37492.72674235424, 10897.168326040308, 34189.42948453778, 18208.960379238175, -0.012, 1.026, 0.024, 192.0, 0.0, 0.0, 0.0, 0.0, 0.0, 0.0, 0.0, 0.0, 0.0, 1.6527835238968458E9, 0.0, 2022-05-17 12:32:03.896
7.0, 39311.33172647139, 59944.115274443066, -35469.62564821549, 18631.855384332586, 37591.588508080065, 10934.11575962493, 34203.1758073778, 18216.02353048605, -0.012, 1.026, 0.024, 192.0, 0.0, 0.0, 0.0, 0.0, 0.0, 0.0, 0.0, 0.0, 0.0, 1.652783523896852E9, 0.0, 2022-05-17 12:32:03.896
8.0, 39278.34055165536, 59948.384457634034, -35448.391490982955, 18487.641929106943, 37392.16624404982, 10906.489003478171, 34181.09228385595, 18214.682425818733, -0.034, 1.02, 0.02, 192.0, 254.0, 240.0, 31.0, 224.0, 0.0, 160.0, 0.0, 0.0, 0.0, 1.652783523896858E9, 0.0, 2022-05-17 12:32:03.896
9.0, 39310.21413924863, 59967.62930961005, -35408.538330619136, 18119.64280839477, 37194.17449166471, 10843.702953303213, 34151.11859454138, 18204.042995458007, -0.034, 1.02, 0.02, 192.0, 0.0, 0.0, 0.0, 0.0, 0.0, 0.0, 0.0, 0.0, 0.0, 1.6527835238968632E9, 0.0, 2022-05-17 12:32:03.896
10.0, 39347.87682865582, 59971.87614105656, -35407.9571852633, 17997.691690646614, 37200.54473883447, 10835.544566577026, 34153.62198992038, 18198.432707599724, -0.034, 1.02, 0.02, 192.0, 0.0, 0.0, 0.0, 0.0, 0.0, 0.0, 0.0, 0.0, 0.0, 1.6527835238968687E9, 0.0, 2022-05-17 12:32:03.896
11.0, 39333.12467731532, 59947.06570471117, -35465.803499913636, 18334.845404010466, 37484.344838183504, 10873.877808317877, 34191.75406596113, 18194.968187209153, -0.034, 1.02, 0.02, 192.0, 0.0, 0.0, 0.0, 0.0, 0.0, 0.0, 0.0, 0.0, 0.0, 1.6527835238968737E9, 0.0, 2022-05-17 12:32:03.896
12.0, 39293.98677277408, 59948.85384426759, -35480.823872187604, 18619.96425628236, 37598.6740110724, 10911.473442491704, 34208.62963302489, 18205.674672803245, -0.034, 1.02, 0.02, 192.0, 0.0, 0.0, 0.0, 0.0, 0.0, 0.0, 0.0, 0.0, 0.0, 1.6527835238968787E9, 0.0, 2022-05-17 12:32:03.896
13.0, 39283.14617671325, 59970.758553833795, -35446.80451712663, 18486.56904537309, 37408.95240413576, 10901.683378420279, 34191.59760374994, 18221.723225322155, -0.034, 1.02, 0.02, 192.0, 0.0, 0.0, 0.0, 0.0, 0.0, 0.0, 0.0, 0.0, 0.0, 1.6527835238968852E9, 0.0, 2022-05-17 12:32:03.896
14.0, 39308.76127585903, 59979.431030682455, -35416.920234789875, 18117.742910116067, 37205.43977087019, 10834.538738076537, 34145.061271793995, 18201.114916934363, -0.034, 1.02, 0.02, 192.0, 0.0, 0.0, 0.0, 0.0, 0.0, 0.0, 0.0, 0.0, 0.0, 1.6527835238968914E9, 0.0, 2022-05-17 12:32:03.896
15.0, 39355.69993921518, 59985.13072551855, -35409.097124230524, 18001.46913545956, 37196.92375623271, 10828.57082230697, 34136.813478089985, 18197.60569305488, -0.034, 1.02, 0.02, 192.0, 0.0, 0.0, 0.0, 0.0, 0.0, 0.0, 0.0, 0.0, 0.0, 1.6527835238968973E9, 0.0, 2022-05-17 12:32:03.896
16.0, 39358.65036948328, 59971.27264395627, -35449.710243905814, 18344.277840170605, 37475.78412005712, 10887.8700003469, 34193.81042645102, 18212.22373392865, -0.034, 1.02, 0.02, 192.0, 0.0, 0.0, 0.0, 0.0, 0.0, 0.0, 0.0, 0.0, 0.0, 1.6527835238969033E9, 0.0, 2022-05-17 12:32:03.896
17.0, 39301.69812461115, 59949.569100090164, -35483.66254373342, 18626.893297063507, 37597.891700016466, 10926.605573487946, 34203.89106320037, 18217.230524686638, -0.028, 1.018, 0.016, 192.0, 255.0, 32.0, 31.0, 208.0, 0.0, 128.0, 0.0, 0.0, 0.0, 1.6527835238969092E9, 0.0, 2022-05-17 12:32:03.896
18.0, 39275.34541789835, 59958.241576938824, -35453.15241255193, 18489.117144240994, 37406.98545062369, 10901.973951098198, 34186.90373741433, 18221.075024732952, -0.028, 1.018, 0.016, 192.0, 0.0, 0.0, 0.0, 0.0, 0.0, 0.0, 0.0, 0.0, 0.0, 1.652783523896915E9, 0.0, 2022-05-17 12:32:03.896
19.0, 39310.21413924863, 59976.704117858906, -35410.46058064229, 18125.901296842254, 37204.63510806979, 10852.19661619623, 34159.43344347876, 18212.089623461918, -0.028, 1.018, 0.016, 192.0, 0.0, 0.0, 0.0, 0.0, 0.0, 0.0, 0.0, 0.0, 0.0, 1.6527835238969212E9, 0.0, 2022-05-17 12:32:03.896
20.0, 39342.71357568665, 59971.04912651171, -35418.66367085739, 17992.66254814417, 37204.79157028098, 10832.9070607313, 34150.82802186347, 18200.55612332298, -0.028, 1.018, 0.016, 192.0, 0.0, 0.0, 0.0, 0.0, 0.0, 0.0, 0.0, 0.0, 0.0, 1.6527835238969264E9, 0.0, 2022-05-17 12:32:03.896
21.0, 39338.44439249568, 59958.91212927248, -35461.8695928895, 18325.502374828146, 37487.161157984876, 10875.82241008549, 34189.67535372679, 18203.12657393534, -0.028, 1.018, 0.016, 192.0, 0.0, 0.0, 0.0, 0.0, 0.0, 0.0, 0.0, 0.0, 0.0, 1.6527835238969316E9, 0.0, 2022-05-17 12:32:03.896
22.0, 39284.91196452522, 59941.41071336398, -35493.78788397168, 18610.598875355587, 37606.765342565224, 10907.226611045196, 34198.95132767574, 18199.952626222686, -0.028, 1.018, 0.016, 192.0, 0.0, 0.0, 0.0, 0.0, 0.0, 0.0, 0.0, 0.0, 0.0, 1.6527835238969688E9, 0.0, 2022-05-17 12:32:03.896
23.0, 39267.1199759388, 59957.41456239398, -35460.416729499906, 18471.146341698928, 37408.55007273556, 10889.434622458772, 34180.39937977784, 18204.89236174731, -0.028, 1.018, 0.016, 192.0, 0.0, 0.0, 0.0, 0.0, 0.0, 0.0, 0.0, 0.0, 0.0, 1.6527835238969767E9, 0.0, 2022-05-17 12:32:03.896
24.0, 39296.624278619805, 59968.12104798807, -35423.089316259546, 18103.370738431306, 37212.480570373606, 10835.008124710099, 34154.71722539869, 18191.16839065175, -0.028, 1.018, 0.016, 192.0, 0.0, 0.0, 0.0, 0.0, 0.0, 0.0, 0.0, 0.0, 0.0, 1.6527835238969836E9, 0.0, 2022-05-17 12:32:03.896
25.0, 39341.05954659695, 59972.501989901306, -35415.98146152276, 17972.233053712018, 37204.992735981075, 10817.037322168031, 34151.29740849703, 18184.17229463724, -0.028, 1.018, 0.016, 192.0, 0.0, 0.0, 0.0, 0.0, 0.0, 0.0, 0.0, 0.0, 0.0, 1.6527835238969932E9, 0.0, 2022-05-17 12:32:03.896
26.0, 39346.91570364424, 59965.77411482026, -35449.710243905814, 18318.39452009136, 37490.446864419806, 10870.614453627402, 34198.43723755327, 18202.679539046232, -0.028, 1.018, 0.016, 192.0, 0.0, 0.0, 0.0, 0.0, 0.0, 0.0, 0.0, 0.0, 0.0, 1.6527835238970003E9, 0.0, 2022-05-17 12:32:03.897
27.0, 39291.572784372904, 59951.58075709114, -35479.54982275365, 18620.813622571663, 37605.848921042554, 10909.081805834987, 34204.829836467485, 18203.730071035632, -0.042, 1.022, 0.02, 192.0, 254.0, 176.0, 31.0, 240.0, 0.0, 160.0, 0.0, 0.0, 0.0, 1.6527835238970068E9, 0.0, 2022-05-17 12:32:03.897
28.0, 39268.55048758394, 59967.316385187674, -35447.49742120474, 18494.727432099276, 37410.76289543664, 10901.929247609289, 34187.44017928126, 18209.608579827378, -0.042, 1.022, 0.02, 192.0, 0.0, 0.0, 0.0, 0.0, 0.0, 0.0, 0.0, 0.0, 0.0, 1.6527835238970132E9, 0.0, 2022-05-17 12:32:03.897
29.0, 39296.84779606436, 59981.26387372779, -35406.929005018355, 18127.555325931946, 37215.29689017498, 10836.215118910684, 34162.13800455785, 18199.863219244864, -0.042, 1.022, 0.02, 192.0, 0.0, 0.0, 0.0, 0.0, 0.0, 0.0, 0.0, 0.0, 0.0, 1.6527835238970194E9, 0.0, 2022-05-17 12:32:03.897
30.0, 39349.15087808977, 59994.25023725632, -35387.72885653125, 17998.60811216928, 37206.7808755375, 10829.017857196077, 34164.17201330329, 18202.791297768512, -0.042, 1.022, 0.02, 192.0, 0.0, 0.0, 0.0, 0.0, 0.0, 0.0, 0.0, 0.0, 0.0, 1.6527835238970263E9, 0.0, 2022-05-17 12:32:03.897
31.0, 39340.97013961913, 59971.83143756765, -35438.75788912272, 18334.219555165717, 37490.26805046416, 10879.756317109623, 34210.41777258131, 18207.351053637394, -0.042, 1.022, 0.02, 192.0, 0.0, 0.0, 0.0, 0.0, 0.0, 0.0, 0.0, 0.0, 0.0, 1.652783523897032E9, 0.0, 2022-05-17 12:32:03.897
32.0, 39285.00137150304, 59958.33098391664, -35465.53527898017, 18624.00992202877, 37608.91111003293, 10911.518145980615, 34214.30697611654, 18206.904018748286, -0.042, 1.022, 0.02, 192.0, 0.0, 0.0, 0.0, 0.0, 0.0, 0.0, 0.0, 0.0, 0.0, 1.6527835238970404E9, 0.0, 2022-05-17 12:32:03.897
33.0, 39258.46985083459, 59969.93153928895, -35433.50522917572, 18498.750746101232, 37421.44702928627, 10907.271314534106, 34203.220510866704, 18212.156678695283, -0.042, 1.022, 0.02, 192.0, 0.0, 0.0, 0.0, 0.0, 0.0, 0.0, 0.0, 0.0, 0.0, 1.6527835238970475E9, 0.0, 2022-05-17 12:32:03.897
34.0, 39289.2258512051, 59984.28135922925, -35399.61998458147, 18132.15978528974, 37219.29785243247, 10853.515369119094, 34168.75412091662, 18201.383137867826, -0.042, 1.022, 0.02, 192.0, 0.0, 0.0, 0.0, 0.0, 0.0, 0.0, 0.0, 0.0, 0.0, 1.6527835238970532E9, 0.0, 2022-05-17 12:32:03.897
35.0, 39340.388994263296, 59994.183182022956, -35390.72399028826, 17995.054184800887, 37215.22983494161, 10841.981868980154, 34167.07774008247, 18213.497783362604, -0.042, 1.022, 0.02, 192.0, 0.0, 0.0, 0.0, 0.0, 0.0, 0.0, 0.0, 0.0, 0.0, 1.6527835238970606E9, 0.0, 2022-05-17 12:32:03.897
36.0, 39335.896293627775, 59973.84309456863, -35440.52367693468, 18330.35270337495, 37491.832672576034, 10889.859305603422, 34209.61310978093, 18222.192611955717, -0.042, 1.022, 0.02, 192.0, 0.0, 0.0, 0.0, 0.0, 0.0, 0.0, 0.0, 0.0, 0.0, 1.652783523897066E9, 0.0, 2022-05-17 12:32:03.897
37.0, 39290.321086683405, 59965.28237644224, -35470.78793892717, 18626.960352296872, 37609.24638619976, 10925.532689754093, 34221.99597620916, 18222.70670207819, -0.044, 1.024, 0.02, 192.0, 254.0, 160.0, 32.0, 0.0, 0.0, 160.0, 0.0, 0.0, 0.0, 1.6527835238970733E9, 0.0, 2022-05-17 12:32:03.897
38.0, 39284.39787440275, 59982.78379235075, -35433.68404313136, 18505.03158629317, 37423.324575820516, 10920.458843762737, 34205.83566496798, 18234.17314698376, -0.044, 1.024, 0.02, 192.0, 0.0, 0.0, 0.0, 0.0, 0.0, 0.0, 0.0, 0.0, 0.0, 1.6527835238970835E9, 0.0, 2022-05-17 12:32:03.897
39.0, 39327.46968596813, 59995.79250762374, -35397.96595549178, 18143.715637173133, 37232.21716072764, 10858.298642432528, 34182.56749899, 18223.801937556498, -0.044, 1.024, 0.02, 192.0, 0.0, 0.0, 0.0, 0.0, 0.0, 0.0, 0.0, 0.0, 0.0, 1.6527835238970969E9, 0.0, 2022-05-17 12:32:03.897
40.0, 39374.05072141298, 59998.05003381372, -35396.55779559109, 18002.497315704502, 37224.25993970155, 10842.674773058268, 34173.49269074115, 18215.732957808134, -0.044, 1.024, 0.02, 192.0, 0.0, 0.0, 0.0, 0.0, 0.0, 0.0, 0.0, 0.0, 0.0, 1.6527835238971024E9, 0.0, 2022-05-17 12:32:03.897
41.0, 39381.046817427494, 59983.87902782906, -35440.63543565696, 18324.451842838746, 37505.33312622704, 10897.280084762584, 34213.88229297189, 18224.785414312533, -0.044, 1.024, 0.02, 192.0, 0.0, 0.0, 0.0, 0.0, 0.0, 0.0, 0.0, 0.0, 0.0, 1.6527835238971095E9, 0.0, 2022-05-17 12:32:03.897
42.0, 39332.67764242621, 59969.23863521083, -35471.86082266102, 18625.10515750708, 37630.815819599135, 10930.248907834162, 34231.20489492475, 18230.753330082098, -0.044, 1.024, 0.02, 192.0, 0.0, 0.0, 0.0, 0.0, 0.0, 0.0, 0.0, 0.0, 0.0, 1.6527835238971214E9, 0.0, 2022-05-17 12:32:03.897
43.0, 39311.73405787159, 59986.136554019045, -35440.07664204558, 18508.719624128298, 37430.85711370195, 10925.510338009637, 34208.741391747164, 18239.112882508383, -0.044, 1.024, 0.02, 192.0, 0.0, 0.0, 0.0, 0.0, 0.0, 0.0, 0.0, 0.0, 0.0, 1.6527835238971424E9, 0.0, 2022-05-17 12:32:03.897
44.0, 39352.97302639163, 60007.035435084756, -35398.72591480326, 18146.59901220787, 37231.16662873824, 10875.844761829945, 34182.05340886753, 18232.496766149612, -0.044, 1.024, 0.02, 192.0, 0.0, 0.0, 0.0, 0.0, 0.0, 0.0, 0.0, 0.0, 0.0, 1.652783523897156E9, 0.0, 2022-05-17 12:32:03.897
45.0, 39394.52491933405, 60004.12970830557, -35399.97761249276, 18007.302940762394, 37218.44848614317, 10853.202444696719, 34183.26040306812, 18224.539545123524, -0.044, 1.024, 0.02, 192.0, 0.0, 0.0, 0.0, 0.0, 0.0, 0.0, 0.0, 0.0, 0.0, 1.6527835238971715E9, 0.0, 2022-05-17 12:32:03.897
46.0, 39403.13034094934, 59997.178315779965, -35438.40026121143, 18332.409063864838, 37489.97747778624, 10919.810643173534, 34220.16313316383, 18232.07208300496, -0.044, 1.024, 0.02, 192.0, 0.0, 0.0, 0.0, 0.0, 0.0, 0.0, 0.0, 0.0, 0.0, 1.652783523897192E9, 0.0, 2022-05-17 12:32:03.897
47.0, 39360.77378520653, 59991.858600599604, -35466.67521794739, 18633.464709933367, 37619.10350550455, 10962.413068105348, 34230.847267013465, 18238.151757496806, -0.048, 1.026, 0.022, 192.0, 254.0, 128.0, 32.0, 16.0, 0.0, 176.0, 0.0, 0.0, 0.0, 1.6527835238972096E9, 0.0, 2022-05-17 12:32:03.897
48.0, 39321.79234287648, 59987.07532728617, -35461.91429637841, 18512.787641619165, 37430.79005846859, 10913.976837870698, 34204.002821922644, 18227.042940502517, -0.048, 1.026, 0.022, 192.0, 0.0, 0.0, 0.0, 0.0, 0.0, 0.0, 0.0, 0.0, 0.0, 1.6527835238972168E9, 0.0, 2022-05-17 12:32:03.897
49.0, 39357.2422095826, 60005.33670250615, -35418.93189179085, 18140.02759933801, 37225.44458215768, 10851.727229562668, 34167.56947846049, 18217.56580085347, -0.048, 1.026, 0.022, 192.0, 0.0, 0.0, 0.0, 0.0, 0.0, 0.0, 0.0, 0.0, 0.0, 1.6527835238972232E9, 0.0, 2022-05-17 12:32:03.897
50.0, 39410.46171313068, 60016.73609217836, -35396.13311244644, 17997.065841801865, 37205.059791214444, 10854.655308086314, 34164.931972614766, 18221.946742766708, -0.048, 1.026, 0.022, 192.0, 0.0, 0.0, 0.0, 0.0, 0.0, 0.0, 0.0, 0.0, 0.0, 1.6527835238972292E9, 0.0, 2022-05-17 12:32:03.897
51.0, 39408.56181485198, 59999.413490225495, -35444.39052872545, 18326.463499839723, 37489.597498130504, 10901.996302842654, 34207.31088010203, 18226.640609102324, -0.048, 1.026, 0.022, 192.0, 0.0, 0.0, 0.0, 0.0, 0.0, 0.0, 0.0, 0.0, 0.0, 1.652783523897234E9, 0.0, 2022-05-17 12:32:03.897
52.0, 39359.1421078613, 59986.695347630426, -35477.76168319723, 18620.746567338298, 37626.39017419698, 10939.63664050539, 34213.05527842704, 18231.334475437936, -0.048, 1.026, 0.022, 192.0, 0.0, 0.0, 0.0, 0.0, 0.0, 0.0, 0.0, 0.0, 0.0, 1.6527835238972404E9, 0.0, 2022-05-17 12:32:03.897
53.0, 39334.24226453809, 59992.66326339999, -35452.34774975154, 18506.99853980524, 37436.15447713786, 10929.69011422278, 34187.820158937, 18240.453987175704, -0.048, 1.026, 0.022, 192.0, 0.0, 0.0, 0.0, 0.0, 0.0, 0.0, 0.0, 0.0, 0.0, 1.652783523897245E9, 0.0, 2022-05-17 12:32:03.897
54.0, 39364.08184338592, 60005.001426339324, -35417.16610397889, 18146.666067441234, 37235.681681118214, 10869.161590237807, 34159.32168475648, 18224.22662070115, -0.048, 1.026, 0.022, 192.0, 0.0, 0.0, 0.0, 0.0, 0.0, 0.0, 0.0, 0.0, 0.0, 1.652783523897251E9, 0.0, 2022-05-17 12:32:03.897
55.0, 39412.316907920474, 60014.07623458818, -35410.23706319774, 17991.120277776754, 37211.31827966193, 10840.707819546202, 34154.1137282984, 18210.435594372226, -0.048, 1.026, 0.022, 192.0, 0.0, 0.0, 0.0, 0.0, 0.0, 0.0, 0.0, 0.0, 0.0, 1.6527835238972583E9, 0.0, 2022-05-17 12:32:03.897
56.0, 39410.931099764246, 59996.619522168585, -35460.5731917111, 18306.43633680777, 37487.58584112953, 10879.599854898437, 34190.54707176055, 18209.51917284956, -0.048, 1.026, 0.022, 192.0, 0.0, 0.0, 0.0, 0.0, 0.0, 0.0, 0.0, 0.0, 0.0, 1.6527835238972645E9, 0.0, 2022-05-17 12:32:03.897
57.0, 39366.02644515353, 59985.46600168539, -35487.194119357366, 18612.655235845476, 37616.376592681, 10934.428684047305, 34206.90854870183, 18222.572591611457, -0.056, 1.024, 0.03, 192.0, 254.0, 64.0, 32.0, 0.0, 0.0, 240.0, 0.0, 0.0, 0.0, 1.6527835238972697E9, 0.0, 2022-05-17 12:32:03.897
58.0, 39335.73983141659, 59985.48835342984, -35470.67618020489, 18513.368786975003, 37430.14185787939, 10928.617230488924, 34196.62674625239, 18232.005027771596, -0.056, 1.024, 0.03, 192.0, 0.0, 0.0, 0.0, 0.0, 0.0, 0.0, 0.0, 0.0, 0.0, 1.652783523897275E9, 0.0, 2022-05-17 12:32:03.897
59.0, 39369.20039286619, 60002.140403049045, -35431.471220430285, 18151.382285521304, 37224.036422257, 10863.439543657249, 34165.49076622615, 18221.007969499584, -0.056, 1.024, 0.03, 192.0, 0.0, 0.0, 0.0, 0.0, 0.0, 0.0, 0.0, 0.0, 0.0, 1.6527835238972797E9, 0.0, 2022-05-17 12:32:03.897
60.0, 39428.387812183835, 60018.97126662389, -35410.147656219924, 18003.681958160636, 37207.69729706017, 10864.95946228021, 34160.729844657166, 18225.07598699045, -0.056, 1.024, 0.03, 192.0, 0.0, 0.0, 0.0, 0.0, 0.0, 0.0, 0.0, 0.0, 0.0, 1.6527835238972857E9, 0.0, 2022-05-17 12:32:03.897
61.0, 39432.858161074895, 60006.87897287357, -35449.30791250562, 18318.886258469374, 37481.28264919313, 10911.808718658534, 34199.465417798216, 18229.479280648146, -0.056, 1.024, 0.03, 192.0, 0.0, 0.0, 0.0, 0.0, 0.0, 0.0, 0.0, 0.0, 0.0, 1.6527835238972924E9, 0.0, 2022-05-17 12:32:03.897
62.0, 39378.543422048504, 59990.09281278763, -35481.13679660998, 18624.747529595796, 37621.71865960582, 10954.902881968366, 34216.519798817615, 18231.22271671566, -0.056, 1.024, 0.03, 192.0, 0.0, 0.0, 0.0, 0.0, 0.0, 0.0, 0.0, 0.0, 0.0, 1.6527835238972974E9, 0.0, 2022-05-17 12:32:03.897
63.0, 39354.40353803677, 60000.329911748166, -35450.02316832819, 18521.348359745545, 37434.992186426185, 10947.280937109106, 34196.179711363286, 18234.463719661682, -0.056, 1.024, 0.03, 192.0, 0.0, 0.0, 0.0, 0.0, 0.0, 0.0, 0.0, 0.0, 0.0, 1.6527835238973029E9, 0.0, 2022-05-17 12:32:03.897
64.0, 39387.5958785529, 60018.25601080132, -35407.82307479657, 18157.64077396879, 37230.585483382405, 10873.140200750853, 34163.70262666972, 18220.8515072884, -0.056, 1.024, 0.03, 192.0, 0.0, 0.0, 0.0, 0.0, 0.0, 0.0, 0.0, 0.0, 0.0, 1.6527835238973155E9, 0.0, 2022-05-17 12:32:03.897
65.0, 39438.49080067764, 60027.19670858344, -35394.74730429021, 17998.85398135829, 37206.91498600423, 10859.662098844303, 34159.23227777866, 18222.08085323344, -0.056, 1.024, 0.03, 192.0, 0.0, 0.0, 0.0, 0.0, 0.0, 0.0, 0.0, 0.0, 0.0, 1.652783523897321E9, 0.0, 2022-05-17 12:32:03.897
66.0, 39432.18760874124, 60002.766251893794, -35447.09508980454, 18316.606380534933, 37478.15340496939, 10903.91855286581, 34196.15735961883, 18219.868030532365, -0.056, 1.024, 0.03, 192.0, 0.0, 0.0, 0.0, 0.0, 0.0, 0.0, 0.0, 0.0, 0.0, 1.652783523897326E9, 0.0, 2022-05-17 12:32:03.897
67.0, 39379.14691914879, 59981.91207431699, -35482.81317744412, 18620.12071849355, 37625.294938718675, 10946.409219075349, 34209.88133071439, 18223.42195790076, -0.054, 1.016, 0.03, 192.0, 254.0, 80.0, 31.0, 192.0, 0.0, 240.0, 0.0, 0.0, 0.0, 1.6527835238973317E9, 0.0, 2022-05-17 12:32:03.897
68.0, 39347.787421678, 59984.97426330737, -35456.95220910933, 18513.078214297082, 37445.07282317553, 10934.898070680865, 34190.859996182924, 18223.556068367492, -0.054, 1.016, 0.03, 192.0, 0.0, 0.0, 0.0, 0.0, 0.0, 0.0, 0.0, 0.0, 0.0, 1.6527835238973403E9, 0.0, 2022-05-17 12:32:03.897
69.0, 39388.78052100903, 60011.19285955344, -35402.5033596162, 18158.199567580174, 37232.30656770546, 10881.05271828803, 34173.447987252235, 18220.42682414375, -0.054, 1.016, 0.03, 192.0, 0.0, 0.0, 0.0, 0.0, 0.0, 0.0, 0.0, 0.0, 0.0, 1.6527835238973463E9, 0.0, 2022-05-17 12:32:03.897
70.0, 39431.91938780778, 60014.94795262194, -35393.96499323428, 17998.518705191458, 37205.99856448157, 10857.091648231943, 34170.095225583944, 18218.661036331778, -0.054, 1.016, 0.03, 192.0, 0.0, 0.0, 0.0, 0.0, 0.0, 0.0, 0.0, 0.0, 0.0, 1.652783523897352E9, 0.0, 2022-05-17 12:32:03.897
71.0, 39427.18081798325, 59991.70213838841, -35446.692758404344, 18307.799793219543, 37473.05720723358, 10905.326712766495, 34205.90272020134, 18222.59494335591, -0.054, 1.016, 0.03, 192.0, 0.0, 0.0, 0.0, 0.0, 0.0, 0.0, 0.0, 0.0, 0.0, 1.6527835238973577E9, 0.0, 2022-05-17 12:32:03.897
72.0, 39375.01184642456, 59975.228902724855, -35481.650886732445, 18617.036177758717, 37608.374668166005, 10948.085599909497, 34220.20783665274, 18229.27811494805, -0.054, 1.016, 0.03, 192.0, 0.0, 0.0, 0.0, 0.0, 0.0, 0.0, 0.0, 0.0, 0.0, 1.652783523897363E9, 0.0, 2022-05-17 12:32:03.897
73.0, 39354.82822118142, 59996.485411701855, -35447.45271771583, 18523.628237679986, 37426.16324736634, 10942.184739373295, 34206.662679512825, 18240.543394153523, -0.054, 1.016, 0.03, 192.0, 0.0, 0.0, 0.0, 0.0, 0.0, 0.0, 0.0, 0.0, 0.0, 1.6527835238973684E9, 0.0, 2022-05-17 12:32:03.897
74.0, 39376.531765047526, 60005.22494378388, -35410.997022509226, 18168.861349685354, 37231.03251827151, 10886.43948870176, 34174.47616749718, 18225.9030015353, -0.054, 1.016, 0.03, 192.0, 0.0, 0.0, 0.0, 0.0, 0.0, 0.0, 0.0, 0.0, 0.0, 1.652783523897374E9, 0.0, 2022-05-17 12:32:03.897
75.0, 39418.70950683469, 60006.02960658427, -35407.93483351885, 17994.785963867424, 37196.90140448826, 10862.38901166785, 34162.02624583557, 18214.23539092963, -0.054, 1.016, 0.03, 192.0, 0.0, 0.0, 0.0, 0.0, 0.0, 0.0, 0.0, 0.0, 0.0, 1.6527835238973787E9, 0.0, 2022-05-17 12:32:03.897
76.0, 39430.913559307286, 59997.58064718016, -35448.816174127605, 18299.440240793258, 37459.62380881594, 10910.624076202403, 34205.05335391204, 18218.392815398314, -0.054, 1.016, 0.03, 192.0, 0.0, 0.0, 0.0, 0.0, 0.0, 0.0, 0.0, 0.0, 0.0, 1.6527835238973906E9, 0.0, 2022-05-17 12:32:03.897
77.0, 39380.46567207166, 59982.20264699491, -35481.62853498799, 18616.29857019169, 37611.794485067665, 10956.869835480433, 34223.56059832103, 18224.248972445606, -0.05, 1.016, 0.026000000000000002, 192.0, 254.0, 112.0, 31.0, 192.0, 0.0, 208.0, 0.0, 0.0, 0.0, 1.6527835238973956E9, 0.0, 2022-05-17 12:32:03.897
78.0, 39350.17905833472, 59990.472792443376, -35457.265133531706, 18529.19382204936, 37438.47905856121, 10940.106027138952, 34210.82010398151, 18229.948667281707, -0.05, 1.016, 0.026000000000000002, 192.0, 0.0, 0.0, 0.0, 0.0, 0.0, 0.0, 0.0, 0.0, 0.0, 1.652783523897401E9, 0.0, 2022-05-17 12:32:03.897
79.0, 39371.480270800625, 59993.91496108949, -35426.28561571665, 18164.07807637192, 37237.358061952364, 10877.208218241718, 34170.87753663988, 18206.59109432591, -0.05, 1.016, 0.026000000000000002, 192.0, 0.0, 0.0, 0.0, 0.0, 0.0, 0.0, 0.0, 0.0, 0.0, 1.6527835238974085E9, 0.0, 2022-05-17 12:32:03.897
80.0, 39427.18081798325, 60007.70598741841, -35406.77254280717, 17987.141667263706, 37199.09187544488, 10865.00416576912, 34157.46648996669, 18199.03620470002, -0.05, 1.016, 0.026000000000000002, 192.0, 0.0, 0.0, 0.0, 0.0, 0.0, 0.0, 0.0, 0.0, 0.0, 1.6527835238974235E9, 0.0, 2022-05-17 12:32:03.897
81.0, 39434.35572795341, 59993.043243055734, -35449.0173398277, 18288.264368565604, 37467.2457536752, 10908.500660479149, 34195.01742065161, 18209.608579827378, -0.05, 1.016, 0.026000000000000002, 192.0, 0.0, 0.0, 0.0, 0.0, 0.0, 0.0, 0.0, 0.0, 0.0, 1.6527835238974311E9, 0.0, 2022-05-17 12:32:03.897
82.0, 39393.87671874485, 59983.56610340669, -35476.1747093409, 18613.437546901412, 37616.04131651417, 10959.306175626061, 34209.21077838073, 18217.56580085347, -0.05, 1.016, 0.026000000000000002, 192.0, 0.0, 0.0, 0.0, 0.0, 0.0, 0.0, 0.0, 0.0, 0.0, 1.6527835238974376E9, 0.0, 2022-05-17 12:32:03.897
83.0, 39377.06820691445, 59997.42418496897, -35441.0154153127, 18530.75844416123, 37433.76284048115, 10940.68717249479, 34200.717115487714, 18225.545373624012, -0.05, 1.016, 0.026000000000000002, 192.0, 0.0, 0.0, 0.0, 0.0, 0.0, 0.0, 0.0, 0.0, 0.0, 1.6527835238974457E9, 0.0, 2022-05-17 12:32:03.897
84.0, 39408.29359391852, 60009.29296127474, -35404.760885806194, 18173.59991950988, 37233.379451439316, 10872.357889694917, 34169.737597672654, 18208.625103071347, -0.05, 1.016, 0.026000000000000002, 192.0, 0.0, 0.0, 0.0, 0.0, 0.0, 0.0, 0.0, 0.0, 0.0, 1.6527835238974519E9, 0.0, 2022-05-17 12:32:03.897
85.0, 39451.79008862854, 60008.2647810298, -35400.916385759876, 17990.896760332198, 37207.54083484898, 10846.027534726565, 34159.32168475648, 18198.097431432896, -0.05, 1.016, 0.026000000000000002, 192.0, 0.0, 0.0, 0.0, 0.0, 0.0, 0.0, 0.0, 0.0, 0.0, 1.6527835238974626E9, 0.0, 2022-05-17 12:32:03.897
86.0, 39455.18755378575, 59989.93635057645, -35445.77633688168, 18287.95144414323, 37472.185489199815, 10906.421948244804, 34204.33809808947, 18206.546390837, -0.05, 1.016, 0.026000000000000002, 192.0, 0.0, 0.0, 0.0, 0.0, 0.0, 0.0, 0.0, 0.0, 0.0, 1.652783523897477E9, 0.0, 2022-05-17 12:32:03.897
87.0, 39397.47534960215, 59967.69636484342, -35490.23395660328, 18602.2393229293, 37617.15890373694, 10941.894166695378, 34211.02126968161, 18204.065347202464, -0.046, 1.02, 0.024, 192.0, 254.0, 144.0, 31.0, 224.0, 0.0, 192.0, 0.0, 0.0, 0.0, 1.6527835238974862E9, 0.0, 2022-05-17 12:32:03.897
88.0, 39378.7445877486, 59985.980091807854, -35459.41090099942, 18526.131633058983, 37433.27110210313, 10950.477236566216, 34197.11848463041, 18218.7504433096, -0.046, 1.02, 0.024, 192.0, 0.0, 0.0, 0.0, 0.0, 0.0, 0.0, 0.0, 0.0, 0.0, 1.6527835238974936E9, 0.0, 2022-05-17 12:32:03.897
89.0, 39421.257605702594, 60014.232696799365, -35409.54415911963, 18173.10818113186, 37233.13358225031, 10893.614398671914, 34176.800748920534, 18217.811670042476, -0.046, 1.02, 0.024, 192.0, 0.0, 0.0, 0.0, 0.0, 0.0, 0.0, 0.0, 0.0, 0.0, 1.6527835238975008E9, 0.0, 2022-05-17 12:32:03.897
90.0, 39483.127234354884, 60032.762292952815, -35389.56169957658, 17988.147495764195, 37199.673020800714, 10882.349119466438, 34178.49948149914, 18229.166356225775, -0.046, 1.02, 0.024, 192.0, 0.0, 0.0, 0.0, 0.0, 0.0, 0.0, 0.0, 0.0, 0.0, 1.65278352389751E9, 0.0, 2022-05-17 12:32:03.897
91.0, 39478.85805116392, 60008.24242928535, -35446.26807525969, 18295.081650624474, 37474.04068398961, 10917.642523961369, 34222.15243842035, 18224.27132419006, -0.046, 1.02, 0.024, 192.0, 0.0, 0.0, 0.0, 0.0, 0.0, 0.0, 0.0, 0.0, 0.0, 1.6527835238975196E9, 0.0, 2022-05-17 12:32:03.897
92.0, 39431.271187218576, 59992.32798723316, -35481.874404177004, 18616.700901591885, 37625.1831799964, 10961.250777393672, 34228.85796175694, 18222.192611955717, -0.046, 1.02, 0.024, 192.0, 0.0, 0.0, 0.0, 0.0, 0.0, 0.0, 0.0, 0.0, 0.0, 1.6527835238975322E9, 0.0, 2022-05-17 12:32:03.897
93.0, 39405.96901249517, 59998.11708904709, -35454.87349687499, 18538.13451983148, 37454.438204102305, 10954.88053022391, 34210.775400492596, 18232.183841727237, -0.046, 1.02, 0.024, 192.0, 0.0, 0.0, 0.0, 0.0, 0.0, 0.0, 0.0, 0.0, 0.0, 1.6527835238975413E9, 0.0, 2022-05-17 12:32:03.897
94.0, 39435.18274249825, 60010.522307219784, -35420.45181041382, 18169.30838457446, 37247.32693997943, 10881.633863643869, 34173.09035934095, 18209.87680076084, -0.046, 1.02, 0.024, 192.0, 0.0, 0.0, 0.0, 0.0, 0.0, 0.0, 0.0, 0.0, 0.0, 1.6527835238975494E9, 0.0, 2022-05-17 12:32:03.897
95.0, 39483.261344821614, 60016.959609622914, -35411.77933356516, 17980.212626482564, 37207.89846276027, 10862.657232601314, 34166.80951914901, 18206.300521647994, -0.046, 1.02, 0.024, 192.0, 0.0, 0.0, 0.0, 0.0, 0.0, 0.0, 0.0, 0.0, 0.0, 1.6527835238975573E9, 0.0, 2022-05-17 12:32:03.897
96.0, 39488.84928093544, 59999.05586231421, -35459.075624832585, 18284.263406308106, 37462.23896291721, 10914.759148926634, 34204.6733742563, 18210.659111816778, -0.046, 1.02, 0.024, 192.0, 0.0, 0.0, 0.0, 0.0, 0.0, 0.0, 0.0, 0.0, 0.0, 1.6527835238975675E9, 0.0, 2022-05-17 12:32:03.897
97.0, 39452.170068284286, 59993.177353522464, -35482.65671523294, 18613.54930562369, 37609.04522049966, 10967.97865247472, 34230.355528635446, 18225.634780601835, -0.04, 1.022, 0.024, 192.0, 254.0, 192.0, 31.0, 240.0, 0.0, 192.0, 0.0, 0.0, 0.0, 1.6527835238975742E9, 0.0, 2022-05-17 12:32:03.897
98.0, 39434.132210508855, 60009.09179557465, -35449.68789216136, 18547.61165948053, 37435.32746259302, 10959.775562259623, 34220.38665060838, 18240.453987175704, -0.04, 1.022, 0.024, 192.0, 0.0, 0.0, 0.0, 0.0, 0.0, 0.0, 0.0, 0.0, 0.0, 1.6527835238975816E9, 0.0, 2022-05-17 12:32:03.897
99.0, 39461.15546955532, 60023.329856792676, -35411.62287135397, 18195.83990524291, 37235.32405320693, 10895.268427761606, 34185.964964147206, 18223.377254411847, -0.04, 1.022, 0.024, 192.0, 0.0, 0.0, 0.0, 0.0, 0.0, 0.0, 0.0, 0.0, 0.0, 1.6527835238975868E9, 0.0, 2022-05-17 12:32:03.897
100.0, 39512.76564750262, 60036.31622032121, -35396.088408957534, 18008.621693685258, 37196.543776576975, 10870.837971071956, 34178.36537103241, 18216.671731075257, -0.04, 1.022, 0.024, 192.0, 0.0, 0.0, 0.0, 0.0, 0.0, 0.0, 0.0, 0.0, 0.0, 1.6527835238975945E9, 0.0, 2022-05-17 12:32:03.897
101.0, 39518.19712140526, 60018.41247301251, -35443.38470022496, 18297.339176814457, 37456.78513727011, 10914.647390204358, 34217.413868595824, 18219.08571947643, -0.04, 1.022, 0.024, 192.0, 0.0, 0.0, 0.0, 0.0, 0.0, 0.0, 0.0, 0.0, 0.0, 1.6527835238976018E9, 0.0, 2022-05-17 12:32:03.897
102.0, 39462.98831260065, 59996.485411701855, -35482.88023267749, 18625.999227285294, 37615.54957813616, 10959.529693070614, 34238.044528728075, 18220.672693332755, -0.04, 1.022, 0.024, 192.0, 0.0, 0.0, 0.0, 0.0, 0.0, 0.0, 0.0, 0.0, 0.0, 1.6527835238976092E9, 0.0, 2022-05-17 12:32:03.897
103.0, 39422.01756501407, 59992.551504677715, -35468.999799370744, 18539.00623786524, 37443.77642199712, 10942.698829495768, 34214.82106623901, 18216.358806652883, -0.04, 1.022, 0.024, 192.0, 0.0, 0.0, 0.0, 0.0, 0.0, 0.0, 0.0, 0.0, 0.0, 1.652783523897615E9, 0.0, 2022-05-17 12:32:03.897
104.0, 39458.54031545405, 60014.523269477286, -35424.25160697122, 18180.193684124195, 37239.950864309176, 10894.799041128044, 34178.03009486557, 18212.827231028943, -0.04, 1.022, 0.024, 192.0, 0.0, 0.0, 0.0, 0.0, 0.0, 0.0, 0.0, 0.0, 0.0, 1.6527835238976254E9, 0.0, 2022-05-17 12:32:03.897
105.0, 39516.63249929339, 60028.426054528485, -35407.19722595182, 17989.533303920427, 37199.38244812279, 10863.260729701607, 34162.16035630231, 18208.02160597105, -0.04, 1.022, 0.024, 192.0, 0.0, 0.0, 0.0, 0.0, 0.0, 0.0, 0.0, 0.0, 0.0, 1.6527835238976314E9, 0.0, 2022-05-17 12:32:03.897
106.0, 39533.7315838017, 60020.42413001349, -35441.618912412996, 18282.162342329306, 37464.45178561828, 10909.506488979638, 34209.21077838073, 18219.264533432073, -0.036000000000000004, 1.022, 0.02, 192.0, 254.0, 224.0, 31.0, 240.0, 0.0, 160.0, 0.0, 0.0, 0.0, 1.652783523897644E9, 0.0, 2022-05-17 12:32:03.897
107.0, 39469.13504232586, 59986.38242320805, -35490.7256949813, 18615.717424835853, 37643.13163079401, 10947.750323742668, 34225.86282799993, 18217.09641421991, -0.036000000000000004, 1.022, 0.02, 192.0, 0.0, 0.0, 0.0, 0.0, 0.0, 0.0, 0.0, 0.0, 0.0, 1.652783523897667E9, 0.0, 2022-05-17 12:32:03.897
108.0, 39445.62100715888, 60002.6097896826, -35455.365235253004, 18546.00233387975, 37459.64616056039, 10943.145864384875, 34205.0757056565, 18229.099300992406, -0.036000000000000004, 1.022, 0.02, 192.0, 0.0, 0.0, 0.0, 0.0, 0.0, 0.0, 0.0, 0.0, 0.0, 1.6527835238976808E9, 0.0, 2022-05-17 12:32:03.897
109.0, 39477.98633313016, 60021.720531191895, -35411.131132975956, 18193.738841264112, 37247.1928295127, 10888.920532336298, 34176.443121009244, 18221.566763110968, -0.036000000000000004, 1.022, 0.02, 192.0, 0.0, 0.0, 0.0, 0.0, 0.0, 0.0, 0.0, 0.0, 0.0, 1.6527835238976903E9, 0.0, 2022-05-17 12:32:03.897
110.0, 39520.99108946217, 60026.190880082955, -35402.525711360664, 17988.616882397757, 37203.60692782485, 10865.853532058421, 34160.863955123896, 18211.597885083902, -0.036000000000000004, 1.022, 0.02, 192.0, 0.0, 0.0, 0.0, 0.0, 0.0, 0.0, 0.0, 0.0, 0.0, 1.6527835238976982E9, 0.0, 2022-05-17 12:32:03.897
111.0, 39530.02119422212, 60017.00431311182, -35440.8142496126, 18272.394630002338, 37457.50039309268, 10921.934058896788, 34204.15928413383, 18220.8515072884, -0.036000000000000004, 1.022, 0.02, 192.0, 0.0, 0.0, 0.0, 0.0, 0.0, 0.0, 0.0, 0.0, 0.0, 1.6527835238977065E9, 0.0, 2022-05-17 12:32:03.897
112.0, 39482.94842039924, 60001.06751931519, -35477.15818609693, 18619.98660802682, 37622.05393577265, 10968.604501319469, 34225.23697915518, 18228.875783547854, -0.036000000000000004, 1.022, 0.02, 192.0, 0.0, 0.0, 0.0, 0.0, 0.0, 0.0, 0.0, 0.0, 0.0, 1.6527835238977187E9, 0.0, 2022-05-17 12:32:03.897
113.0, 39457.5121352091, 60017.808975912216, -35447.765642138205, 18557.602889252055, 37456.78513727011, 10963.575358817025, 34215.37985985039, 18240.833966831444, -0.036000000000000004, 1.022, 0.02, 192.0, 0.0, 0.0, 0.0, 0.0, 0.0, 0.0, 0.0, 0.0, 0.0, 1.6527835238977246E9, 0.0, 2022-05-17 12:32:03.897
114.0, 39473.65009470584, 60018.54658347924, -35424.65393837141, 18203.148925679794, 37262.28025702003, 10888.115869535908, 34186.14377810285, 18221.27619043305, -0.036000000000000004, 1.022, 0.02, 192.0, 0.0, 0.0, 0.0, 0.0, 0.0, 0.0, 0.0, 0.0, 0.0, 1.6527835238977323E9, 0.0, 2022-05-17 12:32:03.897
115.0, 39513.905586469846, 60017.026664856276, -35418.97659527977, 17996.350585979293, 37213.12877096281, 10857.203406954219, 34165.691931926245, 18209.429765871737, -0.036000000000000004, 1.022, 0.02, 192.0, 0.0, 0.0, 0.0, 0.0, 0.0, 0.0, 0.0, 0.0, 0.0, 1.6527835238977394E9, 0.0, 2022-05-17 12:32:03.897
116.0, 39530.28941515558, 60011.14815606453, -35450.15727879492, 18282.922301640785, 37475.046512490095, 10910.199393057752, 34212.16120864883, 18223.89134453432, -0.032, 1.026, 0.022, 192.0, 255.0, 0.0, 32.0, 16.0, 0.0, 176.0, 0.0, 0.0, 0.0, 1.6527835238977494E9, 0.0, 2022-05-17 12:32:03.897
117.0, 39486.36823730091, 59999.18997278094, -35480.73446520978, 18611.805869556174, 37635.06265104564, 10962.278957638617, 34232.05426121405, 18230.105129492895, -0.032, 1.026, 0.022, 192.0, 0.0, 0.0, 0.0, 0.0, 0.0, 0.0, 0.0, 0.0, 0.0, 1.6527835238977568E9, 0.0, 2022-05-17 12:32:03.897
118.0, 39449.778431627565, 60006.186068795454, -35460.126156821985, 18549.556261248144, 37462.73070129522, 10956.132227913407, 34219.13495291888, 18235.35778943989, -0.032, 1.026, 0.022, 192.0, 0.0, 0.0, 0.0, 0.0, 0.0, 0.0, 0.0, 0.0, 0.0, 1.6527835238977644E9, 0.0, 2022-05-17 12:32:03.897
119.0, 39460.19434454374, 60009.15885080801, -35431.58297915256, 18197.382175610324, 37262.48142272013, 10887.62413115789, 34181.42756002278, 18217.141117708816, -0.032, 1.026, 0.022, 192.0, 0.0, 0.0, 0.0, 0.0, 0.0, 0.0, 0.0, 0.0, 0.0, 1.6527835238977702E9, 0.0, 2022-05-17 12:32:03.897
120.0, 39504.316688098515, 60017.63016195657, -35415.57913012256, 17986.538170163414, 37206.73617204859, 10858.43275289926, 34162.92031561379, 18208.04395771551, -0.032, 1.026, 0.022, 192.0, 0.0, 0.0, 0.0, 0.0, 0.0, 0.0, 0.0, 0.0, 0.0, 1.6527835238977814E9, 0.0, 2022-05-17 12:32:03.897
121.0, 39515.783133004086, 60005.67197867298, -35453.6665026744, 18264.258595020605, 37462.37307338394, 10902.979779598687, 34203.53343528908, 18217.811670042476, -0.032, 1.026, 0.022, 192.0, 0.0, 0.0, 0.0, 0.0, 0.0, 0.0, 0.0, 0.0, 0.0, 1.6527835243775132E9, 0.0, 2022-05-17 12:32:04.377
122.0, 39475.013551117605, 59994.54080993424, -35483.86370943352, 18603.53572410771, 37635.219113256826, 10943.145864384875, 34221.19131340877, 18225.008931757086, -0.032, 1.026, 0.022, 192.0, 0.0, 0.0, 0.0, 0.0, 0.0, 0.0, 0.0, 0.0, 0.0, 1.652783524377659E9, 0.0, 2022-05-17 12:32:04.377
123.0, 39449.95724558321, 60012.10928107611, -35454.806441641624, 18547.00816238024, 37452.98534071271, 10942.475312051214, 34202.70642074423, 18240.31987670897, -0.032, 1.026, 0.022, 192.0, 0.0, 0.0, 0.0, 0.0, 0.0, 0.0, 0.0, 0.0, 0.0, 1.6527835243776648E9, 0.0, 2022-05-17 12:32:04.377
124.0, 39476.62287671839, 60031.64470573005, -35408.42657189686, 18210.50264960559, 37243.01305329955, 10895.268427761606, 34183.26040306812, 18238.66584761928, -0.032, 1.026, 0.022, 192.0, 0.0, 0.0, 0.0, 0.0, 0.0, 0.0, 0.0, 0.0, 0.0, 1.6527835243776696E9, 0.0, 2022-05-17 12:32:04.377
125.0, 39517.526569071604, 60034.79630169825, -35397.697734558315, 18011.728586164547, 37200.857663256844, 10865.607662869414, 34168.15062381633, 18227.31116143598, -0.032, 1.026, 0.022, 192.0, 0.0, 0.0, 0.0, 0.0, 0.0, 0.0, 0.0, 0.0, 0.0, 1.6527835243776746E9, 0.0, 2022-05-17 12:32:04.377
126.0, 39514.598490547956, 60010.946990364435, -35449.55378169462, 18277.13319982686, 37446.682148776315, 10905.483174977682, 34192.71519097271, 18218.817498542965, -0.038, 1.024, 0.024, 192.0, 254.0, 208.0, 32.0, 0.0, 0.0, 192.0, 0.0, 0.0, 0.0, 1.6527835243776796E9, 0.0, 2022-05-17 12:32:04.377
127.0, 39471.34786502694, 59999.8605251146, -35481.650886732445, 18616.186811469415, 37616.622461870014, 10957.920367469833, 34214.262272627624, 18227.042940502517, -0.038, 1.024, 0.024, 192.0, 0.0, 0.0, 0.0, 0.0, 0.0, 0.0, 0.0, 0.0, 0.0, 1.6527835243776844E9, 0.0, 2022-05-17 12:32:04.377
128.0, 39440.0107193006, 60008.53300196326, -35460.5731917111, 18566.29771784517, 37464.295323407096, 10951.63952727789, 34208.04848766905, 18238.442330174727, -0.038, 1.024, 0.024, 192.0, 0.0, 0.0, 0.0, 0.0, 0.0, 0.0, 0.0, 0.0, 0.0, 1.6527835243776984E9, 0.0, 2022-05-17 12:32:04.377
129.0, 39460.28375152156, 60020.379426524574, -35423.53635114865, 18212.894286262308, 37255.50767845007, 10886.171267768297, 34175.839623908956, 18223.779585812044, -0.038, 1.024, 0.024, 192.0, 0.0, 0.0, 0.0, 0.0, 0.0, 0.0, 0.0, 0.0, 0.0, 1.6527835243777032E9, 0.0, 2022-05-17 12:32:04.377
130.0, 39512.6762405248, 60034.729246464885, -35407.66661258538, 17997.669338902157, 37197.437846355184, 10860.980851767166, 34159.70166441222, 18216.51526886407, -0.038, 1.024, 0.024, 192.0, 0.0, 0.0, 0.0, 0.0, 0.0, 0.0, 0.0, 0.0, 0.0, 1.6527835243777077E9, 0.0, 2022-05-17 12:32:04.377
131.0, 39520.76757201762, 60018.010141612314, -35451.744252651246, 18261.062295563497, 37445.72102376474, 10902.465689476216, 34193.54220551756, 18216.872896775352, -0.038, 1.024, 0.024, 192.0, 0.0, 0.0, 0.0, 0.0, 0.0, 0.0, 0.0, 0.0, 0.0, 1.6527835243777125E9, 0.0, 2022-05-17 12:32:04.377
132.0, 39467.883344636364, 59999.145269292036, -35492.8267589601, 18605.7932502977, 37622.0315840282, 10941.469483550725, 34209.00961268063, 18219.823327043454, -0.038, 1.024, 0.024, 192.0, 0.0, 0.0, 0.0, 0.0, 0.0, 0.0, 0.0, 0.0, 0.0, 1.6527835243777168E9, 0.0, 2022-05-17 12:32:04.377
133.0, 39436.05446053201, 60010.1646793085, -35470.85499416054, 18552.685505471887, 37454.10292793548, 10948.30911735405, 34190.994106649654, 18231.13330973784, -0.038, 1.024, 0.024, 192.0, 0.0, 0.0, 0.0, 0.0, 0.0, 0.0, 0.0, 0.0, 0.0, 1.6527835243777213E9, 0.0, 2022-05-17 12:32:04.377
134.0, 39461.870725377885, 60020.2676678023, -35431.91825531939, 18206.59109432591, 37241.67194863224, 10890.619264914903, 34167.27890578257, 18220.046844488006, -0.038, 1.024, 0.024, 192.0, 0.0, 0.0, 0.0, 0.0, 0.0, 0.0, 0.0, 0.0, 0.0, 1.6527835243777256E9, 0.0, 2022-05-17 12:32:04.377
135.0, 39503.556728787036, 60023.64278121505, -35422.88815055945, 17982.268986972453, 37181.47870081409, 10850.00614523961, 34145.79887936102, 18200.60082681189, -0.038, 1.024, 0.024, 192.0, 0.0, 0.0, 0.0, 0.0, 0.0, 0.0, 0.0, 0.0, 0.0, 1.65278352437773E9, 0.0, 2022-05-17 12:32:04.377
136.0, 39522.60041506296, 60022.05580735872, -35450.73842415076, 18250.579327413958, 37427.81727645604, 10905.036140088576, 34193.318688073006, 18211.88845776182, -0.042, 1.022, 0.02, 192.0, 254.0, 176.0, 31.0, 240.0, 0.0, 160.0, 0.0, 0.0, 0.0, 1.6527835243777344E9, 0.0, 2022-05-17 12:32:04.377
137.0, 39476.6675802073, 60005.135536806054, -35486.769436212715, 18602.149915951482, 37614.47669440231, 10952.779466245112, 34217.90560697384, 18219.398643898803, -0.042, 1.022, 0.02, 192.0, 0.0, 0.0, 0.0, 0.0, 0.0, 0.0, 0.0, 0.0, 0.0, 1.6527835243777387E9, 0.0, 2022-05-17 12:32:04.377
138.0, 39443.966978069184, 60015.05971134421, -35464.64120920196, 18563.548453277166, 37462.35072163949, 10954.16527440134, 34206.9756039352, 18229.99337077062, -0.042, 1.022, 0.02, 192.0, 0.0, 0.0, 0.0, 0.0, 0.0, 0.0, 0.0, 0.0, 0.0, 1.6527835243777435E9, 0.0, 2022-05-17 12:32:04.377
139.0, 39459.56849569899, 60022.145214336546, -35433.34876696453, 18216.112937463873, 37257.7428528956, 10888.026462558088, 34177.76187393211, 18212.290789162016, -0.042, 1.022, 0.02, 192.0, 0.0, 0.0, 0.0, 0.0, 0.0, 0.0, 0.0, 0.0, 0.0, 1.6527835243777478E9, 0.0, 2022-05-17 12:32:04.377
140.0, 39511.98333644668, 60034.05869413122, -35415.82499931157, 17994.13776327822, 37191.13465441879, 10868.848665815434, 34154.94074284324, 18208.625103071347, -0.042, 1.022, 0.02, 192.0, 0.0, 0.0, 0.0, 0.0, 0.0, 0.0, 0.0, 0.0, 0.0, 1.6527835243777523E9, 0.0, 2022-05-17 12:32:04.377
141.0, 39513.77147600311, 60010.58936245315, -35463.38951151246, 18248.299449479517, 37440.870695217935, 10900.63284643088, 34194.413923551314, 18206.36757688136, -0.042, 1.022, 0.02, 192.0, 0.0, 0.0, 0.0, 0.0, 0.0, 0.0, 0.0, 0.0, 0.0, 1.6527835243777568E9, 0.0, 2022-05-17 12:32:04.377
142.0, 39476.220545318196, 59999.88287685906, -35490.7256949813, 18591.041098957194, 37627.664223630934, 10959.194416903785, 34224.85699949944, 18218.99631249861, -0.042, 1.022, 0.02, 192.0, 0.0, 0.0, 0.0, 0.0, 0.0, 0.0, 0.0, 0.0, 0.0, 1.6527835243777611E9, 0.0, 2022-05-17 12:32:04.377
143.0, 39442.24589374613, 60007.63893218505, -35469.156261581935, 18544.48241525679, 37464.295323407096, 10961.36253611595, 34216.162170906326, 18233.52494639456, -0.042, 1.022, 0.02, 192.0, 0.0, 0.0, 0.0, 0.0, 0.0, 0.0, 0.0, 0.0, 0.0, 1.6527835243777657E9, 0.0, 2022-05-17 12:32:04.377
144.0, 39467.34690276944, 60026.97319113889, -35423.73751684875, 18202.32191113495, 37247.72927137963, 10905.259657533128, 34192.98341190618, 18229.144004481317, -0.042, 1.022, 0.02, 192.0, 0.0, 0.0, 0.0, 0.0, 0.0, 0.0, 0.0, 0.0, 0.0, 1.6527835243777702E9, 0.0, 2022-05-17 12:32:04.377
145.0, 39515.15728415934, 60035.95859240992, -35406.48197012925, 17990.51678067646, 37189.16770090672, 10873.207255984218, 34174.72203668619, 18220.56093461048, -0.042, 1.022, 0.02, 192.0, 0.0, 0.0, 0.0, 0.0, 0.0, 0.0, 0.0, 0.0, 0.0, 1.6527835243777747E9, 0.0, 2022-05-17 12:32:04.377
146.0, 39526.579025576, 60021.87699340308, -35448.36913923849, 18245.930164567253, 37431.39355556888, 10914.557983226536, 34197.96785091971, 18220.60563809939, -0.054, 1.026, 0.018000000000000002, 192.0, 254.0, 80.0, 32.0, 16.0, 0.0, 144.0, 0.0, 0.0, 0.0, 1.652783524377779E9, 0.0, 2022-05-17 12:32:04.377
147.0, 39478.50042325263, 60003.52621120527, -35489.07166589161, 18586.414287854946, 37618.81293282663, 10954.724068012723, 34216.76566800662, 18217.185821197727, -0.054, 1.026, 0.018000000000000002, 192.0, 0.0, 0.0, 0.0, 0.0, 0.0, 0.0, 0.0, 0.0, 0.0, 1.6527835243777835E9, 0.0, 2022-05-17 12:32:04.377
148.0, 39445.0622135475, 60013.56214446571, -35466.65286620294, 18550.182110092894, 37464.563544340555, 10957.674498280823, 34211.87063597091, 18229.054597503495, -0.054, 1.026, 0.018000000000000002, 192.0, 0.0, 0.0, 0.0, 0.0, 0.0, 0.0, 0.0, 0.0, 0.0, 1.652783524377788E9, 0.0, 2022-05-17 12:32:04.377
149.0, 39473.49363249465, 60036.83031044368, -35420.496513902726, 18213.74365255161, 37244.778841111525, 10904.969084855209, 34192.178749105784, 18229.769853326066, -0.054, 1.026, 0.018000000000000002, 192.0, 0.0, 0.0, 0.0, 0.0, 0.0, 0.0, 0.0, 0.0, 0.0, 1.6527835243777924E9, 0.0, 2022-05-17 12:32:04.377
150.0, 39498.68404849578, 60026.01206612731, -35424.29631046013, 17988.415716697662, 37168.559392518924, 10857.538683121049, 34165.5131179706, 18207.17223968175, -0.054, 1.026, 0.018000000000000002, 192.0, 0.0, 0.0, 0.0, 0.0, 0.0, 0.0, 0.0, 0.0, 0.0, 1.6527835243778007E9, 0.0, 2022-05-17 12:32:04.377
151.0, 39516.18546440428, 60020.58059222467, -35451.58779044006, 18238.26351621908, 37400.749313920656, 10897.280084762584, 34191.8211211945, 18209.049786215997, -0.054, 1.026, 0.018000000000000002, 192.0, 0.0, 0.0, 0.0, 0.0, 0.0, 0.0, 0.0, 0.0, 0.0, 1.6527835243778052E9, 0.0, 2022-05-17 12:32:04.377
152.0, 39482.85901342142, 60003.883839116555, -35489.697514736356, 18585.743735521286, 37626.30076721916, 10944.956355685754, 34225.10286868845, 18212.60371358439, -0.054, 1.026, 0.018000000000000002, 192.0, 0.0, 0.0, 0.0, 0.0, 0.0, 0.0, 0.0, 0.0, 0.0, 1.6527835243778095E9, 0.0, 2022-05-17 12:32:04.377
153.0, 39459.03205383207, 60016.11024333361, -35465.42352025789, 18541.19670882186, 37505.62369890496, 10939.368419571927, 34216.58685405098, 18221.83498404443, -0.054, 1.026, 0.018000000000000002, 192.0, 0.0, 0.0, 0.0, 0.0, 0.0, 0.0, 0.0, 0.0, 0.0, 1.6527835243778176E9, 0.0, 2022-05-17 12:32:04.377
154.0, 39470.05146384853, 60028.22488882839, -35425.36919419398, 18208.93802749372, 37272.29383853601, 10889.367567225405, 34178.47712975468, 18210.346187394403, -0.054, 1.026, 0.018000000000000002, 192.0, 0.0, 0.0, 0.0, 0.0, 0.0, 0.0, 0.0, 0.0, 0.0, 1.652783524377822E9, 0.0, 2022-05-17 12:32:04.377
155.0, 39506.3730485884, 60037.54556626625, -35406.2584526847, 17997.714042391068, 37161.987979649064, 10866.501732647626, 34161.31099001301, 18207.08283270393, -0.054, 1.026, 0.018000000000000002, 192.0, 0.0, 0.0, 0.0, 0.0, 0.0, 0.0, 0.0, 0.0, 0.0, 1.6527835243778265E9, 0.0, 2022-05-17 12:32:04.377
156.0, 39519.29235688357, 60024.69331320445, -35445.41870897039, 18254.13325478235, 37384.656057912835, 10903.672683676801, 34196.179711363286, 18214.637722329822, -0.048, 1.028, 0.02, 192.0, 254.0, 128.0, 32.0, 32.0, 0.0, 160.0, 0.0, 0.0, 0.0, 1.652783524377831E9, 0.0, 2022-05-17 12:32:04.377
157.0, 39476.064083107005, 60000.41931872599, -35494.21256711633, 18596.852552515575, 37618.96939503782, 10939.234309105195, 34213.7258307607, 18205.674672803245, -0.048, 1.028, 0.02, 192.0, 0.0, 0.0, 0.0, 0.0, 0.0, 0.0, 0.0, 0.0, 0.0, 1.6527835243778355E9, 0.0, 2022-05-17 12:32:04.377
158.0, 39436.47914367666, 59999.68171115896, -35481.56147975463, 18547.81282518063, 37502.51680642567, 10926.49381476567, 34193.7210194732, 18204.467678602658, -0.048, 1.028, 0.02, 192.0, 0.0, 0.0, 0.0, 0.0, 0.0, 0.0, 0.0, 0.0, 0.0, 1.6527835243778403E9, 0.0, 2022-05-17 12:32:04.377
159.0, 39455.098146807926, 60021.54171723625, -35424.408069182406, 18212.044919973006, 37262.50377446458, 10887.937055580265, 34171.99512386264, 18210.189725183216, -0.048, 1.028, 0.02, 192.0, 0.0, 0.0, 0.0, 0.0, 0.0, 0.0, 0.0, 0.0, 0.0, 1.6527835243778446E9, 0.0, 2022-05-17 12:32:04.377
160.0, 39498.84051070696, 60041.434769801475, -35394.23321416774, 17998.42929821364, 37152.287322555465, 10861.092610489442, 34171.346923273435, 18213.766004296067, -0.048, 1.028, 0.02, 192.0, 0.0, 0.0, 0.0, 0.0, 0.0, 0.0, 0.0, 0.0, 0.0, 1.65278352437785E9, 0.0, 2022-05-17 12:32:04.377
161.0, 39512.16215040233, 60028.87308941759, -35435.87451408798, 18245.997219800618, 37386.84652886946, 10900.454032475238, 34204.986298678676, 18216.984655497632, -0.048, 1.028, 0.02, 192.0, 0.0, 0.0, 0.0, 0.0, 0.0, 0.0, 0.0, 0.0, 0.0, 1.6527835243778543E9, 0.0, 2022-05-17 12:32:04.377
162.0, 39478.031036619075, 60015.12676657758, -35471.05615986063, 18597.277235660225, 37618.18708398189, 10953.762943001146, 34223.96292972123, 18221.522059622057, -0.048, 1.028, 0.02, 192.0, 0.0, 0.0, 0.0, 0.0, 0.0, 0.0, 0.0, 0.0, 0.0, 1.6527835243778589E9, 0.0, 2022-05-17 12:32:04.377
163.0, 39438.736669866645, 60013.808013654714, -35459.34384576605, 18565.515406789233, 37509.89288209592, 10947.415047575838, 34207.355583590936, 18220.248010188105, -0.048, 1.028, 0.02, 192.0, 0.0, 0.0, 0.0, 0.0, 0.0, 0.0, 0.0, 0.0, 0.0, 1.6527835243778632E9, 0.0, 2022-05-17 12:32:04.377
164.0, 39452.12536479537, 60023.396912026044, -35420.04947901362, 18228.875783547854, 37281.16748108476, 10895.827221372989, 34167.72594067168, 18218.482222376137, -0.048, 1.028, 0.02, 192.0, 0.0, 0.0, 0.0, 0.0, 0.0, 0.0, 0.0, 0.0, 0.0, 1.6527835243778677E9, 0.0, 2022-05-17 12:32:04.377
165.0, 39486.61410648991, 60025.58738298266, -35403.24096718323, 18003.592551182814, 37162.59147674936, 10864.803000069023, 34156.14773704383, 18214.07892871844, -0.048, 1.028, 0.02, 192.0, 0.0, 0.0, 0.0, 0.0, 0.0, 0.0, 0.0, 0.0, 0.0, 1.652783524377872E9, 0.0, 2022-05-17 12:32:04.377
166.0, 39500.38278107438, 60012.757481665314, -35441.35069147953, 18238.487033663634, 37376.430615953286, 10899.090576063463, 34207.53439754658, 18214.190687440718, -0.046, 1.026, 0.018000000000000002, 192.0, 254.0, 144.0, 32.0, 16.0, 0.0, 144.0, 0.0, 0.0, 0.0, 1.6527835243778765E9, 0.0, 2022-05-17 12:32:04.377
167.0, 39464.64234169035, 59993.199705266925, -35483.39432279996, 18592.650424557974, 37627.06072653064, 10945.40339057486, 34238.69272931728, 18221.253838688594, -0.046, 1.026, 0.018000000000000002, 192.0, 0.0, 0.0, 0.0, 0.0, 0.0, 0.0, 0.0, 0.0, 0.0, 1.652783524377881E9, 0.0, 2022-05-17 12:32:04.377
168.0, 39442.40235595732, 60010.34349326414, -35452.370101495995, 18572.95853769285, 37523.013356091185, 10963.105972183463, 34232.6801100588, 18240.677504620257, -0.046, 1.026, 0.018000000000000002, 192.0, 0.0, 0.0, 0.0, 0.0, 0.0, 0.0, 0.0, 0.0, 0.0, 1.6527835243778856E9, 0.0, 2022-05-17 12:32:04.377
169.0, 39457.892114864844, 60029.36482779561, -35408.404220152406, 18249.059408790996, 37301.19464411672, 10908.165384312319, 34200.89592944335, 18233.010856272085, -0.046, 1.026, 0.018000000000000002, 192.0, 0.0, 0.0, 0.0, 0.0, 0.0, 0.0, 0.0, 0.0, 0.0, 1.65278352437789E9, 0.0, 2022-05-17 12:32:04.377
170.0, 39500.8745194524, 60046.12863613709, -35385.98542046373, 18018.545868223413, 37180.048189168956, 10877.34232870845, 34183.19334783475, 18232.452062660705, -0.046, 1.026, 0.018000000000000002, 192.0, 0.0, 0.0, 0.0, 0.0, 0.0, 0.0, 0.0, 0.0, 0.0, 1.6527835243778944E9, 0.0, 2022-05-17 12:32:04.377
171.0, 39514.665545781325, 60034.90806042052, -35423.558702893104, 18256.211967016694, 37391.8756713719, 10918.737759439678, 34218.620862796415, 18236.207155729193, -0.046, 1.026, 0.018000000000000002, 192.0, 0.0, 0.0, 0.0, 0.0, 0.0, 0.0, 0.0, 0.0, 0.0, 1.6527835243779008E9, 0.0, 2022-05-17 12:32:04.377
172.0, 39480.0203418756, 60013.182164809965, -35466.9210871364, 18608.408404398968, 37641.03056681521, 10964.760001273156, 34246.359377665445, 18236.520080151568, -0.046, 1.026, 0.018000000000000002, 192.0, 0.0, 0.0, 0.0, 0.0, 0.0, 0.0, 0.0, 0.0, 0.0, 1.6527835243779054E9, 0.0, 2022-05-17 12:32:04.377
173.0, 39431.114725007385, 60002.833307127155, -35468.91039239292, 18574.09847666007, 37537.1620103314, 10956.422800591326, 34225.34873787746, 18230.105129492895, -0.046, 1.026, 0.018000000000000002, 192.0, 0.0, 0.0, 0.0, 0.0, 0.0, 0.0, 0.0, 0.0, 0.0, 1.65278352437791E9, 0.0, 2022-05-17 12:32:04.377
174.0, 39442.00002455712, 60017.40664451202, -35428.96782505129, 18229.501632392603, 37305.307365096494, 10893.457936460727, 34190.234147338175, 18221.633818344333, -0.046, 1.026, 0.018000000000000002, 192.0, 0.0, 0.0, 0.0, 0.0, 0.0, 0.0, 0.0, 0.0, 0.0, 1.6527835243779144E9, 0.0, 2022-05-17 12:32:04.377
175.0, 39487.955211157234, 60038.50669127783, -35393.13797868943, 17991.254388243484, 37173.58853502137, 10876.671776374791, 34177.24778380964, 18230.70862659319, -0.046, 1.026, 0.018000000000000002, 192.0, 0.0, 0.0, 0.0, 0.0, 0.0, 0.0, 0.0, 0.0, 0.0, 1.6527835243779187E9, 0.0, 2022-05-17 12:32:04.377
176.0, 39498.68404849578, 60027.46492951691, -35429.504266918215, 18229.211059714682, 37388.522909703606, 10917.01667511662, 34215.24574938366, 18234.97780978415, -0.044, 1.026, 0.022, 192.0, 254.0, 160.0, 32.0, 16.0, 0.0, 176.0, 0.0, 0.0, 0.0, 1.6527835243779233E9, 0.0, 2022-05-17 12:32:04.377
177.0, 39463.32358876748, 60011.52813572028, -35475.7723779407, 18586.034308199207, 37636.94019757989, 10962.45777159426, 34238.9833019952, 18236.073045262463, -0.044, 1.026, 0.022, 192.0, 0.0, 0.0, 0.0, 0.0, 0.0, 0.0, 0.0, 0.0, 0.0, 1.6527835243779275E9, 0.0, 2022-05-17 12:32:04.377
178.0, 39416.94371902272, 60005.694330417435, -35473.53720349517, 18567.460008556845, 37535.440926008334, 10950.365477843938, 34234.1776769373, 18234.57547838396, -0.044, 1.026, 0.022, 192.0, 0.0, 0.0, 0.0, 0.0, 0.0, 0.0, 0.0, 0.0, 0.0, 1.652783524377932E9, 0.0, 2022-05-17 12:32:04.377
179.0, 39428.70073660621, 60019.887688146555, -35429.28074947366, 18229.479280648146, 37306.715524997184, 10895.44724171725, 34192.78224620608, 18226.282981191038, -0.044, 1.026, 0.022, 192.0, 0.0, 0.0, 0.0, 0.0, 0.0, 0.0, 0.0, 0.0, 0.0, 1.6527835243779366E9, 0.0, 2022-05-17 12:32:04.377
180.0, 39464.48587947916, 60028.24724057284, -35403.978574750254, 17985.487638174014, 37181.76927349201, 10865.115924491398, 34163.032074336064, 18220.337417165927, -0.044, 1.026, 0.022, 192.0, 0.0, 0.0, 0.0, 0.0, 0.0, 0.0, 0.0, 0.0, 0.0, 1.6527835243779411E9, 0.0, 2022-05-17 12:32:04.377
181.0, 39466.27401903558, 60010.09762407513, -35441.4177467129, 18215.64355083031, 37391.78626439408, 10896.341311495462, 34200.80652246553, 18220.091547976917, -0.044, 1.026, 0.022, 192.0, 0.0, 0.0, 0.0, 0.0, 0.0, 0.0, 0.0, 0.0, 0.0, 1.6527835243779457E9, 0.0, 2022-05-17 12:32:04.377
182.0, 39428.2089982282, 59997.245371013334, -35479.99685764276, 18576.40070633897, 37641.991691826785, 10941.715352739735, 34233.283607159094, 18226.037112002028, -0.044, 1.026, 0.022, 192.0, 0.0, 0.0, 0.0, 0.0, 0.0, 0.0, 0.0, 0.0, 0.0, 1.65278352437795E9, 0.0, 2022-05-17 12:32:04.377
183.0, 39390.166329165266, 60004.04030132775, -35464.28358129068, 18561.939127676385, 37540.53712374415, 10945.112817896941, 34215.40221159485, 18228.965190525676, -0.044, 1.026, 0.022, 192.0, 0.0, 0.0, 0.0, 0.0, 0.0, 0.0, 0.0, 0.0, 0.0, 1.6527835243779545E9, 0.0, 2022-05-17 12:32:04.377
184.0, 39394.636678056326, 60014.523269477286, -35424.5645313936, 18235.290734206526, 37298.870062693364, 10902.577448198492, 34175.32553378648, 18224.807766056987, -0.044, 1.026, 0.022, 192.0, 0.0, 0.0, 0.0, 0.0, 0.0, 0.0, 0.0, 0.0, 0.0, 1.6527835243779588E9, 0.0, 2022-05-17 12:32:04.377
185.0, 39438.62491114437, 60031.287077818764, -35397.02718222466, 17991.343795221306, 37184.54088980447, 10859.438581399749, 34160.37221674588, 18223.89134453432, -0.044, 1.026, 0.022, 192.0, 0.0, 0.0, 0.0, 0.0, 0.0, 0.0, 0.0, 0.0, 0.0, 1.6527835243779633E9, 0.0, 2022-05-17 12:32:04.377
186.0, 39446.358614725905, 60014.03153109927, -35435.382775709964, 18218.5492776095, 37424.28570083209, 10894.597875427948, 34197.789036964066, 18224.874821290352, -0.054, 1.026, 0.02, 192.0, 254.0, 80.0, 32.0, 16.0, 0.0, 160.0, 0.0, 0.0, 0.0, 1.6527835243779678E9, 0.0, 2022-05-17 12:32:04.377
187.0, 39396.96125947968, 59993.93731283395, -35475.41475002942, 18580.982813952305, 37649.8371541306, 10938.831977705, 34221.057202942044, 18224.47248989016, -0.054, 1.026, 0.02, 192.0, 0.0, 0.0, 0.0, 0.0, 0.0, 0.0, 0.0, 0.0, 0.0, 1.6527835243779721E9, 0.0, 2022-05-17 12:32:04.377
188.0, 39353.4871165141, 59999.23467626986, -35456.03578758667, 18579.26172962925, 37502.82973084805, 10936.619155003924, 34198.50429278664, 18230.485109148634, -0.054, 1.026, 0.02, 192.0, 0.0, 0.0, 0.0, 0.0, 0.0, 0.0, 0.0, 0.0, 0.0, 1.6527835243779767E9, 0.0, 2022-05-17 12:32:04.377
189.0, 39368.820413210444, 60016.043188100244, -35410.92996727586, 18250.84754834742, 37277.03240836053, 10887.087689290964, 34178.58888847696, 18226.32768467995, -0.054, 1.026, 0.02, 192.0, 0.0, 0.0, 0.0, 0.0, 0.0, 0.0, 0.0, 0.0, 0.0, 1.652783524377981E9, 0.0, 2022-05-17 12:32:04.377
190.0, 39414.73089632164, 60028.64957197304, -35390.232251910245, 17993.243693500008, 37193.77216026451, 10858.723325577179, 34168.39649300533, 18219.55510610999, -0.054, 1.026, 0.02, 192.0, 0.0, 0.0, 0.0, 0.0, 0.0, 0.0, 0.0, 0.0, 0.0, 1.6527835243779857E9, 0.0, 2022-05-17 12:32:04.377
191.0, 39431.248835474114, 60021.67582770298, -35420.34005169154, 18220.60563809939, 37421.06704963053, 10903.203297043241, 34204.78513297858, 18229.546335881514, -0.054, 1.026, 0.02, 192.0, 0.0, 0.0, 0.0, 0.0, 0.0, 0.0, 0.0, 0.0, 0.0, 1.65278352437799E9, 0.0, 2022-05-17 12:32:04.377
192.0, 39379.92923020473, 59995.18901052344, -35472.30785755013, 18597.16547693795, 37639.01890981423, 10948.666745265335, 34229.953197235256, 18230.060426003984, -0.054, 1.026, 0.02, 192.0, 0.0, 0.0, 0.0, 0.0, 0.0, 0.0, 0.0, 0.0, 0.0, 1.652783524377996E9, 0.0, 2022-05-17 12:32:04.377
193.0, 39344.61347396535, 60005.44846122843, -35457.265133531706, 18595.10911644806, 37496.861815078475, 10944.732838241202, 34210.373069092406, 18235.46954816217, -0.054, 1.026, 0.02, 192.0, 0.0, 0.0, 0.0, 0.0, 0.0, 0.0, 0.0, 0.0, 0.0, 1.6527835243780005E9, 0.0, 2022-05-17 12:32:04.378
194.0, 39375.66004701377, 60035.757426709824, -35401.78810379364, 18255.854339105408, 37265.36479775486, 10904.700863921746, 34186.50140601413, 18235.693065606723, -0.054, 1.026, 0.02, 192.0, 0.0, 0.0, 0.0, 0.0, 0.0, 0.0, 0.0, 0.0, 0.0, 1.6527835243780048E9, 0.0, 2022-05-17 12:32:04.378
195.0, 39419.00007951261, 60043.0217436578, -35388.600574565, 18005.55950469488, 37193.4815875866, 10869.943901293744, 34175.70551344222, 18228.78637657003, -0.05, 1.02, 0.024, 192.0, 254.0, 112.0, 31.0, 224.0, 0.0, 192.0, 0.0, 0.0, 0.0, 1.652783524378009E9, 0.0, 2022-05-17 12:32:04.378
196.0, 39415.35674516639, 60012.22103979839, -35442.33416823556, 18225.478318390647, 37423.61514849844, 10889.412270714316, 34192.02228689459, 18219.17512645425, -0.05, 1.02, 0.024, 192.0, 0.0, 0.0, 0.0, 0.0, 0.0, 0.0, 0.0, 0.0, 0.0, 1.6527835243780136E9, 0.0, 2022-05-17 12:32:04.378
197.0, 39379.54925054899, 60000.55342919272, -35473.336037795074, 18594.10328794757, 37629.206493998354, 10940.865986450433, 34217.547979062554, 18226.30533293549, -0.05, 1.02, 0.024, 192.0, 0.0, 0.0, 0.0, 0.0, 0.0, 0.0, 0.0, 0.0, 0.0, 1.652783524378018E9, 0.0, 2022-05-17 12:32:04.378
198.0, 39343.42883150921, 60007.12484206258, -35451.878363117976, 18599.57946533912, 37502.56150991458, 10952.35478310046, 34221.481886086694, 18240.543394153523, -0.05, 1.02, 0.024, 192.0, 0.0, 0.0, 0.0, 0.0, 0.0, 0.0, 0.0, 0.0, 0.0, 1.6527835243780227E9, 0.0, 2022-05-17 12:32:04.378
199.0, 39358.270389827536, 60014.90324913302, -35412.181664965356, 18261.799903130523, 37288.99059164412, 10900.185811541774, 34195.598566007444, 18232.161489982784, -0.05, 1.02, 0.024, 192.0, 0.0, 0.0, 0.0, 0.0, 0.0, 0.0, 0.0, 0.0, 0.0, 1.652783524378027E9, 0.0, 2022-05-17 12:32:04.378
200.0, 39409.14296020782, 60028.53781325076, -35392.42272286686, 17998.60811216928, 37205.775047037016, 10856.868130787389, 34170.318743028496, 18219.55510610999, -0.05, 1.02, 0.024, 192.0, 0.0, 0.0, 0.0, 0.0, 0.0, 0.0, 0.0, 0.0, 0.0, 1.6527835243780315E9, 0.0, 2022-05-17 12:32:04.378
201.0, 39425.459733660195, 60020.513536991304, -35432.05236578612, 18219.264533432073, 37432.24292185818, 10897.548305696047, 34202.23703411067, 18228.495803892114, -0.05, 1.02, 0.024, 192.0, 0.0, 0.0, 0.0, 0.0, 0.0, 0.0, 0.0, 0.0, 0.0, 1.652783524378036E9, 0.0, 2022-05-17 12:32:04.378
202.0, 39375.57064003595, 59996.21719076839, -35478.45458727534, 18594.796192025686, 37640.516476692734, 10945.31398359704, 34221.5265895756, 18228.629914358844, -0.05, 1.02, 0.024, 192.0, 0.0, 0.0, 0.0, 0.0, 0.0, 0.0, 0.0, 0.0, 0.0, 1.6527835243780403E9, 0.0, 2022-05-17 12:32:04.378
203.0, 39334.37637500482, 59999.547600692225, -35464.30593303513, 18600.361776395057, 37505.8025128606, 10941.380076572905, 34216.0727639285, 18232.966152783174, -0.05, 1.02, 0.024, 192.0, 0.0, 0.0, 0.0, 0.0, 0.0, 0.0, 0.0, 0.0, 0.0, 1.652783524378045E9, 0.0, 2022-05-17 12:32:04.378
204.0, 39352.59304673589, 60016.624333456086, -35430.286577974155, 18256.56959492798, 37286.75541719859, 10878.348157208939, 34173.09035934095, 18224.89717303481, -0.05, 1.02, 0.024, 192.0, 0.0, 0.0, 0.0, 0.0, 0.0, 0.0, 0.0, 0.0, 0.0, 1.6527835243780494E9, 0.0, 2022-05-17 12:32:04.378
205.0, 39405.36551539487, 60031.26472607431, -35409.946490519826, 17991.835533599322, 37206.7808755375, 10854.521197619582, 34145.95534157221, 18216.358806652883, -0.048, 1.018, 0.018000000000000002, 192.0, 254.0, 128.0, 31.0, 208.0, 0.0, 144.0, 0.0, 0.0, 0.0, 1.652783524378054E9, 0.0, 2022-05-17 12:32:04.378
206.0, 39427.18081798325, 60022.8157666702, -35439.517848434196, 18208.826268771445, 37439.30607310606, 10893.860267860922, 34181.58402223397, 18218.437518887225, -0.048, 1.018, 0.018000000000000002, 192.0, 0.0, 0.0, 0.0, 0.0, 0.0, 0.0, 0.0, 0.0, 0.0, 1.6527835243780584E9, 0.0, 2022-05-17 12:32:04.378
207.0, 39389.00403845359, 60006.968379851394, -35479.013380886725, 18584.91672097644, 37659.135479824006, 10938.787274216089, 34214.93282496129, 18224.69600733471, -0.048, 1.018, 0.018000000000000002, 192.0, 0.0, 0.0, 0.0, 0.0, 0.0, 0.0, 0.0, 0.0, 0.0, 1.6527835243780627E9, 0.0, 2022-05-17 12:32:04.378
208.0, 39355.45407002617, 60016.78079566727, -35463.45656674583, 18604.005110741273, 37526.99196660423, 10945.626908019412, 34206.68503125728, 18234.5531266395, -0.048, 1.018, 0.018000000000000002, 192.0, 0.0, 0.0, 0.0, 0.0, 0.0, 0.0, 0.0, 0.0, 0.0, 1.6527835243780725E9, 0.0, 2022-05-17 12:32:04.378
209.0, 39374.31894234645, 60030.661228974015, -35423.692813359834, 18276.6638131933, 37306.87198720837, 10890.663968403813, 34171.369275017896, 18222.125556722352, -0.048, 1.018, 0.018000000000000002, 192.0, 0.0, 0.0, 0.0, 0.0, 0.0, 0.0, 0.0, 0.0, 0.0, 1.652783524378077E9, 0.0, 2022-05-17 12:32:04.378
210.0, 39420.31883243547, 60036.62914474358, -35406.88430152945, 18009.47105997456, 37219.677832088215, 10854.163569708297, 34150.85037360792, 18212.961341495677, -0.048, 1.018, 0.018000000000000002, 192.0, 0.0, 0.0, 0.0, 0.0, 0.0, 0.0, 0.0, 0.0, 0.0, 1.6527835243780813E9, 0.0, 2022-05-17 12:32:04.378
211.0, 39443.85521934691, 60028.31429580621, -35437.03680479965, 18212.55901009548, 37426.476171788716, 10888.093517791453, 34177.225432065185, 18214.056576973984, -0.048, 1.018, 0.018000000000000002, 192.0, 0.0, 0.0, 0.0, 0.0, 0.0, 0.0, 0.0, 0.0, 0.0, 1.652783524378086E9, 0.0, 2022-05-17 12:32:04.378
212.0, 39406.50545436209, 60008.421243240984, -35478.43223553088, 18590.258787901257, 37643.24338951628, 10946.45392256426, 34203.66754575581, 18220.695045077213, -0.048, 1.018, 0.018000000000000002, 192.0, 0.0, 0.0, 0.0, 0.0, 0.0, 0.0, 0.0, 0.0, 0.0, 1.6527835243780904E9, 0.0, 2022-05-17 12:32:04.378
213.0, 39357.75629970507, 60001.53690594875, -35479.415712286915, 18595.06441295915, 37515.749039143215, 10940.97774517271, 34187.797807192546, 18220.94091426622, -0.048, 1.018, 0.018000000000000002, 192.0, 0.0, 0.0, 0.0, 0.0, 0.0, 0.0, 0.0, 0.0, 0.0, 1.652783524378095E9, 0.0, 2022-05-17 12:32:04.378
214.0, 39375.03419816902, 60015.93142937797, -35436.366252465996, 18250.60167915841, 37292.9021469238, 10874.302491462528, 34158.964056845194, 18216.917600264263, -0.048, 1.018, 0.018000000000000002, 192.0, 0.0, 0.0, 0.0, 0.0, 0.0, 0.0, 0.0, 0.0, 0.0, 1.6527835243781009E9, 0.0, 2022-05-17 12:32:04.378
215.0, 39433.75223085311, 60038.08200813318, -35413.94745277732, 17979.60912938227, 37212.12294246232, 10840.216081168186, 34139.339225213436, 18205.920541992255, -0.042, 1.022, 0.02, 192.0, 254.0, 176.0, 31.0, 240.0, 0.0, 160.0, 0.0, 0.0, 0.0, 1.6527835243781052E9, 0.0, 2022-05-17 12:32:04.378
216.0, 39446.71624263719, 60025.38621728256, -35453.53239220767, 18186.20630338267, 37432.2876253471, 10867.552264637026, 34167.792995905045, 18203.46185010217, -0.042, 1.022, 0.02, 192.0, 0.0, 0.0, 0.0, 0.0, 0.0, 0.0, 0.0, 0.0, 0.0, 1.6527835243781097E9, 0.0, 2022-05-17 12:32:04.378
217.0, 39371.25675335607, 59971.98789977883, -35498.97348868531, 18564.308412588645, 37659.42605250193, 10922.425797274804, 34208.31670860251, 18213.274265918048, -0.042, 1.022, 0.02, 192.0, 0.0, 0.0, 0.0, 0.0, 0.0, 0.0, 0.0, 0.0, 0.0, 1.652783524378114E9, 0.0, 2022-05-17 12:32:04.378
218.0, 39323.5804824329, 59970.62444336706, -35478.856918675534, 18584.067354687137, 37529.85298989451, 10931.969992157221, 34204.60631902293, 18228.249934703104, -0.042, 1.022, 0.02, 192.0, 0.0, 0.0, 0.0, 0.0, 0.0, 0.0, 0.0, 0.0, 0.0, 1.6527835243781185E9, 0.0, 2022-05-17 12:32:04.378
219.0, 39344.434660009705, 59981.68855687244, -35437.17091526639, 18256.882519350354, 37304.16742612927, 10877.319976963994, 34177.024266365086, 18218.146946209305, -0.042, 1.022, 0.02, 192.0, 0.0, 0.0, 0.0, 0.0, 0.0, 0.0, 0.0, 0.0, 0.0, 1.6527835243781228E9, 0.0, 2022-05-17 12:32:04.378
220.0, 39390.70277103219, 59989.981054065356, -35415.06504000009, 17985.353527707284, 37213.50875061855, 10839.657287556802, 34154.650170165325, 18211.575533339445, -0.042, 1.022, 0.02, 192.0, 0.0, 0.0, 0.0, 0.0, 0.0, 0.0, 0.0, 0.0, 0.0, 1.6527835243781273E9, 0.0, 2022-05-17 12:32:04.378
221.0, 39404.337335149925, 59975.83239982515, -35450.29138926165, 18189.581416795423, 37423.391631053884, 10881.164477010308, 34186.09907461394, 18219.622161343355, -0.042, 1.022, 0.02, 192.0, 0.0, 0.0, 0.0, 0.0, 0.0, 0.0, 0.0, 0.0, 0.0, 1.6527835243781319E9, 0.0, 2022-05-17 12:32:04.378
222.0, 39366.540535276006, 59956.31932691566, -35492.35737232654, 18569.96340393584, 37642.63989241599, 10931.813529946034, 34218.48675232968, 18226.32768467995, -0.042, 1.022, 0.02, 192.0, 0.0, 0.0, 0.0, 0.0, 0.0, 0.0, 0.0, 0.0, 0.0, 1.6527835243781362E9, 0.0, 2022-05-17 12:32:04.378
223.0, 39333.61641569334, 59970.24446371132, -35468.105729592535, 18594.170343180936, 37505.86956809396, 10955.148751157374, 34209.456647569736, 18245.48312967815, -0.042, 1.022, 0.02, 192.0, 0.0, 0.0, 0.0, 0.0, 0.0, 0.0, 0.0, 0.0, 0.0, 1.6527835243781407E9, 0.0, 2022-05-17 12:32:04.378
224.0, 39340.992491363584, 59977.39702193702, -35437.57324666658, 18265.04090607654, 37295.874928936355, 10895.000206828143, 34181.136987344864, 18229.948667281707, -0.042, 1.022, 0.02, 192.0, 0.0, 0.0, 0.0, 0.0, 0.0, 0.0, 0.0, 0.0, 0.0, 1.6527835243781452E9, 0.0, 2022-05-17 12:32:04.378
225.0, 39393.295573389005, 59989.82459185417, -35417.94841503482, 17984.861789329265, 37209.79836103897, 10846.608680082403, 34159.23227777866, 18216.89524851981, -0.044, 1.024, 0.016, 192.0, 254.0, 160.0, 32.0, 0.0, 0.0, 128.0, 0.0, 0.0, 0.0, 1.6527835243781495E9, 0.0, 2022-05-17 12:32:04.378
226.0, 39412.76394280958, 59978.46990567088, -35453.2194677853, 18188.68734701721, 37420.55295950806, 10890.507506192625, 34185.38381879137, 18224.69600733471, -0.044, 1.024, 0.016, 192.0, 0.0, 0.0, 0.0, 0.0, 0.0, 0.0, 0.0, 0.0, 0.0, 1.6527835243781545E9, 0.0, 2022-05-17 12:32:04.378
227.0, 39373.380169079326, 59958.86742578357, -35499.50993055224, 18563.63786025499, 37647.55727619616, 10944.062285907541, 34209.68016501429, 18225.56772536847, -0.044, 1.024, 0.016, 192.0, 0.0, 0.0, 0.0, 0.0, 0.0, 0.0, 0.0, 0.0, 0.0, 1.6527835243781588E9, 0.0, 2022-05-17 12:32:04.378
228.0, 39339.31611052944, 59968.031641010246, -35483.93076466689, 18586.347232621578, 37518.78887638913, 10947.705620253757, 34198.10196138644, 18236.318914451473, -0.044, 1.024, 0.016, 192.0, 0.0, 0.0, 0.0, 0.0, 0.0, 0.0, 0.0, 0.0, 0.0, 1.652783524378163E9, 0.0, 2022-05-17 12:32:04.378
229.0, 39356.92928516022, 59987.745879619826, -35442.2671130022, 18264.906795609808, 37291.80691144549, 10901.705730164735, 34173.872670396886, 18236.36361794038, -0.044, 1.024, 0.016, 192.0, 0.0, 0.0, 0.0, 0.0, 0.0, 0.0, 0.0, 0.0, 0.0, 1.6527835243781676E9, 0.0, 2022-05-17 12:32:04.378
230.0, 39390.38984660982, 59984.460173184896, -35434.10872627601, 17982.291338716906, 37204.6798115587, 10856.53285462056, 34150.47039395218, 18216.783489797534, -0.044, 1.024, 0.016, 192.0, 0.0, 0.0, 0.0, 0.0, 0.0, 0.0, 0.0, 0.0, 0.0, 1.652783524378172E9, 0.0, 2022-05-17 12:32:04.378
231.0, 39406.7513235511, 59973.44076316843, -35466.45170050284, 18174.91867243274, 37420.77647695261, 10885.59012241246, 34178.700647199235, 18216.69408281971, -0.044, 1.024, 0.016, 192.0, 0.0, 0.0, 0.0, 0.0, 0.0, 0.0, 0.0, 0.0, 0.0, 1.6527835243781765E9, 0.0, 2022-05-17 12:32:04.378
232.0, 39348.480325756114, 59941.07543719715, -35521.884026752, 18559.167511363925, 37658.084947834606, 10929.176024100307, 34197.34200207496, 18207.239294915118, -0.044, 1.024, 0.016, 192.0, 0.0, 0.0, 0.0, 0.0, 0.0, 0.0, 0.0, 0.0, 0.0, 1.652783524378181E9, 0.0, 2022-05-17 12:32:04.378
233.0, 39310.951746815655, 59955.87229202656, -35500.35929684154, 18592.672776302432, 37536.089126597544, 10934.786311958589, 34191.73171421668, 18218.437518887225, -0.044, 1.024, 0.016, 192.0, 0.0, 0.0, 0.0, 0.0, 0.0, 0.0, 0.0, 0.0, 0.0, 1.6527835243781855E9, 0.0, 2022-05-17 12:32:04.378
234.0, 39332.43177323721, 59981.040356283236, -35449.12909854997, 18263.09630430893, 37296.791350459025, 10879.82337234299, 34156.50536495511, 18217.74461480911, -0.044, 1.024, 0.016, 192.0, 0.0, 0.0, 0.0, 0.0, 0.0, 0.0, 0.0, 0.0, 0.0, 1.65278352437819E9, 0.0, 2022-05-17 12:32:04.378
235.0, 39380.82329998294, 59993.06559480019, -35423.64810987093, 17987.32048121935, 37204.34453539187, 10843.121807947375, 34140.456812436205, 18212.648417073302, -0.04, 1.024, 0.016, 192.0, 254.0, 192.0, 32.0, 0.0, 0.0, 128.0, 0.0, 0.0, 0.0, 1.652783524378196E9, 0.0, 2022-05-17 12:32:04.378
236.0, 39391.73095127713, 59979.25221672681, -35456.43811898686, 18177.936157934208, 37410.60643322545, 10878.459915931215, 34175.39258901985, 18206.278169903537, -0.04, 1.024, 0.016, 192.0, 0.0, 0.0, 0.0, 0.0, 0.0, 0.0, 0.0, 0.0, 0.0, 1.6527835243782003E9, 0.0, 2022-05-17 12:32:04.378
237.0, 39344.68052919871, 59960.58851010663, -35499.39817182996, 18566.834159712096, 37644.04805231668, 10930.628887489902, 34208.76374349162, 18213.207210684683, -0.04, 1.024, 0.016, 192.0, 0.0, 0.0, 0.0, 0.0, 0.0, 0.0, 0.0, 0.0, 0.0, 1.6527835243782048E9, 0.0, 2022-05-17 12:32:04.378
238.0, 39295.17141523021, 59964.27654794176, -35485.160110611934, 18591.935168735406, 37525.606158448005, 10931.768826457122, 34203.68989750027, 18218.281056676038, -0.04, 1.024, 0.016, 192.0, 0.0, 0.0, 0.0, 0.0, 0.0, 0.0, 0.0, 0.0, 0.0, 1.652783524378209E9, 0.0, 2022-05-17 12:32:04.378
239.0, 39307.06254328043, 59985.24248424083, -35435.91921757689, 18264.079781064964, 37297.99834465961, 10886.640654401857, 34173.96207737471, 18215.151812452295, -0.04, 1.024, 0.016, 192.0, 0.0, 0.0, 0.0, 0.0, 0.0, 0.0, 0.0, 0.0, 0.0, 1.652783524378214E9, 0.0, 2022-05-17 12:32:04.378
240.0, 39343.518238487035, 59993.22205701138, -35411.84638879853, 17984.504161417983, 37201.97525047961, 10840.841930012934, 34154.60546667641, 18206.345225136905, -0.04, 1.024, 0.016, 192.0, 0.0, 0.0, 0.0, 0.0, 0.0, 0.0, 0.0, 0.0, 0.0, 1.6527835243782184E9, 0.0, 2022-05-17 12:32:04.378
241.0, 39346.46866875514, 59977.955815548405, -35444.52463919218, 18173.845788698887, 37413.15453209335, 10877.364680452905, 34185.00383913563, 18210.480297861137, -0.04, 1.024, 0.016, 192.0, 0.0, 0.0, 0.0, 0.0, 0.0, 0.0, 0.0, 0.0, 0.0, 1.6527835248574524E9, 0.0, 2022-05-17 12:32:04.857
242.0, 39296.758389086535, 59956.16286470448, -35489.94338392537, 18560.28509858669, 37654.799241399676, 10931.21003284574, 34213.636423782875, 18215.50944036358, -0.04, 1.024, 0.016, 192.0, 0.0, 0.0, 0.0, 0.0, 0.0, 0.0, 0.0, 0.0, 0.0, 1.6527835248576179E9, 0.0, 2022-05-17 12:32:04.857
243.0, 39251.29494086444, 59966.8022950652, -35476.59939248555, 18591.041098957194, 37528.467181738284, 10937.870852693422, 34201.99116492167, 18220.717396821667, -0.04, 1.024, 0.016, 192.0, 0.0, 0.0, 0.0, 0.0, 0.0, 0.0, 0.0, 0.0, 0.0, 1.6527835248576293E9, 0.0, 2022-05-17 12:32:04.857
244.0, 39268.95281898413, 59988.707004631404, -35429.504266918215, 18282.25174930713, 37311.78937098853, 10898.509430707625, 34188.33424905947, 18232.27324870506, -0.04, 1.024, 0.016, 192.0, 0.0, 0.0, 0.0, 0.0, 0.0, 0.0, 0.0, 0.0, 0.0, 1.6527835248576424E9, 0.0, 2022-05-17 12:32:04.857
245.0, 39311.75640961604, 59993.892609345035, -35409.05242074161, 17993.66837664466, 37219.70018383267, 10863.327784934972, 34171.10105408443, 18230.775681826555, -0.046, 1.024, 0.014, 192.0, 254.0, 144.0, 32.0, 0.0, 0.0, 112.0, 0.0, 0.0, 0.0, 1.6527835248576536E9, 0.0, 2022-05-17 12:32:04.857
246.0, 39328.20729353515, 59979.833362082645, -35439.54020017865, 18161.64173622629, 37423.8833694319, 10891.893314348856, 34201.76764747711, 18236.6541906183, -0.046, 1.024, 0.014, 192.0, 0.0, 0.0, 0.0, 0.0, 0.0, 0.0, 0.0, 0.0, 0.0, 1.652783524857666E9, 0.0, 2022-05-17 12:32:04.857
247.0, 39282.989714502066, 59953.72652455885, -35486.68002923489, 18547.276383313703, 37671.138366596504, 10940.709524239246, 34229.32734839051, 18234.061388261485, -0.046, 1.024, 0.014, 192.0, 0.0, 0.0, 0.0, 0.0, 0.0, 0.0, 0.0, 0.0, 0.0, 1.652783524857674E9, 0.0, 2022-05-17 12:32:04.857
248.0, 39232.854751688814, 59952.20660593589, -35476.88996516347, 18585.944901221384, 37559.513754786705, 10945.515149297136, 34218.03971744057, 18240.69985636471, -0.046, 1.024, 0.014, 192.0, 0.0, 0.0, 0.0, 0.0, 0.0, 0.0, 0.0, 0.0, 0.0, 1.652783524857685E9, 0.0, 2022-05-17 12:32:04.857
249.0, 39247.85277221832, 59974.156018991, -35434.35459546502, 18268.28190902256, 37336.73391780066, 10901.750433653646, 34191.262327583114, 18240.923373809263, -0.046, 1.024, 0.014, 192.0, 0.0, 0.0, 0.0, 0.0, 0.0, 0.0, 0.0, 0.0, 0.0, 1.6527835248576944E9, 0.0, 2022-05-17 12:32:04.857
250.0, 39298.97121178761, 59992.88678084455, -35411.62287135397, 17980.167922993653, 37238.29683521949, 10846.474569615671, 34165.066083081496, 18224.98658001263, -0.046, 1.024, 0.014, 192.0, 0.0, 0.0, 0.0, 0.0, 0.0, 0.0, 0.0, 0.0, 0.0, 1.6527835248577025E9, 0.0, 2022-05-17 12:32:04.857
251.0, 39326.62031967883, 59990.942179076934, -35438.467316444796, 18167.676707229224, 37434.67926200381, 10879.957482809721, 34186.27788856958, 18228.093472491917, -0.046, 1.024, 0.014, 192.0, 0.0, 0.0, 0.0, 0.0, 0.0, 0.0, 0.0, 0.0, 0.0, 1.6527835248577135E9, 0.0, 2022-05-17 12:32:04.857
252.0, 39279.68165632268, 59966.86935029857, -35492.782055471194, 18558.11697937453, 37674.60288698708, 10930.919460167821, 34215.98335695069, 18230.03807425953, -0.046, 1.024, 0.014, 192.0, 0.0, 0.0, 0.0, 0.0, 0.0, 0.0, 0.0, 0.0, 0.0, 1.652783524857721E9, 0.0, 2022-05-17 12:32:04.857
253.0, 39232.76534471099, 59969.23863521083, -35484.668372233915, 18598.752450794276, 37556.51862102969, 10938.474349793714, 34205.36627833441, 18236.520080151568, -0.046, 1.024, 0.014, 192.0, 0.0, 0.0, 0.0, 0.0, 0.0, 0.0, 0.0, 0.0, 0.0, 1.6527835248577294E9, 0.0, 2022-05-17 12:32:04.857
254.0, 39251.518458308994, 59990.42808895446, -35438.55672342262, 18279.457781250214, 37328.62023456338, 10890.507506192625, 34179.63942046636, 18235.111920250885, -0.046, 1.024, 0.014, 192.0, 0.0, 0.0, 0.0, 0.0, 0.0, 0.0, 0.0, 0.0, 0.0, 1.6527835248577397E9, 0.0, 2022-05-17 12:32:04.857
255.0, 39299.79822633246, 59996.39600472403, -35417.09904874552, 17989.80152485389, 37231.3901461828, 10850.363773150895, 34169.33526627246, 18226.37238816886, -0.044, 1.02, 0.018000000000000002, 192.0, 254.0, 160.0, 31.0, 224.0, 0.0, 144.0, 0.0, 0.0, 0.0, 1.6527835248577452E9, 0.0, 2022-05-17 12:32:04.857
0.0, 39323.82635162191, 59983.25317898431, -35452.794784640646, 18159.227747825116, 37427.70551773376, 10874.704822862725, 34201.141798632365, 18222.952571267197, -0.044, 1.02, 0.018000000000000002, 192.0, 0.0, 0.0, 0.0, 0.0, 0.0, 0.0, 0.0, 0.0, 0.0, 1.652783524857794E9, 0.0, 2022-05-17 12:32:04.857
1.0, 39290.030514005484, 59959.80619905069, -35503.15326489845, 18547.946935647364, 37675.58636374311, 10924.593916486969, 34231.38370888039, 18223.958399767685, -0.044, 1.02, 0.018000000000000002, 192.0, 0.0, 0.0, 0.0, 0.0, 0.0, 0.0, 0.0, 0.0, 0.0, 1.6527835248578005E9, 0.0, 2022-05-17 12:32:04.857
2.0, 39258.49220257905, 59969.61861486657, -35490.5245292812, 18580.803999996664, 37558.77614721968, 10928.483120022192, 34218.754973263145, 18225.925353279752, -0.044, 1.02, 0.018000000000000002, 192.0, 0.0, 0.0, 0.0, 0.0, 0.0, 0.0, 0.0, 0.0, 0.0, 1.6527835248578057E9, 0.0, 2022-05-17 12:32:04.857
3.0, 39280.15104295624, 59984.169600506975, -35448.525601449684, 18271.38880150185, 37331.54831308703, 10882.080898532975, 34188.423656037296, 18221.61146659988, -0.044, 1.02, 0.018000000000000002, 192.0, 0.0, 0.0, 0.0, 0.0, 0.0, 0.0, 0.0, 0.0, 0.0, 1.6527835248578115E9, 0.0, 2022-05-17 12:32:04.857
4.0, 39343.40647976476, 60002.25216177132, -35413.58982486604, 17975.69757410259, 37223.27646294552, 10852.710706318701, 34166.04955983753, 18227.6017341139, -0.044, 1.02, 0.018000000000000002, 192.0, 0.0, 0.0, 0.0, 0.0, 0.0, 0.0, 0.0, 0.0, 0.0, 1.6527835248578167E9, 0.0, 2022-05-17 12:32:04.857
5.0, 39368.86511669935, 59991.83624885515, -35446.357482237516, 18149.92942213171, 37420.530607763605, 10878.72813686468, 34196.11265612992, 18230.105129492895, -0.044, 1.02, 0.018000000000000002, 192.0, 0.0, 0.0, 0.0, 0.0, 0.0, 0.0, 0.0, 0.0, 0.0, 1.652783524857822E9, 0.0, 2022-05-17 12:32:04.857
6.0, 39337.6844331842, 59966.66818459847, -35493.8772909495, 18545.063560612627, 37667.42797701692, 10940.486006794692, 34233.01538622563, 18234.32960919495, -0.044, 1.02, 0.018000000000000002, 192.0, 0.0, 0.0, 0.0, 0.0, 0.0, 0.0, 0.0, 0.0, 0.0, 1.6527835248578303E9, 0.0, 2022-05-17 12:32:04.857
7.0, 39306.950784558154, 59965.237672953335, -35484.06487513362, 18587.129543677514, 37564.07351065559, 10955.573434302025, 34221.45953434223, 18243.694990121723, -0.044, 1.02, 0.018000000000000002, 192.0, 0.0, 0.0, 0.0, 0.0, 0.0, 0.0, 0.0, 0.0, 0.0, 1.6527835248578367E9, 0.0, 2022-05-17 12:32:04.857
8.0, 39329.59310169138, 59978.73812660434, -35444.52463919218, 18269.89123462334, 37342.67948182577, 10903.113890065419, 34189.98827814916, 18240.342228453424, -0.044, 1.02, 0.018000000000000002, 192.0, 0.0, 0.0, 0.0, 0.0, 0.0, 0.0, 0.0, 0.0, 0.0, 1.652783524857842E9, 0.0, 2022-05-17 12:32:04.857
9.0, 39390.12162567635, 59994.317292489686, -35420.004775524714, 17977.59747238129, 37239.101498019874, 10854.923529019778, 34162.272115024585, 18223.84664104541, -0.038, 1.022, 0.01, 192.0, 254.0, 208.0, 31.0, 240.0, 0.0, 80.0, 0.0, 0.0, 0.0, 1.6527835248578477E9, 0.0, 2022-05-17 12:32:04.857
10.0, 39423.24691095912, 59985.845981341125, -35450.60431368402, 18138.865308626333, 37426.36441306644, 10879.398689198339, 34185.5179292581, 18225.411263157283, -0.038, 1.022, 0.01, 192.0, 0.0, 0.0, 0.0, 0.0, 0.0, 0.0, 0.0, 0.0, 0.0, 1.652783524857852E9, 0.0, 2022-05-17 12:32:04.857
11.0, 39394.211994911675, 59964.611824108586, -35505.81312248864, 18522.421243479403, 37669.86431716255, 10932.037047390586, 34209.27783361409, 18226.774719569054, -0.038, 1.022, 0.01, 192.0, 0.0, 0.0, 0.0, 0.0, 0.0, 0.0, 0.0, 0.0, 0.0, 1.652783524857858E9, 0.0, 2022-05-17 12:32:04.857
12.0, 39368.194564365695, 59982.89555107302, -35490.70334323685, 18578.747639506775, 37559.73727223126, 10948.35382084296, 34205.455685312234, 18240.543394153523, -0.038, 1.022, 0.01, 192.0, 0.0, 0.0, 0.0, 0.0, 0.0, 0.0, 0.0, 0.0, 0.0, 1.6527835248578632E9, 0.0, 2022-05-17 12:32:04.857
13.0, 39394.36845712286, 60005.78373739526, -35444.14465953644, 18272.37227825788, 37332.35297588742, 10908.098329078954, 34187.90956591482, 18237.972943541165, -0.038, 1.022, 0.01, 192.0, 0.0, 0.0, 0.0, 0.0, 0.0, 0.0, 0.0, 0.0, 0.0, 1.65278352485787E9, 0.0, 2022-05-17 12:32:04.857
14.0, 39463.86003063441, 60029.87891791808, -35414.57330162207, 17982.336042205818, 37228.0373845145, 10867.999299526133, 34162.42857723577, 18230.84273705992, -0.038, 1.022, 0.01, 192.0, 0.0, 0.0, 0.0, 0.0, 0.0, 0.0, 0.0, 0.0, 0.0, 1.6527835248578749E9, 0.0, 2022-05-17 12:32:04.857
15.0, 39490.07862688049, 60013.51744097679, -35459.63441844397, 18153.863329155844, 37428.75604972315, 10884.763107867611, 34183.595679234946, 18224.248972445606, -0.038, 1.022, 0.01, 192.0, 0.0, 0.0, 0.0, 0.0, 0.0, 0.0, 0.0, 0.0, 0.0, 1.6527835248578796E9, 0.0, 2022-05-17 12:32:04.857
16.0, 39445.48689669215, 59980.749783605315, -35514.75382027076, 18539.18505182088, 37675.18403234292, 10933.221689846718, 34208.16024639133, 18220.449175888203, -0.038, 1.022, 0.01, 192.0, 0.0, 0.0, 0.0, 0.0, 0.0, 0.0, 0.0, 0.0, 0.0, 1.6527835248578846E9, 0.0, 2022-05-17 12:32:04.857
17.0, 39401.45396011519, 59987.27649298627, -35494.97252642781, 18593.991529225295, 37551.17655410487, 10957.003945947165, 34205.56744403451, 18234.240202217126, -0.038, 1.022, 0.01, 192.0, 0.0, 0.0, 0.0, 0.0, 0.0, 0.0, 0.0, 0.0, 0.0, 1.65278352485789E9, 0.0, 2022-05-17 12:32:04.857
18.0, 39421.14584698032, 60004.35322575012, -35452.25834277372, 18288.599644732436, 37331.23538866465, 10906.891334878366, 34187.507234514625, 18231.982676027143, -0.03, 1.024, 0.014, 192.0, 255.0, 16.0, 32.0, 0.0, 0.0, 112.0, 0.0, 0.0, 0.0, 1.6527835248578963E9, 0.0, 2022-05-17 12:32:04.857
19.0, 39480.06504536451, 60020.7147026914, -35420.429458669365, 17986.47111493005, 37228.350308936875, 10859.684450588758, 34168.351789516426, 18226.5512021245, -0.03, 1.024, 0.014, 192.0, 0.0, 0.0, 0.0, 0.0, 0.0, 0.0, 0.0, 0.0, 0.0, 1.6527835248579013E9, 0.0, 2022-05-17 12:32:04.857
20.0, 39510.48576956818, 60019.44065325745, -35443.80938336961, 18136.11604405833, 37414.093305360475, 10883.82433460049, 34191.23997583866, 18228.80872831449, -0.03, 1.024, 0.014, 192.0, 0.0, 0.0, 0.0, 0.0, 0.0, 0.0, 0.0, 0.0, 0.0, 1.6527835248579063E9, 0.0, 2022-05-17 12:32:04.857
21.0, 39482.30021981004, 59999.8605251146, -35491.530357781696, 18527.986827848774, 37660.07425309113, 10944.196396374273, 34219.35847036344, 18232.720283594168, -0.03, 1.024, 0.014, 192.0, 0.0, 0.0, 0.0, 0.0, 0.0, 0.0, 0.0, 0.0, 0.0, 1.652783524857911E9, 0.0, 2022-05-17 12:32:04.857
22.0, 39443.45288794671, 59999.81582162569, -35485.6742007344, 18592.672776302432, 37551.95886516081, 10944.621079518924, 34206.61797602391, 18234.262553961584, -0.03, 1.024, 0.014, 192.0, 0.0, 0.0, 0.0, 0.0, 0.0, 0.0, 0.0, 0.0, 0.0, 1.6527835248579223E9, 0.0, 2022-05-17 12:32:04.857
23.0, 39460.127289310374, 60016.51257473381, -35442.44592695784, 18300.177848360283, 37335.97395848918, 10907.316018023017, 34189.183615348775, 18238.531737152545, -0.03, 1.024, 0.014, 192.0, 0.0, 0.0, 0.0, 0.0, 0.0, 0.0, 0.0, 0.0, 0.0, 1.6527835248579268E9, 0.0, 2022-05-17 12:32:04.857
24.0, 39504.942536943265, 60019.03832185725, -35423.17872323737, 17989.712117876068, 37237.31335846345, 10856.488151131649, 34156.08068181046, 18219.219829943162, -0.03, 1.024, 0.014, 192.0, 0.0, 0.0, 0.0, 0.0, 0.0, 0.0, 0.0, 0.0, 0.0, 1.6527835248579311E9, 0.0, 2022-05-17 12:32:04.857
25.0, 39528.90360699935, 60008.153022307524, -35453.04065382965, 18139.468805726625, 37434.6345585149, 10882.080898532975, 34184.221528079695, 18220.672693332755, -0.03, 1.024, 0.014, 192.0, 0.0, 0.0, 0.0, 0.0, 0.0, 0.0, 0.0, 0.0, 0.0, 1.652783524857937E9, 0.0, 2022-05-17 12:32:04.857
26.0, 39500.136911885376, 59994.89843784553, -35495.866596206026, 18528.992656349263, 37673.530003253225, 10937.647335248868, 34207.6238045244, 18226.30533293549, -0.03, 1.024, 0.014, 192.0, 0.0, 0.0, 0.0, 0.0, 0.0, 0.0, 0.0, 0.0, 0.0, 1.6527835248579416E9, 0.0, 2022-05-17 12:32:04.857
27.0, 39467.257495791615, 60008.75651940781, -35477.71697970831, 18602.73106130732, 37556.69743498533, 10957.74155351419, 34211.133028403885, 18250.825196602964, -0.03, 1.024, 0.014, 192.0, 0.0, 0.0, 0.0, 0.0, 0.0, 0.0, 0.0, 0.0, 0.0, 1.652783524857947E9, 0.0, 2022-05-17 12:32:04.857
28.0, 39483.99895238864, 60026.90613590553, -35434.53340942066, 18306.458688552226, 37333.04587996553, 10919.609477473436, 34201.05239165454, 18254.71440013819, -0.032, 1.024, 0.014, 192.0, 255.0, 0.0, 32.0, 0.0, 0.0, 112.0, 0.0, 0.0, 0.0, 1.6527835248579528E9, 0.0, 2022-05-17 12:32:04.857
29.0, 39532.8822175124, 60030.32595280719, -35416.361441178495, 17995.300053989897, 37228.46206765915, 10873.542532151048, 34174.990257619655, 18237.436501674238, -0.032, 1.024, 0.014, 192.0, 0.0, 0.0, 0.0, 0.0, 0.0, 0.0, 0.0, 0.0, 0.0, 1.652783524857958E9, 0.0, 2022-05-17 12:32:04.857
30.0, 39552.64115961089, 60013.85271714362, -35454.69468291935, 18138.17240454822, 37409.757066936145, 10885.701881134735, 34194.19040610676, 18224.181917212238, -0.032, 1.024, 0.014, 192.0, 0.0, 0.0, 0.0, 0.0, 0.0, 0.0, 0.0, 0.0, 0.0, 1.652783524857966E9, 0.0, 2022-05-17 12:32:04.857
31.0, 39532.770458790124, 60011.59519095364, -35490.25630834774, 18536.65930469743, 37651.60294194257, 10948.152655142863, 34223.96292972123, 18236.050693518006, -0.032, 1.024, 0.014, 192.0, 0.0, 0.0, 0.0, 0.0, 0.0, 0.0, 0.0, 0.0, 0.0, 1.652783524857972E9, 0.0, 2022-05-17 12:32:04.857
32.0, 39499.30989734053, 60021.83228991417, -35470.69853194935, 18615.940942280406, 37555.69160648485, 10961.518998327136, 34232.85892401444, 18255.76493212759, -0.032, 1.024, 0.014, 192.0, 0.0, 0.0, 0.0, 0.0, 0.0, 0.0, 0.0, 0.0, 0.0, 1.6527835248579774E9, 0.0, 2022-05-17 12:32:04.857
33.0, 39506.5742142885, 60029.14131035106, -35430.57715065207, 18314.259447367127, 37345.3169876715, 10906.220782544708, 34205.612147523425, 18245.08079827795, -0.032, 1.024, 0.014, 192.0, 0.0, 0.0, 0.0, 0.0, 0.0, 0.0, 0.0, 0.0, 0.0, 1.6527835248579829E9, 0.0, 2022-05-17 12:32:04.857
34.0, 39556.44095616829, 60040.60775525663, -35403.933871261346, 18000.351548236795, 37240.84493408739, 10859.349174421928, 34175.63845820886, 18230.596867870914, -0.032, 1.024, 0.014, 192.0, 0.0, 0.0, 0.0, 0.0, 0.0, 0.0, 0.0, 0.0, 0.0, 1.6527835248579893E9, 0.0, 2022-05-17 12:32:04.857
35.0, 39574.05413079907, 60030.817691185206, -35435.650996643424, 18132.293895756473, 37418.22837808471, 10884.986625312165, 34194.03394389557, 18227.84760330291, -0.032, 1.024, 0.014, 192.0, 0.0, 0.0, 0.0, 0.0, 0.0, 0.0, 0.0, 0.0, 0.0, 1.652783524857995E9, 0.0, 2022-05-17 12:32:04.857
36.0, 39529.66356631083, 59997.44653671343, -35496.31363109513, 18523.158851046428, 37674.66994222045, 10929.466596778226, 34223.13591517638, 18229.83690855943, -0.032, 1.024, 0.014, 192.0, 0.0, 0.0, 0.0, 0.0, 0.0, 0.0, 0.0, 0.0, 0.0, 1.6527835248580005E9, 0.0, 2022-05-17 12:32:04.858
37.0, 39490.65977223632, 60003.056824571715, -35491.59741301506, 18601.07703221763, 37577.66337128441, 10941.31302133954, 34218.24088314067, 18236.43067317375, -0.032, 1.024, 0.014, 192.0, 0.0, 0.0, 0.0, 0.0, 0.0, 0.0, 0.0, 0.0, 0.0, 1.6527835248580055E9, 0.0, 2022-05-17 12:32:04.858
38.0, 39502.215624119715, 60019.70887419092, -35450.09022356156, 18303.687072239765, 37349.27324644008, 10899.470555719205, 34185.94261240275, 18232.161489982784, -0.032, 1.022, 0.014, 192.0, 255.0, 0.0, 31.0, 240.0, 0.0, 112.0, 0.0, 0.0, 0.0, 1.6527835248580112E9, 0.0, 2022-05-17 12:32:04.858
39.0, 39556.28449395711, 60038.32787732219, -35413.74628707723, 18002.452612215595, 37235.56992239594, 10859.215063955196, 34163.814385392, 18228.540507381025, -0.032, 1.022, 0.014, 192.0, 0.0, 0.0, 0.0, 0.0, 0.0, 0.0, 0.0, 0.0, 0.0, 1.6527835248580172E9, 0.0, 2022-05-17 12:32:04.858
40.0, 39575.8422703555, 60022.43578701447, -35450.44785147284, 18139.424102237714, 37422.65402348686, 10878.01288104211, 34196.85026369694, 18224.13721372333, -0.032, 1.022, 0.014, 192.0, 0.0, 0.0, 0.0, 0.0, 0.0, 0.0, 0.0, 0.0, 0.0, 1.6527835248580241E9, 0.0, 2022-05-17 12:32:04.858
41.0, 39556.195086979285, 60013.15981306551, -35489.33988682507, 18533.977095362796, 37671.9430293969, 10950.87956796641, 34230.19906642426, 18235.246030717615, -0.032, 1.022, 0.014, 192.0, 0.0, 0.0, 0.0, 0.0, 0.0, 0.0, 0.0, 0.0, 0.0, 1.6527835248580298E9, 0.0, 2022-05-17 12:32:04.858
42.0, 39511.53630155758, 60012.489260731854, -35482.65671523294, 18620.187773726913, 37579.00447595173, 10977.03110897912, 34231.339005391485, 18253.797978615523, -0.032, 1.022, 0.014, 192.0, 0.0, 0.0, 0.0, 0.0, 0.0, 0.0, 0.0, 0.0, 0.0, 1.652783524858035E9, 0.0, 2022-05-17 12:32:04.858
43.0, 39505.993068932665, 60012.17633630948, -35450.09022356156, 18320.4732323257, 37354.190630220255, 10916.167308827318, 34204.561615534025, 18239.828138330955, -0.032, 1.022, 0.014, 192.0, 0.0, 0.0, 0.0, 0.0, 0.0, 0.0, 0.0, 0.0, 0.0, 1.6527835248580444E9, 0.0, 2022-05-17 12:32:04.858
44.0, 39563.526459160625, 60030.14713885154, -35412.807513810105, 18009.359301252283, 37233.98294853961, 10878.10228801993, 34191.061161883015, 18235.648362117812, -0.032, 1.022, 0.014, 192.0, 0.0, 0.0, 0.0, 0.0, 0.0, 0.0, 0.0, 0.0, 0.0, 1.652783524858049E9, 0.0, 2022-05-17 12:32:04.858
45.0, 39592.06963683005, 60026.950839394434, -35444.256418258716, 18142.218070294628, 37402.917433132825, 10906.891334878366, 34202.7734759776, 18234.955458039698, -0.032, 1.022, 0.014, 192.0, 0.0, 0.0, 0.0, 0.0, 0.0, 0.0, 0.0, 0.0, 0.0, 1.6527835248580532E9, 0.0, 2022-05-17 12:32:04.858
46.0, 39556.619770123936, 60002.49803096033, -35501.92391895341, 18536.27932504169, 37654.82159314413, 10948.465579565238, 34224.85699949944, 18234.08374000594, -0.032, 1.022, 0.014, 192.0, 0.0, 0.0, 0.0, 0.0, 0.0, 0.0, 0.0, 0.0, 0.0, 1.6527835248580585E9, 0.0, 2022-05-17 12:32:04.858
47.0, 39518.55474931654, 60007.370711251584, -35490.23395660328, 18617.72908183683, 37563.93940018885, 10958.79208550359, 34224.6781855438, 18244.633763388847, -0.032, 1.022, 0.014, 192.0, 0.0, 0.0, 0.0, 0.0, 0.0, 0.0, 0.0, 0.0, 0.0, 1.6527835248580635E9, 0.0, 2022-05-17 12:32:04.858
48.0, 39528.54597908807, 60026.54850799424, -35442.53533393566, 18319.556810803035, 37335.63868232235, 10919.050683862053, 34204.15928413383, 18244.343190710926, -0.034, 1.024, 0.014, 192.0, 254.0, 240.0, 32.0, 0.0, 0.0, 112.0, 0.0, 0.0, 0.0, 1.65278352485807E9, 0.0, 2022-05-17 12:32:04.858
49.0, 39568.19797375178, 60033.43284528647, -35421.122362747476, 17992.103754532785, 37217.375602409316, 10873.587235639958, 34178.58888847696, 18233.167318483273, -0.034, 1.024, 0.014, 192.0, 0.0, 0.0, 0.0, 0.0, 0.0, 0.0, 0.0, 0.0, 0.0, 1.6527835248580751E9, 0.0, 2022-05-17 12:32:04.858
50.0, 39591.8461193855, 60022.05580735872, -35453.286523018665, 18113.809003091934, 37391.808616138536, 10886.037157301565, 34184.40034203534, 18223.89134453432, -0.034, 1.024, 0.014, 192.0, 0.0, 0.0, 0.0, 0.0, 0.0, 0.0, 0.0, 0.0, 0.0, 1.652783524858081E9, 0.0, 2022-05-17 12:32:04.858
51.0, 39561.96183704875, 60004.33087400567, -35498.83937821858, 18525.23756328077, 37668.5902677286, 10938.474349793714, 34216.54215056207, 18227.199402713704, -0.034, 1.024, 0.014, 192.0, 0.0, 0.0, 0.0, 0.0, 0.0, 0.0, 0.0, 0.0, 0.0, 1.6527835248580902E9, 0.0, 2022-05-17 12:32:04.858
52.0, 39525.3273278865, 60018.25601080132, -35481.85205243254, 18615.851535302583, 37577.261039884215, 10957.562739558547, 34207.40028707985, 18243.47147267717, -0.034, 1.024, 0.014, 192.0, 0.0, 0.0, 0.0, 0.0, 0.0, 0.0, 0.0, 0.0, 0.0, 1.652783524858096E9, 0.0, 2022-05-17 12:32:04.858
53.0, 39533.70923205724, 60038.26082208882, -35437.03680479965, 18329.235116152184, 37351.955455774725, 10913.060416348031, 34201.320612588, 18247.986525057142, -0.034, 1.024, 0.014, 192.0, 0.0, 0.0, 0.0, 0.0, 0.0, 0.0, 0.0, 0.0, 0.0, 1.6527835248581007E9, 0.0, 2022-05-17 12:32:04.858
54.0, 39579.530308190624, 60051.291889106265, -35407.33133641855, 18009.828687885845, 37235.41346018475, 10858.924491277277, 34191.552900261035, 18233.033208016543, -0.034, 1.024, 0.014, 192.0, 0.0, 0.0, 0.0, 0.0, 0.0, 0.0, 0.0, 0.0, 0.0, 1.652783524858107E9, 0.0, 2022-05-17 12:32:04.858
55.0, 39597.277593288134, 60036.87501393259, -35436.72388037728, 18135.713712658133, 37410.6287849699, 10885.612474156915, 34209.25548186964, 18231.200364971206, -0.034, 1.024, 0.014, 192.0, 0.0, 0.0, 0.0, 0.0, 0.0, 0.0, 0.0, 0.0, 0.0, 1.6527835248581126E9, 0.0, 2022-05-17 12:32:04.858
56.0, 39549.266046198136, 60003.056824571715, -35499.53228229669, 18529.126766815993, 37675.7428259543, 10928.97485840021, 34218.84438024097, 18227.89230679182, -0.034, 1.024, 0.014, 192.0, 0.0, 0.0, 0.0, 0.0, 0.0, 0.0, 0.0, 0.0, 0.0, 1.6527835248581188E9, 0.0, 2022-05-17 12:32:04.858
57.0, 39510.7763422461, 60014.00917935481, -35483.10375012204, 18613.68341609042, 37576.43402533937, 10944.106989396452, 34204.60631902293, 18241.169242998272, -0.034, 1.024, 0.014, 192.0, 0.0, 0.0, 0.0, 0.0, 0.0, 0.0, 0.0, 0.0, 0.0, 1.6527835248581252E9, 0.0, 2022-05-17 12:32:04.858
58.0, 39525.03675520859, 60034.28221157577, -35432.45469718632, 18333.39254062087, 37340.9136940138, 10910.847593646955, 34206.41681032381, 18251.674562892265, -0.036000000000000004, 1.024, 0.012, 192.0, 254.0, 224.0, 32.0, 0.0, 0.0, 96.0, 0.0, 0.0, 0.0, 1.6527835248581316E9, 0.0, 2022-05-17 12:32:04.858
59.0, 39571.282514486615, 60046.374505326094, -35408.42657189686, 18015.32721702185, 37219.32020417693, 10865.853532058421, 34186.07672286948, 18234.307257450495, -0.036000000000000004, 1.024, 0.012, 192.0, 0.0, 0.0, 0.0, 0.0, 0.0, 0.0, 0.0, 0.0, 0.0, 1.652783524858137E9, 0.0, 2022-05-17 12:32:04.858
60.0, 39601.09974159, 60046.329801837186, -35429.28074947366, 18139.53586095999, 37391.47333997171, 10897.794174885055, 34208.18259813578, 18240.453987175704, -0.036000000000000004, 1.024, 0.012, 192.0, 0.0, 0.0, 0.0, 0.0, 0.0, 0.0, 0.0, 0.0, 0.0, 1.6527835248581443E9, 0.0, 2022-05-17 12:32:04.858
61.0, 39566.96862780674, 60023.665132959504, -35479.86274717603, 18542.4260547669, 37665.79629967169, 10953.539425556592, 34246.87346778792, 18247.427731445758, -0.036000000000000004, 1.024, 0.012, 192.0, 0.0, 0.0, 0.0, 0.0, 0.0, 0.0, 0.0, 0.0, 0.0, 1.6527835248581495E9, 0.0, 2022-05-17 12:32:04.858
62.0, 39508.719981756214, 60013.38333051006, -35488.69168623587, 18630.961314554374, 37597.176444193894, 10970.862027509454, 34240.34675840697, 18251.294583236526, -0.036000000000000004, 1.024, 0.012, 192.0, 0.0, 0.0, 0.0, 0.0, 0.0, 0.0, 0.0, 0.0, 0.0, 1.6527835248581553E9, 0.0, 2022-05-17 12:32:04.858
63.0, 39501.947403186256, 60010.72347291988, -35458.449775987836, 18336.72295054471, 37362.68429311327, 10913.082768092487, 34204.494560300656, 18238.64349587482, -0.036000000000000004, 1.024, 0.012, 192.0, 0.0, 0.0, 0.0, 0.0, 0.0, 0.0, 0.0, 0.0, 0.0, 1.65278352485816E9, 0.0, 2022-05-17 12:32:04.858
64.0, 39549.467211898234, 60019.485356746365, -35425.12332500498, 18014.388443754728, 37230.83135257141, 10866.613491369902, 34176.800748920534, 18229.166356225775, -0.036000000000000004, 1.024, 0.012, 192.0, 0.0, 0.0, 0.0, 0.0, 0.0, 0.0, 0.0, 0.0, 0.0, 1.652783524858169E9, 0.0, 2022-05-17 12:32:04.858
65.0, 39587.55458445008, 60025.766196938304, -35436.567418166094, 18129.656389910746, 37388.54526144806, 10901.616323186914, 34205.34392658996, 18241.035132531542, -0.036000000000000004, 1.024, 0.012, 192.0, 0.0, 0.0, 0.0, 0.0, 0.0, 0.0, 0.0, 0.0, 0.0, 1.6527835248581736E9, 0.0, 2022-05-17 12:32:04.858
66.0, 39548.86371479794, 59996.95479833541, -35492.46913104882, 18525.505784214234, 37654.2851512772, 10952.131265655908, 34234.02121472612, 18239.381103441847, -0.036000000000000004, 1.024, 0.012, 192.0, 0.0, 0.0, 0.0, 0.0, 0.0, 0.0, 0.0, 0.0, 0.0, 1.6527835248581789E9, 0.0, 2022-05-17 12:32:04.858
67.0, 39500.472188052205, 59996.79833612423, -35489.6751629919, 18628.614381386564, 37579.74208351876, 10967.643376307891, 34222.7782872651, 18248.27709773506, -0.036000000000000004, 1.024, 0.012, 192.0, 0.0, 0.0, 0.0, 0.0, 0.0, 0.0, 0.0, 0.0, 0.0, 1.6527835248581836E9, 0.0, 2022-05-17 12:32:04.858
68.0, 39503.601432275944, 60011.77400490928, -35449.39731948344, 18342.757921547643, 37352.24602845264, 10925.175061842807, 34206.41681032381, 18251.786321614545, -0.034, 1.018, 0.018000000000000002, 192.0, 254.0, 240.0, 31.0, 208.0, 0.0, 144.0, 0.0, 0.0, 0.0, 1.6527835248581908E9, 0.0, 2022-05-17 12:32:04.858
69.0, 39546.00269150766, 60020.78175792477, -35422.53052264816, 18010.342778008315, 37224.37169842383, 10874.034270529064, 34187.39547579235, 18241.07983602045, -0.034, 1.018, 0.018000000000000002, 192.0, 0.0, 0.0, 0.0, 0.0, 0.0, 0.0, 0.0, 0.0, 0.0, 1.6527835248581977E9, 0.0, 2022-05-17 12:32:04.858
70.0, 39585.85585187148, 60027.867260917104, -35441.037767057154, 18120.760395617534, 37392.769741150114, 10898.710596407724, 34208.964909191716, 18246.913641323288, -0.034, 1.018, 0.018000000000000002, 192.0, 0.0, 0.0, 0.0, 0.0, 0.0, 0.0, 0.0, 0.0, 0.0, 1.6527835248582027E9, 0.0, 2022-05-17 12:32:04.858
71.0, 39560.106642258965, 60015.08206308867, -35490.79275021467, 18528.187993548872, 37668.702026450876, 10954.277033123617, 34242.85015378596, 18252.099246036916, -0.034, 1.018, 0.018000000000000002, 192.0, 0.0, 0.0, 0.0, 0.0, 0.0, 0.0, 0.0, 0.0, 0.0, 1.652783524858208E9, 0.0, 2022-05-17 12:32:04.858
72.0, 39512.698592269255, 60016.892554389546, -35487.663505990924, 18629.731968609332, 37585.19590916585, 10980.138001458407, 34236.0328717271, 18264.81738863199, -0.034, 1.018, 0.018000000000000002, 192.0, 0.0, 0.0, 0.0, 0.0, 0.0, 0.0, 0.0, 0.0, 0.0, 1.6527835248582132E9, 0.0, 2022-05-17 12:32:04.858
73.0, 39515.38080160389, 60028.582516739676, -35450.40314798393, 18342.601459336456, 37347.37334816138, 10935.613326503435, 34204.18163587828, 18257.106036794907, -0.034, 1.018, 0.018000000000000002, 192.0, 0.0, 0.0, 0.0, 0.0, 0.0, 0.0, 0.0, 0.0, 0.0, 1.6527835248582184E9, 0.0, 2022-05-17 12:32:04.858
74.0, 39565.560467906056, 60043.08879889116, -35423.82692382657, 18017.27181878946, 37225.2881199465, 10888.495849191648, 34182.05340886753, 18246.198385500717, -0.034, 1.018, 0.018000000000000002, 192.0, 0.0, 0.0, 0.0, 0.0, 0.0, 0.0, 0.0, 0.0, 0.0, 1.6527835248582244E9, 0.0, 2022-05-17 12:32:04.858
75.0, 39592.8966513749, 60037.41145579952, -35456.30400852013, 18118.05583453844, 37391.20511903824, 10898.800003385544, 34201.141798632365, 18238.442330174727, -0.034, 1.018, 0.018000000000000002, 192.0, 0.0, 0.0, 0.0, 0.0, 0.0, 0.0, 0.0, 0.0, 0.0, 1.6527835248582292E9, 0.0, 2022-05-17 12:32:04.858
76.0, 39573.16006102086, 60022.79341492575, -35499.46522706333, 18516.453327709834, 37653.72635766582, 10968.425687363826, 34232.70246180325, 18251.00401055861, -0.034, 1.018, 0.018000000000000002, 192.0, 0.0, 0.0, 0.0, 0.0, 0.0, 0.0, 0.0, 0.0, 0.0, 1.652783524858234E9, 0.0, 2022-05-17 12:32:04.858
77.0, 39531.831685523, 60019.82063291319, -35499.95696544134, 18624.032273773228, 37587.0734557001, 10983.714280571257, 34229.10383094595, 18260.23528101865, -0.034, 1.018, 0.018000000000000002, 192.0, 0.0, 0.0, 0.0, 0.0, 0.0, 0.0, 0.0, 0.0, 0.0, 1.6527835248582392E9, 0.0, 2022-05-17 12:32:04.858
78.0, 39552.73056658871, 60041.1218453791, -35449.55378169462, 18359.745247333678, 37363.198383235744, 10938.541405027081, 34208.38376383588, 18261.46462696369, -0.028, 1.016, 0.008, 192.0, 255.0, 32.0, 31.0, 192.0, 0.0, 64.0, 0.0, 0.0, 0.0, 1.652783524858244E9, 0.0, 2022-05-17 12:32:04.858
79.0, 39590.21444204026, 60039.668981989504, -35430.82301984108, 18022.680940947645, 37236.106364262865, 10873.855456573423, 34176.309010542514, 18236.40832142929, -0.028, 1.016, 0.008, 192.0, 0.0, 0.0, 0.0, 0.0, 0.0, 0.0, 0.0, 0.0, 0.0, 1.65278352485825E9, 0.0, 2022-05-17 12:32:04.858
80.0, 39617.014183642175, 60024.581554482174, -35454.24764803024, 18111.73029085759, 37392.903851616844, 10893.636750416368, 34182.94747864574, 18237.302391207504, -0.028, 1.016, 0.008, 192.0, 0.0, 0.0, 0.0, 0.0, 0.0, 0.0, 0.0, 0.0, 0.0, 1.6527835248582597E9, 0.0, 2022-05-17 12:32:04.858
81.0, 39607.425285270845, 60018.79245266825, -35484.377799555994, 18526.489260970266, 37653.27932277672, 10971.487876354204, 34222.934749476284, 18260.05646706301, -0.028, 1.016, 0.008, 192.0, 0.0, 0.0, 0.0, 0.0, 0.0, 0.0, 0.0, 0.0, 0.0, 1.6527835248582647E9, 0.0, 2022-05-17 12:32:04.858
82.0, 39566.02985453962, 60018.32306603469, -35484.71307572282, 18651.055532819693, 37586.89464174445, 10983.60252184898, 34228.813258268034, 18270.427676490268, -0.028, 1.016, 0.008, 192.0, 0.0, 0.0, 0.0, 0.0, 0.0, 0.0, 0.0, 0.0, 0.0, 1.6527835248582697E9, 0.0, 2022-05-17 12:32:04.858
83.0, 39573.47298544324, 60031.421188285494, -35443.09412754705, 18370.988174794697, 37365.90294431483, 10937.177948615306, 34200.38183932088, 18264.727981654167, -0.028, 1.016, 0.008, 192.0, 0.0, 0.0, 0.0, 0.0, 0.0, 0.0, 0.0, 0.0, 0.0, 1.6527835248582747E9, 0.0, 2022-05-17 12:32:04.858
84.0, 39620.299890077105, 60042.84292970216, -35411.131132975956, 18040.160005111695, 37238.408593941764, 10885.411308456816, 34177.225432065185, 18251.406341958802, -0.028, 1.016, 0.008, 192.0, 0.0, 0.0, 0.0, 0.0, 0.0, 0.0, 0.0, 0.0, 0.0, 1.6527835248582795E9, 0.0, 2022-05-17 12:32:04.858
85.0, 39644.41742234438, 60031.152967352034, -35439.02611005618, 18132.78563413449, 37389.50638645964, 10900.275218519595, 34197.364353819416, 18250.735789625145, -0.028, 1.016, 0.008, 192.0, 0.0, 0.0, 0.0, 0.0, 0.0, 0.0, 0.0, 0.0, 0.0, 1.6527835248582847E9, 0.0, 2022-05-17 12:32:04.858
86.0, 39616.656555730886, 60007.63893218505, -35492.69264849337, 18538.268630298215, 37652.80993614315, 10958.188588403296, 34210.59658653696, 18253.88738559334, -0.028, 1.016, 0.008, 192.0, 0.0, 0.0, 0.0, 0.0, 0.0, 0.0, 0.0, 0.0, 0.0, 1.652783524858426E9, 0.0, 2022-05-17 12:32:04.858
87.0, 39578.30096224558, 60013.36097876561, -35486.97060191281, 18663.68426843694, 37587.78871152267, 10980.160353202862, 34194.25746134013, 18265.66675492129, -0.028, 1.016, 0.008, 192.0, 0.0, 0.0, 0.0, 0.0, 0.0, 0.0, 0.0, 0.0, 0.0, 1.6527835248584323E9, 0.0, 2022-05-17 12:32:04.858
88.0, 39589.99092459571, 60030.46006327392, -35446.0669095596, 18390.188323281804, 37368.18282224928, 10937.669686993324, 34176.48782449816, 18262.112827552894, -0.026000000000000002, 1.022, 0.002, 192.0, 255.0, 48.0, 31.0, 240.0, 0.0, 16.0, 0.0, 0.0, 0.0, 1.6527835248584373E9, 0.0, 2022-05-17 12:32:04.858
89.0, 39641.15406765391, 60046.799188470744, -35414.57330162207, 18052.38640932875, 37242.118983521344, 10885.701881134735, 34159.03111207856, 18251.160472769796, -0.026000000000000002, 1.022, 0.002, 192.0, 0.0, 0.0, 0.0, 0.0, 0.0, 0.0, 0.0, 0.0, 0.0, 1.652783524858442E9, 0.0, 2022-05-17 12:32:04.858
90.0, 39668.110271467005, 60042.619412257605, -35439.33903447855, 18138.462977226136, 37387.8747091144, 10893.614398671914, 34182.09811235644, 18246.913641323288, -0.026000000000000002, 1.022, 0.002, 192.0, 0.0, 0.0, 0.0, 0.0, 0.0, 0.0, 0.0, 0.0, 0.0, 1.65278352485845E9, 0.0, 2022-05-17 12:32:04.858
91.0, 39639.94707345332, 60019.55241197973, -35496.693610750866, 18540.57085997711, 37653.01110184325, 10936.194471859273, 34209.7248685032, 18242.353885454402, -0.026000000000000002, 1.022, 0.002, 192.0, 0.0, 0.0, 0.0, 0.0, 0.0, 0.0, 0.0, 0.0, 0.0, 1.652783524858456E9, 0.0, 2022-05-17 12:32:04.858
92.0, 39599.87039564495, 60023.039284114755, -35495.710133994835, 18645.624058917056, 37571.114310159006, 10953.271204623128, 34194.972717162695, 18248.56767041298, -0.026000000000000002, 1.022, 0.002, 192.0, 0.0, 0.0, 0.0, 0.0, 0.0, 0.0, 0.0, 0.0, 0.0, 1.652783524858462E9, 0.0, 2022-05-17 12:32:04.858
93.0, 39616.589500497525, 60051.850682717646, -35443.58586592506, 18376.665517886344, 37349.5191156291, 10918.626000717402, 34189.98827814916, 18255.004972816107, -0.026000000000000002, 1.022, 0.002, 192.0, 0.0, 0.0, 0.0, 0.0, 0.0, 0.0, 0.0, 0.0, 0.0, 1.6527835248584666E9, 0.0, 2022-05-17 12:32:04.858
94.0, 39661.270637663685, 60061.23841538888, -35417.546083634625, 18042.015199901485, 37221.37656466682, 10864.937110535755, 34166.40718774882, 18240.163414497783, -0.026000000000000002, 1.022, 0.002, 192.0, 0.0, 0.0, 0.0, 0.0, 0.0, 0.0, 0.0, 0.0, 0.0, 1.6527835248584716E9, 0.0, 2022-05-17 12:32:04.858
95.0, 39693.211280490315, 60055.53872055277, -35439.49549668974, 18118.949904316654, 37364.941819303254, 10886.48419219067, 34181.405208278324, 18244.589059899936, -0.026000000000000002, 1.022, 0.002, 192.0, 0.0, 0.0, 0.0, 0.0, 0.0, 0.0, 0.0, 0.0, 0.0, 1.6527835248584774E9, 0.0, 2022-05-17 12:32:04.858
96.0, 39668.98198950076, 60035.51155752082, -35488.15524436894, 18515.313388742612, 37649.188953541394, 10948.644393520879, 34225.54990357756, 18254.692048393732, -0.026000000000000002, 1.022, 0.002, 192.0, 0.0, 0.0, 0.0, 0.0, 0.0, 0.0, 0.0, 0.0, 0.0, 1.6527835248584828E9, 0.0, 2022-05-17 12:32:04.858
97.0, 39621.66334648888, 60026.59321148315, -35494.100808394054, 18640.796082114706, 37597.176444193894, 10959.417934348337, 34220.58781630848, 18258.670658906776, -0.026000000000000002, 1.022, 0.002, 192.0, 0.0, 0.0, 0.0, 0.0, 0.0, 0.0, 0.0, 0.0, 0.0, 1.6527835248584888E9, 0.0, 2022-05-17 12:32:04.858
98.0, 39624.81494245707, 60035.39979879854, -35455.946380608846, 18355.67722984281, 37366.6182001374, 10912.769843670112, 34189.40713279333, 18253.574461170967, -0.026000000000000002, 1.022, 0.004, 192.0, 255.0, 48.0, 31.0, 240.0, 0.0, 32.0, 0.0, 0.0, 0.0, 1.6527835248584964E9, 0.0, 2022-05-17 12:32:04.858
99.0, 39674.01113200321, 60046.62037451511, -35420.563569136095, 18013.404966998693, 37227.8362188144, 10870.569750138493, 34170.452853495226, 18247.248917490117, -0.026000000000000002, 1.022, 0.004, 192.0, 0.0, 0.0, 0.0, 0.0, 0.0, 0.0, 0.0, 0.0, 0.0, 1.652783524858502E9, 0.0, 2022-05-17 12:32:04.858
100.0, 39709.39394347596, 60037.1208831216, -35437.81911585559, 18094.474744138093, 37379.11282528792, 10888.67466314729, 34191.30703107203, 18243.672638377266, -0.026000000000000002, 1.022, 0.004, 192.0, 0.0, 0.0, 0.0, 0.0, 0.0, 0.0, 0.0, 0.0, 0.0, 1.652783524858507E9, 0.0, 2022-05-17 12:32:04.858
101.0, 39685.14230074195, 60010.522307219784, -35491.39624731496, 18490.27943495267, 37663.672883948435, 10943.615251018437, 34213.41290633832, 18245.32666746696, -0.026000000000000002, 1.022, 0.004, 192.0, 0.0, 0.0, 0.0, 0.0, 0.0, 0.0, 0.0, 0.0, 0.0, 1.6527835248585136E9, 0.0, 2022-05-17 12:32:04.858
102.0, 39638.114230407984, 60007.08013857367, -35498.77232298521, 18620.76891908275, 37613.35910717954, 10960.446114593282, 34205.36627833441, 18255.51906293858, -0.026000000000000002, 1.022, 0.004, 192.0, 0.0, 0.0, 0.0, 0.0, 0.0, 0.0, 0.0, 0.0, 0.0, 1.6527835248585188E9, 0.0, 2022-05-17 12:32:04.858
103.0, 39653.69339629333, 60030.77298769629, -35448.21267702731, 18353.97849726421, 37382.53264218958, 10919.073035606509, 34179.57236523299, 18254.7591036271, -0.026000000000000002, 1.022, 0.004, 192.0, 0.0, 0.0, 0.0, 0.0, 0.0, 0.0, 0.0, 0.0, 0.0, 1.652783524858524E9, 0.0, 2022-05-17 12:32:04.858
104.0, 39702.06257129462, 60038.95372616693, -35416.24968245622, 18018.121185078762, 37232.93241655021, 10869.608625126913, 34161.80272839102, 18241.459815676193, -0.026000000000000002, 1.022, 0.004, 192.0, 0.0, 0.0, 0.0, 0.0, 0.0, 0.0, 0.0, 0.0, 0.0, 1.6527835248585308E9, 0.0, 2022-05-17 12:32:04.858
105.0, 39735.54548448867, 60033.9692871534, -35438.936703078354, 18106.745851844054, 37369.52392691659, 10887.892352091356, 34178.14185358785, 18243.784397099542, -0.026000000000000002, 1.022, 0.004, 192.0, 0.0, 0.0, 0.0, 0.0, 0.0, 0.0, 0.0, 0.0, 0.0, 1.652783525336357E9, 0.0, 2022-05-17 12:32:05.336
106.0, 39707.15876903043, 60017.026664856276, -35493.29614559366, 18517.86148761052, 37646.99848258477, 10933.69107648028, 34206.01447892362, 18243.963211055187, -0.026000000000000002, 1.022, 0.004, 192.0, 0.0, 0.0, 0.0, 0.0, 0.0, 0.0, 0.0, 0.0, 0.0, 1.6527835253364975E9, 0.0, 2022-05-17 12:32:05.336
107.0, 39679.6661233504, 60037.18793835497, -35476.152357596446, 18660.063285835182, 37600.10452271754, 10975.153562444873, 34215.06693542802, 18269.66771717879, -0.032, 1.022, 0.0, 192.0, 255.0, 0.0, 31.0, 240.0, 0.0, 0.0, 0.0, 0.0, 0.0, 1.6527835253365028E9, 0.0, 2022-05-17 12:32:05.336
108.0, 39676.983914015764, 60045.03340065878, -35444.21171476981, 18391.21650352675, 37375.380083963886, 10920.905878651844, 34190.502368271635, 18256.077856549964, -0.032, 1.022, 0.0, 192.0, 0.0, 0.0, 0.0, 0.0, 0.0, 0.0, 0.0, 0.0, 0.0, 1.652783525336508E9, 0.0, 2022-05-17 12:32:05.336
109.0, 39720.27924302569, 60052.610642029125, -35415.310909189095, 18038.61773474428, 37227.858570558856, 10860.176188966774, 34165.401359248324, 18238.151757496806, -0.032, 1.022, 0.0, 192.0, 0.0, 0.0, 0.0, 0.0, 0.0, 0.0, 0.0, 0.0, 0.0, 1.6527835253365128E9, 0.0, 2022-05-17 12:32:05.336
110.0, 39748.084813128095, 60041.770045968304, -35439.60725541202, 18111.05973852393, 37369.72509261669, 10870.145066993842, 34177.47130125419, 18237.011818529587, -0.032, 1.022, 0.0, 192.0, 0.0, 0.0, 0.0, 0.0, 0.0, 0.0, 0.0, 0.0, 0.0, 1.652783525336518E9, 0.0, 2022-05-17 12:32:05.336
111.0, 39729.24229255227, 60027.82255742819, -35486.88119493499, 18520.09666205605, 37652.96639835434, 10930.807701445545, 34205.455685312234, 18246.556013412002, -0.032, 1.022, 0.0, 192.0, 0.0, 0.0, 0.0, 0.0, 0.0, 0.0, 0.0, 0.0, 0.0, 1.6527835253365228E9, 0.0, 2022-05-17 12:32:05.336
112.0, 39682.23657396276, 60024.514499248806, -35488.445817046864, 18655.45882647739, 37605.513644875726, 10955.461675579749, 34194.995068907156, 18252.18865301474, -0.032, 1.022, 0.0, 192.0, 0.0, 0.0, 0.0, 0.0, 0.0, 0.0, 0.0, 0.0, 0.0, 1.6527835253365276E9, 0.0, 2022-05-17 12:32:05.336
113.0, 39688.80798683262, 60044.94399368096, -35440.970711823786, 18385.24858775718, 37365.94764780375, 10920.347085040461, 34176.64428670934, 18254.490882693637, -0.032, 1.022, 0.0, 192.0, 0.0, 0.0, 0.0, 0.0, 0.0, 0.0, 0.0, 0.0, 0.0, 1.6527835253365326E9, 0.0, 2022-05-17 12:32:05.336
114.0, 39721.35212675955, 60040.69716223445, -35421.39058368094, 18033.32037130837, 37224.08112574591, 10858.276290688073, 34150.85037360792, 18238.26351621908, -0.032, 1.022, 0.0, 192.0, 0.0, 0.0, 0.0, 0.0, 0.0, 0.0, 0.0, 0.0, 0.0, 1.6527835253365376E9, 0.0, 2022-05-17 12:32:05.336
115.0, 39743.72622295931, 60029.051903373234, -35437.99792981123, 18088.77504930199, 37359.19742097824, 10864.981814024666, 34157.13121379986, 18233.435539416736, -0.032, 1.022, 0.0, 192.0, 0.0, 0.0, 0.0, 0.0, 0.0, 0.0, 0.0, 0.0, 0.0, 1.6527835253365424E9, 0.0, 2022-05-17 12:32:05.336
116.0, 39716.971184846305, 60013.1151095766, -35482.701418721845, 18494.70508035482, 37643.7351278943, 10920.816471674023, 34191.57525200549, 18241.169242998272, -0.032, 1.022, 0.0, 192.0, 0.0, 0.0, 0.0, 0.0, 0.0, 0.0, 0.0, 0.0, 0.0, 1.652783525336547E9, 0.0, 2022-05-17 12:32:05.336
117.0, 39661.695320808336, 60010.030568841765, -35483.08139837759, 18634.671704133954, 37595.54476684866, 10935.993306159176, 34188.848339181946, 18247.919469823777, -0.046, 1.028, 0.002, 192.0, 254.0, 144.0, 32.0, 32.0, 0.0, 16.0, 0.0, 0.0, 0.0, 1.6527835253365517E9, 0.0, 2022-05-17 12:32:05.336
118.0, 39652.84403000403, 60024.73801669336, -35445.06108105911, 18376.307889975058, 37371.58028740648, 10895.380186483882, 34164.216716792194, 18247.383027956846, -0.046, 1.028, 0.002, 192.0, 0.0, 0.0, 0.0, 0.0, 0.0, 0.0, 0.0, 0.0, 0.0, 1.652783525336557E9, 0.0, 2022-05-17 12:32:05.336
119.0, 39696.832263092074, 60045.972173925904, -35401.09519971552, 18029.833499173343, 37228.350308936875, 10855.459970886704, 34146.33532122795, 18244.36554245538, -0.046, 1.028, 0.002, 192.0, 0.0, 0.0, 0.0, 0.0, 0.0, 0.0, 0.0, 0.0, 0.0, 1.6527835253365617E9, 0.0, 2022-05-17 12:32:05.336
120.0, 39724.324908772105, 60043.33466808018, -35413.232196954756, 18103.281331453483, 37369.568630405505, 10871.799096083534, 34168.91058312781, 18248.210042501694, -0.046, 1.028, 0.002, 192.0, 0.0, 0.0, 0.0, 0.0, 0.0, 0.0, 0.0, 0.0, 0.0, 1.6527835253365667E9, 0.0, 2022-05-17 12:32:05.336
121.0, 39686.46105366481, 60018.74774917934, -35466.87638364749, 18515.022816064695, 37661.303599036175, 10935.792140459078, 34194.95036541824, 18256.77076062808, -0.046, 1.028, 0.002, 192.0, 0.0, 0.0, 0.0, 0.0, 0.0, 0.0, 0.0, 0.0, 0.0, 1.6527835253365717E9, 0.0, 2022-05-17 12:32:05.336
122.0, 39623.69735523431, 60015.23852529986, -35475.5265087517, 18652.88837586503, 37621.85277007255, 10955.796951746577, 34177.73952218766, 18255.608469916402, -0.046, 1.028, 0.002, 192.0, 0.0, 0.0, 0.0, 0.0, 0.0, 0.0, 0.0, 0.0, 0.0, 1.6527835253365765E9, 0.0, 2022-05-17 12:32:05.336
123.0, 39609.593404483014, 60026.01206612731, -35440.03193855667, 18382.186398766804, 37384.25372651264, 10907.718349423212, 34151.208001519204, 18242.666809876777, -0.046, 1.028, 0.002, 192.0, 0.0, 0.0, 0.0, 0.0, 0.0, 0.0, 0.0, 0.0, 0.0, 1.6527835253365812E9, 0.0, 2022-05-17 12:32:05.336
124.0, 39635.36496583998, 60030.99650514084, -35412.85221729901, 18029.23000207305, 37233.55826539496, 10851.235491184652, 34125.279977951046, 18227.691141091724, -0.046, 1.028, 0.002, 192.0, 0.0, 0.0, 0.0, 0.0, 0.0, 0.0, 0.0, 0.0, 0.0, 1.6527835253365862E9, 0.0, 2022-05-17 12:32:05.336
125.0, 39647.23374214575, 60023.37456028158, -35436.25449374372, 18083.522389354992, 37361.74551984615, 10867.708726848214, 34142.02143454808, 18233.5025946501, -0.046, 1.028, 0.002, 192.0, 0.0, 0.0, 0.0, 0.0, 0.0, 0.0, 0.0, 0.0, 0.0, 1.6527835253365912E9, 0.0, 2022-05-17 12:32:05.336
126.0, 39603.55843348008, 60000.7098914039, -35491.19508161487, 18487.016080262194, 37653.16756405444, 10929.757169456145, 34169.42467325028, 18239.314048208482, -0.046, 1.028, 0.002, 192.0, 0.0, 0.0, 0.0, 0.0, 0.0, 0.0, 0.0, 0.0, 0.0, 1.652783525336596E9, 0.0, 2022-05-17 12:32:05.336
127.0, 39540.99590074967, 59992.75267037781, -35498.21352937383, 18632.30241922169, 37619.68465086039, 10952.175969144819, 34158.94170510074, 18242.599754643412, -0.05, 1.026, 0.006, 192.0, 254.0, 112.0, 32.0, 16.0, 0.0, 48.0, 0.0, 0.0, 0.0, 1.6527835253366008E9, 0.0, 2022-05-17 12:32:05.336
128.0, 39530.62469132241, 60001.223981526375, -35457.73452016527, 18363.120360746427, 37386.64536316936, 10907.986570356676, 34133.728937355154, 18240.07400751996, -0.05, 1.026, 0.006, 192.0, 0.0, 0.0, 0.0, 0.0, 0.0, 0.0, 0.0, 0.0, 0.0, 1.6527835253366191E9, 0.0, 2022-05-17 12:32:05.336
129.0, 39574.3894069659, 60018.74774917934, -35420.988252280746, 18021.496298491515, 37236.93337880771, 10865.585311124958, 34112.919463267266, 18239.872841819866, -0.05, 1.026, 0.006, 192.0, 0.0, 0.0, 0.0, 0.0, 0.0, 0.0, 0.0, 0.0, 0.0, 1.6527835253366244E9, 0.0, 2022-05-17 12:32:05.336
130.0, 39595.57886070953, 60006.70015891793, -35442.87061010249, 18076.839217762856, 37361.656112868324, 10867.52991289257, 34124.028280261555, 18234.57547838396, -0.05, 1.026, 0.006, 192.0, 0.0, 0.0, 0.0, 0.0, 0.0, 0.0, 0.0, 0.0, 0.0, 1.6527835253366292E9, 0.0, 2022-05-17 12:32:05.336
131.0, 39571.61779065344, 59987.70117613092, -35485.8753664345, 18482.4116209044, 37653.525191965724, 10916.21201231623, 34166.83187089347, 18241.14689125382, -0.05, 1.026, 0.006, 192.0, 0.0, 0.0, 0.0, 0.0, 0.0, 0.0, 0.0, 0.0, 0.0, 1.6527835253366342E9, 0.0, 2022-05-17 12:32:05.336
132.0, 39517.951252216255, 59984.01313829579, -35486.411808301425, 18638.31503848017, 37638.41541271393, 10932.707599724246, 34165.84839413743, 18246.779530856555, -0.05, 1.026, 0.006, 192.0, 0.0, 0.0, 0.0, 0.0, 0.0, 0.0, 0.0, 0.0, 0.0, 1.6527835253366392E9, 0.0, 2022-05-17 12:32:05.336
133.0, 39503.17674913129, 59993.624388411576, -35451.34192125105, 18385.78502962411, 37413.668622215824, 10903.180945298785, 34130.42087917577, 18249.528795424558, -0.05, 1.026, 0.006, 192.0, 0.0, 0.0, 0.0, 0.0, 0.0, 0.0, 0.0, 0.0, 0.0, 1.652783525336644E9, 0.0, 2022-05-17 12:32:05.336
134.0, 39529.261234910635, 59993.93731283395, -35424.22925522676, 18023.41854851467, 37254.45714646067, 10843.904119003311, 34101.56477708397, 18232.720283594168, -0.05, 1.026, 0.006, 192.0, 0.0, 0.0, 0.0, 0.0, 0.0, 0.0, 0.0, 0.0, 0.0, 1.6527835253366487E9, 0.0, 2022-05-17 12:32:05.336
135.0, 39558.25144746917, 59994.54080993424, -35434.95809256531, 18070.848950248834, 37362.25960996862, 10848.687392316746, 34120.09437323742, 18228.160527725286, -0.05, 1.026, 0.006, 192.0, 0.0, 0.0, 0.0, 0.0, 0.0, 0.0, 0.0, 0.0, 0.0, 1.6527835253366537E9, 0.0, 2022-05-17 12:32:05.336
136.0, 39533.82099077952, 59971.809085823195, -35484.109578622534, 18479.41648714739, 37663.40466301497, 10918.044855361564, 34164.88726912585, 18240.722208109168, -0.05, 1.026, 0.006, 192.0, 0.0, 0.0, 0.0, 0.0, 0.0, 0.0, 0.0, 0.0, 0.0, 1.6527835253366585E9, 0.0, 2022-05-17 12:32:05.336
137.0, 39485.094187866955, 59969.01511776628, -35487.9764304133, 18627.96618079736, 37639.37653772552, 10938.183777115795, 34155.834812621455, 18249.305277980005, -0.054, 1.018, 0.006, 192.0, 254.0, 80.0, 31.0, 208.0, 0.0, 48.0, 0.0, 0.0, 0.0, 1.6527835253366632E9, 0.0, 2022-05-17 12:32:05.336
138.0, 39480.31091455351, 59982.984958050845, -35446.11161304851, 18373.938605062798, 37417.73663970669, 10902.10806156493, 34135.494725167126, 18251.13812102534, -0.054, 1.018, 0.006, 192.0, 0.0, 0.0, 0.0, 0.0, 0.0, 0.0, 0.0, 0.0, 0.0, 1.652783525336668E9, 0.0, 2022-05-17 12:32:05.336
139.0, 39526.891949998375, 59994.71962388988, -35406.236100940245, 18016.310693777883, 37255.23945751661, 10856.689316831746, 34116.09341097992, 18244.812577344488, -0.054, 1.018, 0.006, 192.0, 0.0, 0.0, 0.0, 0.0, 0.0, 0.0, 0.0, 0.0, 0.0, 1.652783525336673E9, 0.0, 2022-05-17 12:32:05.336
140.0, 39565.98515105071, 59996.17248727948, -35417.88135980146, 18065.77510425748, 37368.40633969383, 10868.602796626425, 34141.17206825877, 18254.535586182545, -0.054, 1.018, 0.006, 192.0, 0.0, 0.0, 0.0, 0.0, 0.0, 0.0, 0.0, 0.0, 0.0, 1.652783525336678E9, 0.0, 2022-05-17 12:32:05.336
141.0, 39545.086269985, 59970.51268464478, -35479.63922973147, 18470.721658554277, 37667.584439228114, 10922.604611230447, 34175.32553378648, 18253.619164659878, -0.054, 1.018, 0.006, 192.0, 0.0, 0.0, 0.0, 0.0, 0.0, 0.0, 0.0, 0.0, 0.0, 1.6527835253366828E9, 0.0, 2022-05-17 12:32:05.336
142.0, 39490.34684781395, 59958.86742578357, -35493.29614559366, 18620.38893942701, 37646.77496514022, 10943.190567873784, 34169.5140802281, 18253.149778026316, -0.054, 1.018, 0.006, 192.0, 0.0, 0.0, 0.0, 0.0, 0.0, 0.0, 0.0, 0.0, 0.0, 1.6527835253366876E9, 0.0, 2022-05-17 12:32:05.336
143.0, 39478.321609296996, 59968.18810322143, -35446.67040665989, 18373.15629400686, 37416.01555538363, 10916.7261024387, 34143.63076014886, 18258.894176351332, -0.054, 1.018, 0.006, 192.0, 0.0, 0.0, 0.0, 0.0, 0.0, 0.0, 0.0, 0.0, 0.0, 1.6527835253366926E9, 0.0, 2022-05-17 12:32:05.336
144.0, 39528.74714478817, 59985.577760407665, -35401.02814448215, 18033.298019563917, 37254.56890518295, 10874.324843206983, 34126.59873087391, 18260.816426374487, -0.054, 1.018, 0.006, 192.0, 0.0, 0.0, 0.0, 0.0, 0.0, 0.0, 0.0, 0.0, 0.0, 1.6527835253366976E9, 0.0, 2022-05-17 12:32:05.336
145.0, 39570.16492726385, 59987.34354821963, -35426.68794711685, 18070.692488037646, 37372.9213920738, 10884.852514845434, 34136.6570158788, 18258.402437973313, -0.054, 1.018, 0.006, 192.0, 0.0, 0.0, 0.0, 0.0, 0.0, 0.0, 0.0, 0.0, 0.0, 1.6527835253367023E9, 0.0, 2022-05-17 12:32:05.336
146.0, 39540.01242399364, 59956.833417038135, -35487.529395524194, 18462.831492761554, 37669.126709595526, 10928.572527000015, 34158.65113242282, 18247.13715876784, -0.054, 1.018, 0.006, 192.0, 0.0, 0.0, 0.0, 0.0, 0.0, 0.0, 0.0, 0.0, 0.0, 1.652783525336707E9, 0.0, 2022-05-17 12:32:05.336
147.0, 39502.19327237526, 59968.47867589935, -35483.70724722234, 18633.151785510992, 37648.004311085264, 10957.383925602904, 34152.817327119985, 18258.17892052876, -0.052000000000000005, 1.02, 0.014, 192.0, 254.0, 96.0, 31.0, 224.0, 0.0, 112.0, 0.0, 0.0, 0.0, 1.652783525336712E9, 0.0, 2022-05-17 12:32:05.336
148.0, 39505.993068932665, 59993.71379538939, -35440.18840076785, 18384.622738912432, 37411.0311163701, 10927.521995010615, 34128.632739619345, 18260.972888585675, -0.052000000000000005, 1.02, 0.014, 192.0, 0.0, 0.0, 0.0, 0.0, 0.0, 0.0, 0.0, 0.0, 0.0, 1.652783525336717E9, 0.0, 2022-05-17 12:32:05.336
149.0, 39548.46138339775, 60007.34835950713, -35410.214711453285, 18025.51961249347, 37246.589332412404, 10863.685412846258, 34104.716373052164, 18246.71247562319, -0.052000000000000005, 1.02, 0.014, 192.0, 0.0, 0.0, 0.0, 0.0, 0.0, 0.0, 0.0, 0.0, 0.0, 1.6527835253367217E9, 0.0, 2022-05-17 12:32:05.336
150.0, 39581.87724135843, 60004.01794958329, -35425.50330466071, 18059.494264065535, 37353.34126393095, 10870.547398394037, 34117.81449530298, 18246.019571545075, -0.052000000000000005, 1.02, 0.014, 192.0, 0.0, 0.0, 0.0, 0.0, 0.0, 0.0, 0.0, 0.0, 0.0, 1.652783525336727E9, 0.0, 2022-05-17 12:32:05.336
151.0, 39559.21257248075, 59980.123934760566, -35478.83456693108, 18470.69930680982, 37654.12868906602, 10926.806739188045, 34163.4120539918, 18256.815464116986, -0.052000000000000005, 1.02, 0.014, 192.0, 0.0, 0.0, 0.0, 0.0, 0.0, 0.0, 0.0, 0.0, 0.0, 1.6527835253367314E9, 0.0, 2022-05-17 12:32:05.336
152.0, 39501.20979561923, 59966.73523983184, -35493.609070016035, 18638.717369880364, 37650.172430297425, 10942.140035884386, 34160.99806559063, 18260.168225785284, -0.052000000000000005, 1.02, 0.014, 192.0, 0.0, 0.0, 0.0, 0.0, 0.0, 0.0, 0.0, 0.0, 0.0, 1.6527835253367362E9, 0.0, 2022-05-17 12:32:05.336
153.0, 39503.31085959803, 59985.66716738548, -35444.14465953644, 18388.53429419211, 37410.539377992085, 10907.047797089554, 34134.444193177726, 18257.95540308421, -0.052000000000000005, 1.02, 0.014, 192.0, 0.0, 0.0, 0.0, 0.0, 0.0, 0.0, 0.0, 0.0, 0.0, 1.6527835253367407E9, 0.0, 2022-05-17 12:32:05.336
