%OpenBCI Raw EEG Data
%Number of channels = 8
%Sample Rate = 250 Hz
%Board = OpenBCI_GUI$BoardCytonSerial
Sample Index, EXG Channel 0, EXG Channel 1, EXG Channel 2, EXG Channel 3, EXG Channel 4, EXG Channel 5, EXG Channel 6, EXG Channel 7, Accel Channel 0, Accel Channel 1, Accel Channel 2, Other, Other, Other, Other, Other, Other, Other, Analog Channel 0, Analog Channel 1, Analog Channel 2, Timestamp, Other, Timestamp (Formatted)
29.0, 26681.679687700238, 25807.81588647555, -19842.291753565285, -15402.385938451998, 1897.5066420443825, -1232.1399130988018, 24282.063458211836, 3187.2022971156, 0.0, 0.0, 0.0, 192.0, 0.0, 0.0, 0.0, 0.0, 0.0, 0.0, 0.0, 0.0, 0.0, 1.6546756897483516E9, 0.0, 2022-06-08 10:08:09.748
30.0, 26691.313289560472, 25861.92945980185, -19832.6805034495, -15398.876714572516, 1904.6144967811701, -1246.1768086167347, 24258.41531257812, 3161.922474136648, 0.0, 0.0, 0.0, 192.0, 0.0, 0.0, 0.0, 0.0, 0.0, 0.0, 0.0, 0.0, 0.0, 1.6546756897483585E9, 0.0, 2022-06-08 10:08:09.748
31.0, 26721.421089341773, 25933.723262992295, -19796.180104753985, -15363.493903099765, 1931.034258727343, -1207.6424011757854, 24217.84689639174, 3185.2129918590776, 0.0, 0.0, 0.0, 192.0, 0.0, 0.0, 0.0, 0.0, 0.0, 0.0, 0.0, 0.0, 0.0, 1.654675689748364E9, 0.0, 2022-06-08 10:08:09.748
32.0, 26739.526002350573, 25994.408249188455, -19777.96343302291, -15360.94580423186, 1946.166389723586, -1191.2138690011345, 24203.810000873807, 3210.6939805381276, 0.0, 0.0, 0.0, 192.0, 0.0, 0.0, 0.0, 0.0, 0.0, 0.0, 0.0, 0.0, 0.0, 1.6546756897483695E9, 0.0, 2022-06-08 10:08:09.748
33.0, 26731.412319113293, 26044.543212001707, -19805.63489265858, -15385.37626092151, 1924.4628458574828, -1211.6210116888299, 24242.009132147927, 3218.1147596972896, 0.024, 0.994, 0.23600000000000002, 192.0, 0.0, 192.0, 31.0, 16.0, 7.0, 96.0, 0.0, 0.0, 0.0, 1.6546756897483747E9, 0.0, 2022-06-08 10:08:09.748
34.0, 26719.588246296436, 26090.207825923902, -19830.44532900397, -15394.13814474799, 1897.0596071552764, -1229.5694624864416, 24278.084847698792, 3198.6463902767173, 0.024, 0.994, 0.23600000000000002, 192.0, 0.0, 0.0, 0.0, 0.0, 0.0, 0.0, 0.0, 0.0, 0.0, 1.6546756897483802E9, 0.0, 2022-06-08 10:08:09.748
35.0, 26709.462906058183, 26119.98034953837, -19827.87487839161, -15401.469516929332, 1887.2248395949412, -1226.8649014073494, 24266.976030704504, 3171.5113725079746, 0.024, 0.994, 0.23600000000000002, 192.0, 0.0, 0.0, 0.0, 0.0, 0.0, 0.0, 0.0, 0.0, 0.0, 1.6546756897483857E9, 0.0, 2022-06-08 10:08:09.748
36.0, 26742.00704598511, 26189.89660619457, -19780.958566779922, -15363.449199610854, 1920.7077527889912, -1187.3470172103664, 24229.805079675327, 3182.687244735628, 0.024, 0.994, 0.23600000000000002, 192.0, 0.0, 0.0, 0.0, 0.0, 0.0, 0.0, 0.0, 0.0, 0.0, 1.6546756897483912E9, 0.0, 2022-06-08 10:08:09.748
37.0, 26750.90304027832, 26241.976170775437, -19785.563026137715, -15367.986603735282, 1925.6698400580694, -1188.6881218776848, 24227.301684296333, 3187.5599250268847, 0.024, 0.994, 0.23600000000000002, 192.0, 0.0, 0.0, 0.0, 0.0, 0.0, 0.0, 0.0, 0.0, 0.0, 1.6546756897483976E9, 0.0, 2022-06-08 10:08:09.748
38.0, 26741.649418073826, 26280.979964849947, -19811.8263258727, -15391.210066224345, 1905.6650287705695, -1205.876613363816, 24271.960469718037, 3181.9719889130583, 0.024, 0.994, 0.23600000000000002, 192.0, 0.0, 0.0, 0.0, 0.0, 0.0, 0.0, 0.0, 0.0, 0.0, 1.6546756897484033E9, 0.0, 2022-06-08 10:08:09.748
39.0, 26731.367615624386, 26318.754412979415, -19828.746596425368, -15410.209049011357, 1886.9566186614775, -1216.5160437245422, 24307.924426546626, 3171.2207998300555, 0.024, 0.994, 0.23600000000000002, 192.0, 0.0, 0.0, 0.0, 0.0, 0.0, 0.0, 0.0, 0.0, 0.0, 1.6546756897484083E9, 0.0, 2022-06-08 10:08:09.748
40.0, 26735.502688348617, 26361.893279778156, -19827.87487839161, -15413.539458935198, 1880.5640197472596, -1223.0874565944025, 24292.792295550382, 3148.2208547855444, 0.024, 0.994, 0.23600000000000002, 192.0, 0.0, 0.0, 0.0, 0.0, 0.0, 0.0, 0.0, 0.0, 0.0, 1.6546756897484138E9, 0.0, 2022-06-08 10:08:09.748
41.0, 26769.097360264943, 26435.47522252503, -19788.021718027798, -15373.731002060296, 1913.9575259634885, -1189.3139707224334, 24245.18307986058, 3156.6698141896504, 0.024, 0.994, 0.23600000000000002, 192.0, 0.0, 0.0, 0.0, 0.0, 0.0, 0.0, 0.0, 0.0, 0.0, 1.6546756897484193E9, 0.0, 2022-06-08 10:08:09.748
42.0, 26787.6716599073, 26495.66847034317, -19765.9158427615, -15355.246109395757, 1938.745610564424, -1169.7338425795845, 24257.476539311, 3177.367529555265, 0.024, 0.994, 0.23600000000000002, 192.0, 0.0, 0.0, 0.0, 0.0, 0.0, 0.0, 0.0, 0.0, 0.0, 1.6546756897484243E9, 0.0, 2022-06-08 10:08:09.748
43.0, 26774.551185912038, 26530.91717134919, -19790.502761662337, -15380.592987608075, 1917.5785085652483, -1175.9029240492493, 24305.689252101096, 3193.594896029818, -0.002, 1.0, 0.232, 192.0, 255.0, 240.0, 31.0, 64.0, 7.0, 64.0, 0.0, 0.0, 0.0, 1.65467568974843E9, 0.0, 2022-06-08 10:08:09.748
44.0, 26764.62701137388, 26563.68482872067, -19810.596979927657, -15404.688168130895, 1890.6893599855139, -1190.722130623118, 24340.46856647355, 3192.4102535736865, -0.002, 1.0, 0.232, 192.0, 0.0, 0.0, 0.0, 0.0, 0.0, 0.0, 0.0, 0.0, 0.0, 1.6546756897484353E9, 0.0, 2022-06-08 10:08:09.748
45.0, 26771.28783122156, 26601.74984952806, -19803.332662979683, -15402.743566363284, 1891.806947208279, -1199.9534010831596, 24339.216868784057, 3167.5998172282957, -0.002, 1.0, 0.232, 192.0, 0.0, 0.0, 0.0, 0.0, 0.0, 0.0, 0.0, 0.0, 0.0, 1.6546756897484405E9, 0.0, 2022-06-08 10:08:09.748
46.0, 26778.35098246944, 26646.878021583325, -19787.351165694137, -15391.366528435532, 1902.066397913265, -1191.8397178458831, 24305.75630733446, 3150.523084464441, -0.002, 1.0, 0.232, 192.0, 0.0, 0.0, 0.0, 0.0, 0.0, 0.0, 0.0, 0.0, 0.0, 1.6546756897484455E9, 0.0, 2022-06-08 10:08:09.748
47.0, 26787.29168025156, 26696.051859385, -19777.024659755785, -15385.912702788437, 1916.3491626202062, -1175.7911653269728, 24301.86710379924, 3165.7669741829604, -0.002, 1.0, 0.232, 192.0, 0.0, 0.0, 0.0, 0.0, 0.0, 0.0, 0.0, 0.0, 0.0, 1.6546756897484508E9, 0.0, 2022-06-08 10:08:09.748
48.0, 26781.54728192655, 26735.368577881884, -19794.25785473083, -15395.85922907105, 1903.0498746692986, -1188.0175695440257, 24344.603639197787, 3172.137221352723, -0.002, 1.0, 0.232, 192.0, 0.0, 0.0, 0.0, 0.0, 0.0, 0.0, 0.0, 0.0, 0.0, 1.6546756897484567E9, 0.0, 2022-06-08 10:08:09.748
49.0, 26763.777645084578, 26767.264517219606, -19815.246142774362, -15421.831956128117, 1878.909990657567, -1199.4393109606876, 24381.126389637757, 3164.559979982374, -0.002, 1.0, 0.232, 192.0, 0.0, 0.0, 0.0, 0.0, 0.0, 0.0, 0.0, 0.0, 0.0, 1.654675689748462E9, 0.0, 2022-06-08 10:08:09.748
50.0, 26764.828177073978, 26805.9777386162, -19813.905038107045, -15421.00494158327, 1872.7409091879022, -1193.8290231024055, 24366.1507208527, 3143.9516715945806, -0.002, 1.0, 0.232, 192.0, 0.0, 0.0, 0.0, 0.0, 0.0, 0.0, 0.0, 0.0, 0.0, 1.6546756897484672E9, 0.0, 2022-06-08 10:08:09.748
51.0, 26788.476322707695, 26864.27108815564, -19778.298709189738, -15370.378240392, 1895.6290955101367, -1169.04093850147, 24333.204249525577, 3146.276253017933, -0.002, 1.0, 0.232, 192.0, 0.0, 0.0, 0.0, 0.0, 0.0, 0.0, 0.0, 0.0, 0.0, 1.654675689748478E9, 0.0, 2022-06-08 10:08:09.748
52.0, 26788.521026196602, 26905.89003633142, -19770.654412586024, -15373.552188104653, 1915.9021277311, -1174.8523920598498, 24324.91175233266, 3158.748526423994, -0.002, 1.0, 0.232, 192.0, 0.0, 0.0, 0.0, 0.0, 0.0, 0.0, 0.0, 0.0, 0.0, 1.6546756897484827E9, 0.0, 2022-06-08 10:08:09.748
53.0, 26772.0701422775, 26931.907466877397, -19800.359880967128, -15393.914627303438, 1900.9264589460445, -1192.1302905238022, 24369.950517410103, 3179.1109656227786, -0.03, 1.004, 0.234, 192.0, 255.0, 16.0, 31.0, 96.0, 7.0, 80.0, 0.0, 0.0, 0.0, 1.6546756897484877E9, 0.0, 2022-06-08 10:08:09.748
54.0, 26765.90106080783, 26965.30097309363, -19807.624197915102, -15403.280008230211, 1889.7058832294804, -1192.0855870348917, 24424.73464307006, 3182.7095964800833, -0.03, 1.004, 0.234, 192.0, 0.0, 0.0, 0.0, 0.0, 0.0, 0.0, 0.0, 0.0, 0.0, 1.654675689748492E9, 0.0, 2022-06-08 10:08:09.748
55.0, 26771.511348666114, 26993.508874596224, -19801.20924725643, -15401.894200073983, 1890.0858628852204, -1190.0292265450032, 24422.54417211344, 3151.8641891317593, -0.03, 1.004, 0.234, 192.0, 0.0, 0.0, 0.0, 0.0, 0.0, 0.0, 0.0, 0.0, 0.0, 1.6546756897484965E9, 0.0, 2022-06-08 10:08:09.748
56.0, 26792.343174498463, 27027.327063957106, -19770.25208118583, -15376.122638717014, 1915.6115550531813, -1160.4131651417215, 24388.055430418903, 3157.049793845391, -0.03, 1.004, 0.234, 192.0, 0.0, 0.0, 0.0, 0.0, 0.0, 0.0, 0.0, 0.0, 0.0, 1.654675689748501E9, 0.0, 2022-06-08 10:08:09.748
57.0, 26800.389802502374, 27053.009218336254, -19758.740932791345, -15362.175150176901, 1922.719409789969, -1155.9428162506601, 24382.64630826072, 3180.3179598233655, -0.03, 1.004, 0.234, 192.0, 0.0, 0.0, 0.0, 0.0, 0.0, 0.0, 0.0, 0.0, 0.0, 1.6546756897485054E9, 0.0, 2022-06-08 10:08:09.748
58.0, 26772.651287633336, 27049.723511901324, -19800.426936200492, -15398.943769805881, 1891.2481535968966, -1199.4393109606876, 24417.246808677533, 3169.0303288734353, -0.03, 1.004, 0.234, 192.0, 0.0, 0.0, 0.0, 0.0, 0.0, 0.0, 0.0, 0.0, 0.0, 1.6546756897485108E9, 0.0, 2022-06-08 10:08:09.748
59.0, 26759.10613049342, 27061.07819808462, -19824.63387544559, -15419.239153771301, 1870.5727899757374, -1209.3634854988438, 24461.726780143596, 3138.9672325810475, -0.03, 1.004, 0.234, 192.0, 0.0, 0.0, 0.0, 0.0, 0.0, 0.0, 0.0, 0.0, 0.0, 1.6546756897485151E9, 0.0, 2022-06-08 10:08:09.748
60.0, 26771.48899692166, 27087.989698408808, -19805.67959614749, -15395.814525582138, 1886.1743076055418, -1187.101148021358, 24467.024143579503, 3134.653345901173, -0.03, 1.004, 0.234, 192.0, 0.0, 0.0, 0.0, 0.0, 0.0, 0.0, 0.0, 0.0, 0.0, 1.6546756897485197E9, 0.0, 2022-06-08 10:08:09.748
61.0, 26801.842665891967, 27130.54741985171, -19763.658316571513, -15350.999277949248, 1911.878813729145, -1155.495781361554, 24438.07863450988, 3165.9681398830585, -0.03, 1.004, 0.234, 192.0, 0.0, 0.0, 0.0, 0.0, 0.0, 0.0, 0.0, 0.0, 0.0, 1.6546756897485242E9, 0.0, 2022-06-08 10:08:09.748
62.0, 26817.198314332763, 27155.939001552942, -19746.469825085383, -15336.94003068686, 1937.6280233416587, -1141.4365340991658, 24434.21178271911, 3181.8602301907817, -0.03, 1.004, 0.234, 192.0, 0.0, 0.0, 0.0, 0.0, 0.0, 0.0, 0.0, 0.0, 0.0, 1.6546756897485287E9, 0.0, 2022-06-08 10:08:09.748
63.0, 26799.473380979704, 27160.208184743904, -19771.034392241763, -15366.176112434401, 1920.6630493000805, -1153.260606916023, 24477.41770475122, 3185.302398836899, -0.042, 1.0, 0.232, 192.0, 254.0, 176.0, 31.0, 64.0, 7.0, 64.0, 0.0, 0.0, 0.0, 1.6546756897485332E9, 0.0, 2022-06-08 10:08:09.748
64.0, 26771.556052155025, 27154.910821307996, -19805.813706614223, -15390.874790057516, 1880.9216476585445, -1194.1419475247799, 24528.42438559823, 3170.773764940949, -0.042, 1.0, 0.232, 192.0, 0.0, 0.0, 0.0, 0.0, 0.0, 0.0, 0.0, 0.0, 0.0, 1.654675689748538E9, 0.0, 2022-06-08 10:08:09.748
65.0, 26779.602680158936, 27169.551213926225, -19792.849694830144, -15375.809714294639, 1895.9867234214216, -1194.946610325171, 24522.724690762127, 3144.5104652059636, -0.042, 1.0, 0.232, 192.0, 0.0, 0.0, 0.0, 0.0, 0.0, 0.0, 0.0, 0.0, 0.0, 1.6546756897485423E9, 0.0, 2022-06-08 10:08:09.748
66.0, 26799.719250168713, 27189.466618235903, -19764.708848560913, -15358.531815830687, 1920.5512905778041, -1154.2887871609673, 24480.591652463874, 3161.140163080712, -0.042, 1.0, 0.232, 192.0, 0.0, 0.0, 0.0, 0.0, 0.0, 0.0, 0.0, 0.0, 0.0, 1.6546756897485468E9, 0.0, 2022-06-08 10:08:09.748
67.0, 26809.01757586212, 27202.29651955325, -19757.24336591284, -15352.586251805575, 1928.9778982374548, -1151.3607086373222, 24469.304021513944, 3172.1819248416336, -0.042, 1.0, 0.232, 192.0, 0.0, 0.0, 0.0, 0.0, 0.0, 0.0, 0.0, 0.0, 0.0, 1.6546756897485516E9, 0.0, 2022-06-08 10:08:09.748
68.0, 26804.703689182246, 27213.450040036445, -19776.935252777967, -15363.426847866398, 1920.8865667446337, -1178.3392641948778, 24514.454545313663, 3182.195506357611, -0.042, 1.0, 0.232, 192.0, 0.0, 0.0, 0.0, 0.0, 0.0, 0.0, 0.0, 0.0, 0.0, 1.6546756897485561E9, 0.0, 2022-06-08 10:08:09.748
69.0, 26794.555997199535, 27222.278979096292, -19786.85942731612, -15376.077935228102, 1910.3141916172733, -1180.8426595738722, 24555.022961500046, 3172.450145775097, -0.042, 1.0, 0.232, 192.0, 0.0, 0.0, 0.0, 0.0, 0.0, 0.0, 0.0, 0.0, 0.0, 1.654675689748561E9, 0.0, 2022-06-08 10:08:09.748
70.0, 26788.521026196602, 27218.635644750077, -19792.15679075203, -15388.863133056539, 1891.7175402304579, -1196.265363248034, 24540.226106670634, 3137.201444769078, -0.042, 1.0, 0.232, 192.0, 0.0, 0.0, 0.0, 0.0, 0.0, 0.0, 0.0, 0.0, 0.0, 1.6546756897485652E9, 0.0, 2022-06-08 10:08:09.748
71.0, 26805.240131049173, 27235.086528669184, -19769.492121874348, -15363.963289733327, 1912.392903851617, -1168.236275701079, 24497.735440461092, 3140.3530407372764, -0.042, 1.0, 0.232, 192.0, 0.0, 0.0, 0.0, 0.0, 0.0, 0.0, 0.0, 0.0, 0.0, 1.6546756897485695E9, 0.0, 2022-06-08 10:08:09.748
72.0, 26827.189544104283, 27258.980543491907, -19743.65350528401, -15341.65624876693, 1947.19456996853, -1142.2188451551015, 24506.877303943314, 3184.453032547597, -0.042, 1.0, 0.232, 192.0, 0.0, 0.0, 0.0, 0.0, 0.0, 0.0, 0.0, 0.0, 0.0, 1.6546756897485762E9, 0.0, 2022-06-08 10:08:09.748
73.0, 26806.64829094986, 27251.425653866012, -19773.738953320855, -15375.452086383355, 1920.841863255723, -1159.8543715303388, 24559.068627246455, 3191.069148906368, -0.054, 1.0, 0.234, 192.0, 254.0, 80.0, 31.0, 64.0, 7.0, 80.0, 0.0, 0.0, 0.0, 1.6546756897485807E9, 0.0, 2022-06-08 10:08:09.748
74.0, 26784.609470916927, 27249.548107331768, -19801.611578656626, -15410.924304833927, 1881.6369034811144, -1184.910677064738, 24599.458229477197, 3155.9322066226255, -0.054, 1.0, 0.234, 192.0, 0.0, 0.0, 0.0, 0.0, 0.0, 0.0, 0.0, 0.0, 0.0, 1.6546756897485857E9, 0.0, 2022-06-08 10:08:09.748
75.0, 26793.05843032103, 27268.72590407442, -19790.703927362436, -15401.514220418243, 1886.8225081947458, -1183.23429623059, 24592.797409629515, 3140.0624680593573, -0.054, 1.0, 0.234, 192.0, 0.0, 0.0, 0.0, 0.0, 0.0, 0.0, 0.0, 0.0, 0.0, 1.65467568974859E9, 0.0, 2022-06-08 10:08:09.748
76.0, 26824.462631280738, 27306.857980115175, -19748.36972336408, -15358.934147230882, 1921.6688778005694, -1143.4258393556881, 24556.162900467265, 3159.9555206245805, -0.054, 1.0, 0.234, 192.0, 0.0, 0.0, 0.0, 0.0, 0.0, 0.0, 0.0, 0.0, 0.0, 1.6546756897485943E9, 0.0, 2022-06-08 10:08:09.748
77.0, 26822.808602191046, 27314.88225637463, -19752.72831353287, -15371.317013659122, 1923.3229068902622, -1147.0915254463584, 24547.602182340885, 3173.2324568310332, -0.054, 1.0, 0.234, 192.0, 0.0, 0.0, 0.0, 0.0, 0.0, 0.0, 0.0, 0.0, 0.0, 1.654675689748599E9, 0.0, 2022-06-08 10:08:09.748
78.0, 26808.570540973014, 27320.671358188556, -19781.47265690239, -15386.315034188634, 1906.290877615318, -1164.4364791436767, 24578.447589689207, 3163.8223724153486, -0.054, 1.0, 0.234, 192.0, 0.0, 0.0, 0.0, 0.0, 0.0, 0.0, 0.0, 0.0, 0.0, 1.6546756897486033E9, 0.0, 2022-06-08 10:08:09.748
79.0, 26796.813523389523, 27333.925942650552, -19805.746651380858, -15400.977778551314, 1879.8711156691452, -1177.266380461023, 24622.234657077155, 3144.5775204393294, -0.054, 1.0, 0.234, 192.0, 0.0, 0.0, 0.0, 0.0, 0.0, 0.0, 0.0, 0.0, 0.0, 1.654675689748608E9, 0.0, 2022-06-08 10:08:09.748
80.0, 26801.954424614243, 27359.451634818513, -19798.9740728109, -15403.972912308325, 1879.0217493798436, -1169.8679530463164, 24615.842058162936, 3124.170377751634, -0.054, 1.0, 0.234, 192.0, 0.0, 0.0, 0.0, 0.0, 0.0, 0.0, 0.0, 0.0, 0.0, 1.6546756897486124E9, 0.0, 2022-06-08 10:08:09.748
81.0, 26818.606474233446, 27398.500132381934, -19770.922633519487, -15384.482191143297, 1901.3064386017847, -1160.4802203750874, 24577.28529897753, 3121.108188761257, -0.054, 1.0, 0.234, 192.0, 0.0, 0.0, 0.0, 0.0, 0.0, 0.0, 0.0, 0.0, 0.0, 1.6546756897486167E9, 0.0, 2022-06-08 10:08:09.748
82.0, 26837.516050042635, 27444.343560259767, -19751.34250537664, -15369.908853758438, 1918.7631510213796, -1143.0905631888586, 24575.161883254277, 3154.166418810656, -0.054, 1.0, 0.234, 192.0, 0.0, 0.0, 0.0, 0.0, 0.0, 0.0, 0.0, 0.0, 0.0, 1.6546756897486212E9, 0.0, 2022-06-08 10:08:09.748
83.0, 26828.664759238334, 27483.369706078734, -19766.7652090508, -15381.956444019848, 1916.6397352981253, -1142.0176794550036, 24618.926598897768, 3174.305340564888, -0.074, 0.994, 0.234, 192.0, 253.0, 176.0, 31.0, 16.0, 7.0, 80.0, 0.0, 0.0, 0.0, 1.6546756897486255E9, 0.0, 2022-06-08 10:08:09.748
84.0, 26786.978755829186, 27495.4396480846, -19807.87006710411, -15421.250810772279, 1878.8876389131117, -1180.9320665516934, 24657.63982029436, 3143.5940436832957, -0.074, 0.994, 0.234, 192.0, 0.0, 0.0, 0.0, 0.0, 0.0, 0.0, 0.0, 0.0, 0.0, 1.65467568974863E9, 0.0, 2022-06-08 10:08:09.748
85.0, 26782.8213313605, 27518.43959312911, -19811.15577353904, -15425.631752685518, 1868.874057397134, -1186.162374754235, 24652.029532436078, 3127.2996219753772, -0.074, 0.994, 0.234, 192.0, 0.0, 0.0, 0.0, 0.0, 0.0, 0.0, 0.0, 0.0, 0.0, 1.6546756897486346E9, 0.0, 2022-06-08 10:08:09.748
86.0, 26805.754221171646, 27562.472529706065, -19781.226787713385, -15397.692072116384, 1896.165537377064, -1166.3587291668332, 24610.96937787168, 3118.8283108268156, -0.074, 0.994, 0.234, 192.0, 0.0, 0.0, 0.0, 0.0, 0.0, 0.0, 0.0, 0.0, 0.0, 1.654675689748639E9, 0.0, 2022-06-08 10:08:09.748
87.0, 26825.73668071469, 27600.42579179118, -19763.39009563805, -15379.14012421848, 1914.7398370194242, -1143.1576184222245, 24611.72933718316, 3152.3112240208657, -0.074, 0.994, 0.234, 192.0, 0.0, 0.0, 0.0, 0.0, 0.0, 0.0, 0.0, 0.0, 0.0, 1.6546756897486436E9, 0.0, 2022-06-08 10:08:09.748
88.0, 26805.17307581581, 27610.618187262797, -19785.071287759696, -15397.200333738368, 1893.617438509159, -1167.6774820896962, 24646.240430622154, 3171.1537445966896, -0.074, 0.994, 0.234, 192.0, 0.0, 0.0, 0.0, 0.0, 0.0, 0.0, 0.0, 0.0, 0.0, 1.654675689748648E9, 0.0, 2022-06-08 10:08:09.748
89.0, 26775.221738245695, 27612.339271585857, -19824.25389578985, -15435.064188845658, 1866.1247928291314, -1204.5131569520422, 24678.73986706017, 3140.5095029484637, -0.074, 0.994, 0.234, 192.0, 0.0, 0.0, 0.0, 0.0, 0.0, 0.0, 0.0, 0.0, 0.0, 1.6546756897486527E9, 0.0, 2022-06-08 10:08:09.748
90.0, 26781.9719650712, 27638.915495743215, -19815.44730847446, -15431.15263356598, 1868.1811533190196, -1203.5743836849194, 24675.99060249217, 3126.9643458085475, -0.074, 0.994, 0.234, 192.0, 0.0, 0.0, 0.0, 0.0, 0.0, 0.0, 0.0, 0.0, 0.0, 1.6546756897486572E9, 0.0, 2022-06-08 10:08:09.748
91.0, 26814.426698020307, 27685.3847724658, -19772.219034697897, -15392.841743569583, 1905.5085665593824, -1162.4248221426992, 24642.88766895386, 3146.678584418128, -0.074, 0.994, 0.234, 192.0, 0.0, 0.0, 0.0, 0.0, 0.0, 0.0, 0.0, 0.0, 0.0, 1.6546756897486615E9, 0.0, 2022-06-08 10:08:09.748
92.0, 26837.44899480927, 27723.82977292893, -19750.090807687142, -15350.66400178242, 1934.007040739899, -1142.5764730663864, 24641.099529397434, 3174.1935818426114, -0.07200000000000001, 0.988, 0.24, 192.0, 253.0, 192.0, 30.0, 224.0, 7.0, 128.0, 0.0, 0.0, 0.0, 1.654675689748666E9, 0.0, 2022-06-08 10:08:09.748
93.0, 26829.290608083083, 27738.090185891415, -19772.777828309278, -15372.769877048717, 1921.4677121004715, -1155.853409272839, 24682.964346762223, 3181.9496371686027, -0.07200000000000001, 0.988, 0.24, 192.0, 0.0, 0.0, 0.0, 0.0, 0.0, 0.0, 0.0, 0.0, 0.0, 1.654675689748672E9, 0.0, 2022-06-08 10:08:09.748
94.0, 26795.047735577555, 27725.01441538506, -19817.928352109, -15415.372301980533, 1876.7418714454022, -1196.9806190706038, 24719.285931502098, 3154.7028606775834, -0.07200000000000001, 0.988, 0.24, 192.0, 0.0, 0.0, 0.0, 0.0, 0.0, 0.0, 0.0, 0.0, 0.0, 1.6546756897486763E9, 0.0, 2022-06-08 10:08:09.748
95.0, 26803.072011837008, 27746.360331339878, -19799.756383866836, -15393.400537180965, 1885.1237756161424, -1192.5996771573637, 24720.336463491498, 3146.723287907039, -0.07200000000000001, 0.988, 0.24, 192.0, 0.0, 0.0, 0.0, 0.0, 0.0, 0.0, 0.0, 0.0, 0.0, 1.6546756897486808E9, 0.0, 2022-06-08 10:08:09.748
96.0, 26835.772613975125, 27785.25236669211, -19750.090807687142, -15351.669830282908, 1931.0566104717984, -1154.713470305618, 24691.949748033257, 3176.8087359438823, -0.07200000000000001, 0.988, 0.24, 192.0, 0.0, 0.0, 0.0, 0.0, 0.0, 0.0, 0.0, 0.0, 0.0, 1.6546756897486854E9, 0.0, 2022-06-08 10:08:09.748
97.0, 26851.910573471854, 27808.45347743672, -19731.42710106696, -15333.944896929848, 1950.323814192273, -1121.3199640893895, 24693.8272945675, 3197.6629135206836, -0.07200000000000001, 0.988, 0.24, 192.0, 0.0, 0.0, 0.0, 0.0, 0.0, 0.0, 0.0, 0.0, 0.0, 1.65467568974869E9, 0.0, 2022-06-08 10:08:09.748
98.0, 26833.380977318404, 27807.69351812524, -19760.216147925395, -15360.61052806503, 1936.1751599520637, -1152.3218336489003, 24731.914667119345, 3198.5122798099856, -0.07200000000000001, 0.988, 0.24, 192.0, 0.0, 0.0, 0.0, 0.0, 0.0, 0.0, 0.0, 0.0, 0.0, 1.6546756897486942E9, 0.0, 2022-06-08 10:08:09.748
99.0, 26798.534607712583, 27785.095904480924, -19805.746651380858, -15403.257656485755, 1888.7894617068127, -1195.4383487031876, 24769.890280948912, 3157.2509595454885, -0.07200000000000001, 0.988, 0.24, 192.0, 0.0, 0.0, 0.0, 0.0, 0.0, 0.0, 0.0, 0.0, 0.0, 1.6546756897486987E9, 0.0, 2022-06-08 10:08:09.748
100.0, 26788.655136663336, 27785.095904480924, -19812.519229950816, -15410.119642033535, 1879.0664528687541, -1211.1516250552686, 24756.9933243982, 3123.9692120515365, -0.07200000000000001, 0.988, 0.24, 192.0, 0.0, 0.0, 0.0, 0.0, 0.0, 0.0, 0.0, 0.0, 0.0, 1.6546756897487032E9, 0.0, 2022-06-08 10:08:09.748
101.0, 26832.151631373363, 27830.380538747377, -19762.58543283766, -15360.23054840929, 1922.2723749008626, -1168.392737912266, 24732.60757119746, 3155.52987522243, -0.07200000000000001, 0.988, 0.24, 192.0, 0.0, 0.0, 0.0, 0.0, 0.0, 0.0, 0.0, 0.0, 0.0, 1.6546756897487075E9, 0.0, 2022-06-08 10:08:09.748
102.0, 26850.010675193153, 27846.4737947552, -19746.022790196275, -15345.27723136869, 1943.037145499843, -1154.2887871609673, 24711.172248264822, 3173.72419520905, -0.074, 0.988, 0.248, 192.0, 253.0, 176.0, 30.0, 224.0, 7.0, 192.0, 0.0, 0.0, 0.0, 1.654675689748712E9, 0.0, 2022-06-08 10:08:09.748
103.0, 26846.613210035946, 27857.247335582655, -19761.423142125983, -15354.396743106456, 1934.6552413291029, -1143.5375980779647, 24747.583239982516, 3188.9010296942033, -0.074, 0.988, 0.248, 192.0, 0.0, 0.0, 0.0, 0.0, 0.0, 0.0, 0.0, 0.0, 0.0, 1.6546756897487164E9, 0.0, 2022-06-08 10:08:09.748
104.0, 26816.751279443655, 27847.07729185549, -19800.53869492277, -15391.344176691078, 1896.3219995882512, -1176.4617176606318, 24791.750287026203, 3164.0682416043574, -0.074, 0.988, 0.248, 192.0, 0.0, 0.0, 0.0, 0.0, 0.0, 0.0, 0.0, 0.0, 0.0, 1.654675689748721E9, 0.0, 2022-06-08 10:08:09.748
105.0, 26823.322692313515, 27864.13167287489, -19795.174276253496, -15389.667795856929, 1894.3550460761842, -1170.493801891065, 24794.857179505492, 3142.9905465830025, -0.074, 0.988, 0.248, 192.0, 0.0, 0.0, 0.0, 0.0, 0.0, 0.0, 0.0, 0.0, 0.0, 1.6546756897487254E9, 0.0, 2022-06-08 10:08:09.748
106.0, 26855.37509386243, 27903.783667538606, -19747.20743265241, -15351.066333182614, 1931.0119069828877, -1122.4151995676993, 24756.61334474246, 3177.3898812997204, -0.074, 0.988, 0.248, 192.0, 0.0, 0.0, 0.0, 0.0, 0.0, 0.0, 0.0, 0.0, 0.0, 1.65467568974873E9, 0.0, 2022-06-08 10:08:09.748
107.0, 26855.93388747381, 27911.76324030915, -19743.65350528401, -15328.289905582657, 1940.9137297765888, -1129.143074648747, 24743.202298069275, 3200.3451228553204, -0.074, 0.988, 0.248, 192.0, 0.0, 0.0, 0.0, 0.0, 0.0, 0.0, 0.0, 0.0, 0.0, 1.6546756897487345E9, 0.0, 2022-06-08 10:08:09.748
108.0, 26839.415948321337, 27910.265673430644, -19770.81087479721, -15353.770894261706, 1927.7932557813235, -1146.108048690325, 24790.409182358886, 3200.68039902215, -0.074, 0.988, 0.248, 192.0, 0.0, 0.0, 0.0, 0.0, 0.0, 0.0, 0.0, 0.0, 0.0, 1.6546756897487388E9, 0.0, 2022-06-08 10:08:09.748
109.0, 26820.64048297888, 27910.891522275393, -19795.24133148686, -15387.745545833774, 1905.2403456259187, -1180.261514218034, 24831.78226134566, 3171.690186463617, -0.074, 0.988, 0.248, 192.0, 0.0, 0.0, 0.0, 0.0, 0.0, 0.0, 0.0, 0.0, 0.0, 1.6546756897487433E9, 0.0, 2022-06-08 10:08:09.748
110.0, 26821.176924845808, 27922.15680148087, -19787.932311049975, -15382.068202742124, 1896.4337583105278, -1188.397549199766, 24815.934874526843, 3133.0663720448465, -0.074, 0.988, 0.248, 192.0, 0.0, 0.0, 0.0, 0.0, 0.0, 0.0, 0.0, 0.0, 0.0, 1.654675689748748E9, 0.0, 2022-06-08 10:08:09.748
111.0, 26830.810526706045, 27936.126641765433, -19769.20154919643, -15363.270385655213, 1906.134415404131, -1172.3489966808554, 24760.681362233325, 3121.2870027168997, -0.074, 0.988, 0.248, 192.0, 0.0, 0.0, 0.0, 0.0, 0.0, 0.0, 0.0, 0.0, 0.0, 1.6546756897487524E9, 0.0, 2022-06-08 10:08:09.748
112.0, 26843.21574487874, 27953.851575118493, -19754.15882517801, -15345.120769157502, 1925.8933575026224, -1148.2985196469451, 24760.27903083313, 3172.003110885991, -0.074, 0.992, 0.246, 192.0, 253.0, 176.0, 31.0, 0.0, 7.0, 176.0, 0.0, 0.0, 0.0, 1.654675689748757E9, 0.0, 2022-06-08 10:08:09.748
113.0, 26837.180773875807, 27962.76992115616, -19771.034392241763, -15353.994411706259, 1920.5512905778041, -1160.3908133972661, 24809.117592467977, 3194.82424197486, -0.074, 0.992, 0.246, 192.0, 0.0, 0.0, 0.0, 0.0, 0.0, 0.0, 0.0, 0.0, 0.0, 1.6546756897487612E9, 0.0, 2022-06-08 10:08:09.748
114.0, 26812.7279654417, 27954.25390651869, -19807.132459537086, -15386.471496399821, 1884.2744093268407, -1180.8650113183273, 24846.40030221943, 3175.2441138320105, -0.074, 0.992, 0.246, 192.0, 0.0, 0.0, 0.0, 0.0, 0.0, 0.0, 0.0, 0.0, 0.0, 1.654675689748766E9, 0.0, 2022-06-08 10:08:09.748
115.0, 26820.104041111954, 27966.256793291188, -19801.87979959009, -15378.022536995715, 1886.911915172567, -1177.5346013944866, 24840.924124827878, 3155.52987522243, -0.074, 0.992, 0.246, 192.0, 0.0, 0.0, 0.0, 0.0, 0.0, 0.0, 0.0, 0.0, 0.0, 1.654675689748772E9, 0.0, 2022-06-08 10:08:09.748
116.0, 26851.061207182553, 27995.29170933863, -19752.817720510688, -15339.532833043675, 1933.4482471285162, -1148.2538161580344, 24799.9533772413, 3158.3238432793432, -0.074, 0.992, 0.246, 192.0, 0.0, 0.0, 0.0, 0.0, 0.0, 0.0, 0.0, 0.0, 0.0, 1.6546756897487764E9, 0.0, 2022-06-08 10:08:09.748
117.0, 26859.0407799531, 28006.82520947757, -19744.882851229057, -15326.41235904841, 1939.0585349867983, -1136.5191503189983, 24782.80958924408, 3168.3821282842314, -0.074, 0.992, 0.246, 192.0, 0.0, 0.0, 0.0, 0.0, 0.0, 0.0, 0.0, 0.0, 0.0, 1.6546756897487807E9, 0.0, 2022-06-08 10:08:09.748
118.0, 26843.17104138983, 28004.59003503204, -19767.502816617827, -15352.787417505673, 1924.909880746589, -1142.1517899217356, 24828.831831077558, 3174.238285331522, -0.074, 0.992, 0.246, 192.0, 0.0, 0.0, 0.0, 0.0, 0.0, 0.0, 0.0, 0.0, 0.0, 1.6546756897487853E9, 0.0, 2022-06-08 10:08:09.748
119.0, 26820.796945190068, 27993.4588662933, -19797.141229765562, -15380.481228885797, 1895.8973164436004, -1164.7941070549616, 24871.858939154023, 3165.588160227318, -0.074, 0.992, 0.246, 192.0, 0.0, 0.0, 0.0, 0.0, 0.0, 0.0, 0.0, 0.0, 0.0, 1.6546756897487895E9, 0.0, 2022-06-08 10:08:09.748
120.0, 26821.378090545906, 27995.515226783184, -19798.124706521598, -15379.497752129764, 1885.3919965496061, -1175.3441304378666, 24861.644191937947, 3149.6737181751396, -0.074, 0.992, 0.246, 192.0, 0.0, 0.0, 0.0, 0.0, 0.0, 0.0, 0.0, 0.0, 0.0, 1.654675689748794E9, 0.0, 2022-06-08 10:08:09.748
121.0, 26856.872660740933, 28028.908732999414, -19753.57767982217, -15338.527004543186, 1908.4813485719383, -1148.7902580249618, 24813.699700081313, 3154.367584510754, -0.074, 0.992, 0.246, 192.0, 0.0, 0.0, 0.0, 0.0, 0.0, 0.0, 0.0, 0.0, 0.0, 1.6546756897487986E9, 0.0, 2022-06-08 10:08:09.748
122.0, 26866.930945745822, 28039.68227382687, -19740.747778504825, -15325.540641014653, 1959.19745674103, -1141.8388654993612, 24802.970862742768, 3171.064337618868, -0.074, 0.992, 0.246, 192.0, 253.0, 176.0, 31.0, 0.0, 7.0, 176.0, 0.0, 0.0, 0.0, 1.654675689748803E9, 0.0, 2022-06-08 10:08:09.748
123.0, 26856.626791551924, 28037.31298891461, -19754.225880411374, -15349.032324437181, 1949.6309101141585, -1149.237292914068, 24825.702586853815, 3176.8087359438823, -0.074, 0.992, 0.246, 192.0, 0.0, 0.0, 0.0, 0.0, 0.0, 0.0, 0.0, 0.0, 0.0, 1.6546756897488074E9, 0.0, 2022-06-08 10:08:09.748
124.0, 26842.053454167064, 28031.434480122865, -19771.48142713087, -15359.80586526464, 1915.8127207532789, -1165.844639044361, 24868.10384608553, 3174.2606370759772, -0.074, 0.992, 0.246, 192.0, 0.0, 0.0, 0.0, 0.0, 0.0, 0.0, 0.0, 0.0, 0.0, 1.6546756897488778E9, 0.0, 2022-06-08 10:08:09.748
125.0, 26843.01457917864, 28024.97482597528, -19776.35410742213, -15360.498769342754, 1901.3064386017847, -1176.1264414938023, 24866.53922397366, 3147.3491367517877, -0.074, 0.992, 0.246, 192.0, 0.0, 0.0, 0.0, 0.0, 0.0, 0.0, 0.0, 0.0, 0.0, 1.6546756897488823E9, 0.0, 2022-06-08 10:08:09.748
126.0, 26848.893087970388, 28039.21288719331, -19751.320153632183, -15338.75052198774, 1923.5464243348151, -1162.1118977203248, 24820.00289201771, 3138.0508110583796, -0.074, 0.992, 0.246, 192.0, 0.0, 0.0, 0.0, 0.0, 0.0, 0.0, 0.0, 0.0, 0.0, 1.6546756897488868E9, 0.0, 2022-06-08 10:08:09.748
127.0, 26862.8405765105, 28056.848413568547, -19729.348388832615, -15314.320065298089, 1953.743631093935, -1131.8476357278391, 24807.888246522936, 3160.2460933024995, -0.074, 0.992, 0.246, 192.0, 0.0, 0.0, 0.0, 0.0, 0.0, 0.0, 0.0, 0.0, 0.0, 1.654675689748891E9, 0.0, 2022-06-08 10:08:09.748
128.0, 26846.03206468011, 28037.089471470055, -19754.15882517801, -15337.409417320421, 1943.8641600446892, -1137.3685166082998, 24844.366293473995, 3169.231494573533, -0.074, 0.992, 0.246, 192.0, 0.0, 0.0, 0.0, 0.0, 0.0, 0.0, 0.0, 0.0, 0.0, 1.6546756897488956E9, 0.0, 2022-06-08 10:08:09.748
129.0, 26821.44514577927, 28023.03022420767, -19787.753497094334, -15372.434600881888, 1909.0624939277761, -1165.1517349662465, 24882.274852070197, 3146.745639651494, -0.074, 0.992, 0.246, 192.0, 0.0, 0.0, 0.0, 0.0, 0.0, 0.0, 0.0, 0.0, 0.0, 1.6546756897489002E9, 0.0, 2022-06-08 10:08:09.748
130.0, 26832.799831962566, 28035.03311098017, -19771.213206197408, -15361.526949587698, 1922.3841336231392, -1166.425784400199, 24888.175712606397, 3142.074125060335, -0.074, 0.992, 0.246, 192.0, 0.0, 0.0, 0.0, 0.0, 0.0, 0.0, 0.0, 0.0, 0.0, 1.6546756897489047E9, 0.0, 2022-06-08 10:08:09.748
131.0, 26837.605457020458, 28034.094337713046, -19757.310421146205, -15346.730094758284, 1934.3870203956392, -1157.0604034734254, 24850.736540643757, 3139.3248604923324, -0.074, 0.992, 0.246, 192.0, 0.0, 0.0, 0.0, 0.0, 0.0, 0.0, 0.0, 0.0, 0.0, 1.6546756897489092E9, 0.0, 2022-06-08 10:08:09.748
132.0, 26853.07286418353, 28046.25368669673, -19735.182194135454, -15326.524117770687, 1951.7319740929574, -1140.073077687392, 24830.195287489332, 3154.3899362552092, -0.08, 1.0, 0.25, 192.0, 253.0, 128.0, 31.0, 64.0, 7.0, 208.0, 0.0, 0.0, 0.0, 1.6546756897489135E9, 0.0, 2022-06-08 10:08:09.748
133.0, 26842.522840800626, 28041.73863431676, -19757.24336591284, -15345.009010435226, 1944.6241193561698, -1155.1158017058137, 24864.415808250407, 3164.872904404748, -0.08, 1.0, 0.25, 192.0, 0.0, 0.0, 0.0, 0.0, 0.0, 0.0, 0.0, 0.0, 0.0, 1.654675689748918E9, 0.0, 2022-06-08 10:08:09.748
134.0, 26830.542305772582, 28035.54720110264, -19778.05284000073, -15361.392839120967, 1933.3141366617845, -1168.0127582565258, 24910.0804221726, 3167.845686417304, -0.08, 1.0, 0.25, 192.0, 0.0, 0.0, 0.0, 0.0, 0.0, 0.0, 0.0, 0.0, 0.0, 1.6546756897489223E9, 0.0, 2022-06-08 10:08:09.748
135.0, 26813.59968347546, 28019.006910205713, -19789.228712228385, -15379.028365496204, 1916.7514940204019, -1187.1234997658134, 24909.543980305672, 3136.4414854575975, -0.08, 1.0, 0.25, 192.0, 0.0, 0.0, 0.0, 0.0, 0.0, 0.0, 0.0, 0.0, 0.0, 1.654675689748927E9, 0.0, 2022-06-08 10:08:09.748
136.0, 26829.46942203873, 28032.50736385672, -19761.62430782608, -15356.52015882971, 1936.421029141072, -1166.1799152111907, 24869.15437807493, 3135.5474156793853, -0.08, 1.0, 0.25, 192.0, 0.0, 0.0, 0.0, 0.0, 0.0, 0.0, 0.0, 0.0, 0.0, 1.654675689748933E9, 0.0, 2022-06-08 10:08:09.748
137.0, 26863.242907910695, 28066.41496019542, -19721.14529861752, -15314.677693209374, 1973.5025731924266, -1119.688286744152, 24859.386665747963, 3171.2878550634214, -0.08, 1.0, 0.25, 192.0, 0.0, 0.0, 0.0, 0.0, 0.0, 0.0, 0.0, 0.0, 0.0, 1.6546756897489374E9, 0.0, 2022-06-08 10:08:09.748
138.0, 26838.141898887385, 28048.73473033127, -19754.672915300478, -15339.75635048823, 1955.5988258837256, -1138.5755108088865, 24887.348698061553, 3177.591046999818, -0.08, 1.0, 0.25, 192.0, 0.0, 0.0, 0.0, 0.0, 0.0, 0.0, 0.0, 0.0, 0.0, 1.654675689748942E9, 0.0, 2022-06-08 10:08:09.748
139.0, 26804.614282204424, 28025.824192264583, -19797.990596054864, -15377.307281173145, 1913.644601541114, -1176.6628833607297, 24921.949198478367, 3154.9263781221366, -0.08, 1.0, 0.25, 192.0, 0.0, 0.0, 0.0, 0.0, 0.0, 0.0, 0.0, 0.0, 0.0, 1.6546756897489462E9, 0.0, 2022-06-08 10:08:09.748
140.0, 26806.290663038573, 28029.378119632976, -19794.235502986372, -15380.168304463425, 1911.4764823289495, -1184.5754008979084, 24916.920055975923, 3128.7077818760613, -0.08, 1.0, 0.25, 192.0, 0.0, 0.0, 0.0, 0.0, 0.0, 0.0, 0.0, 0.0, 0.0, 1.6546756897489707E9, 0.0, 2022-06-08 10:08:09.748
141.0, 26828.664759238334, 28047.88536404197, -19758.763284535802, -15359.582347820085, 1929.8049127823012, -1171.3431681803665, 24866.785093162667, 3120.035305027402, -0.08, 1.0, 0.25, 192.0, 0.0, 0.0, 0.0, 0.0, 0.0, 0.0, 0.0, 0.0, 0.0, 1.6546756897489767E9, 0.0, 2022-06-08 10:08:09.748
142.0, 26847.30611411406, 28062.995143293756, -19732.81290922319, -15312.017835619192, 1950.8826078036557, -1140.207188154124, 24846.48970919725, 3149.226683286033, -0.078, 0.994, 0.254, 192.0, 253.0, 144.0, 31.0, 16.0, 7.0, 240.0, 0.0, 0.0, 0.0, 1.6546756897489812E9, 0.0, 2022-06-08 10:08:09.748
143.0, 26832.799831962566, 28054.300314700642, -19759.29972640273, -15338.03526616517, 1941.00313675441, -1146.622138812797, 24897.31757608862, 3164.582331726829, -0.078, 0.994, 0.254, 192.0, 0.0, 0.0, 0.0, 0.0, 0.0, 0.0, 0.0, 0.0, 0.0, 1.6546756897489853E9, 0.0, 2022-06-08 10:08:09.748
144.0, 26816.55011374356, 28053.965038533814, -19781.182084224474, -15363.046868210658, 1916.5726800647594, -1164.1459064657577, 24949.30773369166, 3167.242189317011, -0.078, 0.994, 0.254, 192.0, 0.0, 0.0, 0.0, 0.0, 0.0, 0.0, 0.0, 0.0, 0.0, 1.6546756897489896E9, 0.0, 2022-06-08 10:08:09.748
145.0, 26819.947578900767, 28063.956268305337, -19768.262775929306, -15355.08964718457, 1922.6747063010582, -1165.8893425332717, 24947.31842843514, 3147.595005940796, -0.078, 0.994, 0.254, 192.0, 0.0, 0.0, 0.0, 0.0, 0.0, 0.0, 0.0, 0.0, 0.0, 1.654675689748994E9, 0.0, 2022-06-08 10:08:09.748
146.0, 26835.146765130376, 28074.305125988143, -19744.43581633995, -15332.357923073521, 1939.8855495316448, -1148.7455545360513, 24902.369070335517, 3153.160590310167, -0.078, 0.994, 0.254, 192.0, 0.0, 0.0, 0.0, 0.0, 0.0, 0.0, 0.0, 0.0, 0.0, 1.6546756897489984E9, 0.0, 2022-06-08 10:08:09.748
147.0, 26850.03302693761, 28094.37699250901, -19726.19679286442, -15311.548448985632, 1957.3199102067842, -1131.0206211829927, 24882.78894219267, 3175.3782242987427, -0.078, 0.994, 0.254, 192.0, 0.0, 0.0, 0.0, 0.0, 0.0, 0.0, 0.0, 0.0, 0.0, 1.6546756897490032E9, 0.0, 2022-06-08 10:08:09.749
148.0, 26834.386805818893, 28091.71713491883, -19746.693342529936, -15331.553260273131, 1950.5473316368261, -1138.5978625533419, 24908.515800060726, 3181.6367127462286, -0.078, 0.994, 0.254, 192.0, 0.0, 0.0, 0.0, 0.0, 0.0, 0.0, 0.0, 0.0, 0.0, 1.6546756897490075E9, 0.0, 2022-06-08 10:08:09.749
149.0, 26816.393651532373, 28085.50334996025, -19773.269566687297, -15355.201405906846, 1934.4093721400943, -1161.2848831754784, 24951.252335459274, 3171.8913521637146, -0.078, 0.994, 0.254, 192.0, 0.0, 0.0, 0.0, 0.0, 0.0, 0.0, 0.0, 0.0, 0.0, 1.6546756897490118E9, 0.0, 2022-06-08 10:08:09.749
150.0, 26811.54332298557, 28084.788094137682, -19773.850712043135, -15360.722286787306, 1932.0847907167424, -1172.8854385477828, 24956.057960517166, 3149.7631251529606, -0.078, 0.994, 0.254, 192.0, 0.0, 0.0, 0.0, 0.0, 0.0, 0.0, 0.0, 0.0, 0.0, 1.654675689749016E9, 0.0, 2022-06-08 10:08:09.749
151.0, 26816.393651532373, 28082.351753992054, -19755.522281589783, -15349.032324437181, 1943.618290855681, -1153.0370894714702, 24911.622692540015, 3146.2539012734774, -0.078, 0.994, 0.254, 192.0, 0.0, 0.0, 0.0, 0.0, 0.0, 0.0, 0.0, 0.0, 0.0, 1.6546756897490203E9, 0.0, 2022-06-08 10:08:09.749
0.0, 0.0, 0.0, 0.0, 0.0, 0.0, 0.0, 0.0, 0.0, -0.096, 1.0, 0.274, 192.0, 253.0, 0.0, 31.0, 64.0, 8.0, 144.0, 0.0, 0.0, 0.0, 1.6546756898338716E9, 0.0, 2022-06-08 10:08:09.833
1.0, 27168.00894355881, 27961.00413334419, -19726.62147600907, -15222.812023498062, 2011.612297488725, -1082.271466525968, 25537.15861286624, 3252.6929083696496, -0.096, 1.0, 0.274, 192.0, 0.0, 0.0, 0.0, 0.0, 0.0, 0.0, 0.0, 0.0, 0.0, 1.6546756903196344E9, 0.0, 2022-06-08 10:08:10.319
2.0, 27165.88552783555, 27963.753397912194, -19713.501002013803, -15220.040407185605, 2003.1409863401636, -1078.8963531132167, 25520.461859758125, 3233.2468906935324, -0.096, 1.0, 0.274, 192.0, 0.0, 0.0, 0.0, 0.0, 0.0, 0.0, 0.0, 0.0, 0.0, 1.654675690319641E9, 0.0, 2022-06-08 10:08:10.319
3.0, 27197.80381891773, 27987.356840056997, -19668.909271825465, -15190.893732415883, 2036.3109751118393, -1043.8711695517504, 25459.03926599494, 3244.1545419877225, -0.096, 1.0, 0.274, 192.0, 0.0, 0.0, 0.0, 0.0, 0.0, 0.0, 0.0, 0.0, 0.0, 1.6546756903196464E9, 0.0, 2022-06-08 10:08:10.319
4.0, 27217.987444160874, 28003.584206531552, -19665.35534445707, -15161.747057646164, 2054.6617573096464, -1039.244358449502, 25444.354169887803, 3247.0155652780018, -0.096, 1.0, 0.274, 192.0, 0.0, 0.0, 0.0, 0.0, 0.0, 0.0, 0.0, 0.0, 0.0, 1.6546756903196516E9, 0.0, 2022-06-08 10:08:10.319
5.0, 27218.233313349883, 28005.819380977082, -19684.399030732995, -15178.086182842993, 2036.713306512035, -1044.6758323521415, 25492.3657169778, 3243.8192658208927, -0.096, 1.0, 0.274, 192.0, 0.0, 0.0, 0.0, 0.0, 0.0, 0.0, 0.0, 0.0, 0.0, 1.6546756903196692E9, 0.0, 2022-06-08 10:08:10.319
6.0, 27208.376194045093, 27993.995308160225, -19698.502981484293, -15194.760584206651, 2025.8727104512109, -1051.850742322295, 25523.81462142642, 3251.5082659135182, -0.096, 1.0, 0.274, 192.0, 0.0, 0.0, 0.0, 0.0, 0.0, 0.0, 0.0, 0.0, 0.0, 1.6546756903196738E9, 0.0, 2022-06-08 10:08:10.319
7.0, 27210.47725802389, 27991.246043592222, -19699.978196618344, -15204.72946223372, 2009.9582683990322, -1070.045062308915, 25511.521161976, 3236.4208384061862, -0.096, 1.0, 0.274, 192.0, 0.0, 0.0, 0.0, 0.0, 0.0, 0.0, 0.0, 0.0, 0.0, 1.6546756903196783E9, 0.0, 2022-06-08 10:08:10.319
8.0, 27235.5782670472, 28015.743555515237, -19667.881091580522, -15171.62652869541, 2038.836722235289, -1053.7953440899068, 25478.99937379353, 3247.7531728450267, -0.096, 0.982, 0.28400000000000003, 192.0, 253.0, 0.0, 30.0, 176.0, 8.0, 224.0, 0.0, 0.0, 0.0, 1.6546756903196828E9, 0.0, 2022-06-08 10:08:10.319
9.0, 27243.334322373194, 28020.817401506592, -19661.51084441076, -15162.976403591205, 2048.000937461965, -1033.9693467580494, 25466.974135276574, 3270.9095801007247, -0.096, 0.982, 0.28400000000000003, 192.0, 0.0, 0.0, 0.0, 0.0, 0.0, 0.0, 0.0, 0.0, 0.0, 1.6546756903196874E9, 0.0, 2022-06-08 10:08:10.319
10.0, 27231.890229212077, 28012.72607001377, -19684.108458055074, -15186.24456956918, 2027.102056396253, -1044.9440532856052, 25503.42983048318, 3273.994120835557, -0.096, 0.982, 0.28400000000000003, 192.0, 0.0, 0.0, 0.0, 0.0, 0.0, 0.0, 0.0, 0.0, 0.0, 1.654675690319692E9, 0.0, 2022-06-08 10:08:10.319
11.0, 27209.203208589937, 27997.258662850698, -19712.89750491351, -15206.361139578956, 2006.583154986281, -1070.1344692867362, 25534.92343842071, 3259.8007631064374, -0.096, 0.982, 0.28400000000000003, 192.0, 0.0, 0.0, 0.0, 0.0, 0.0, 0.0, 0.0, 0.0, 0.0, 1.6546756903196964E9, 0.0, 2022-06-08 10:08:10.319
12.0, 27205.42576377699, 27997.72804948426, -19711.265827568273, -15206.808174468062, 2000.615239216714, -1075.6553501671972, 25519.34427253536, 3242.1652367312, -0.096, 0.982, 0.28400000000000003, 192.0, 0.0, 0.0, 0.0, 0.0, 0.0, 0.0, 0.0, 0.0, 0.0, 1.6546756903197012E9, 0.0, 2022-06-08 10:08:10.319
13.0, 27229.29742685526, 28020.54918057313, -19680.42042021995, -15176.253339797657, 2021.4023615601495, -1052.2530737224906, 25481.391010450247, 3241.5840913753623, -0.096, 0.982, 0.28400000000000003, 192.0, 0.0, 0.0, 0.0, 0.0, 0.0, 0.0, 0.0, 0.0, 0.0, 1.654675690319706E9, 0.0, 2022-06-08 10:08:10.319
14.0, 27249.078720698206, 28034.98840749126, -19662.784893844713, -15160.227139023202, 2043.2847193818952, -1033.8352362913176, 25469.209309722104, 3255.755097360027, -0.096, 0.982, 0.28400000000000003, 192.0, 0.0, 0.0, 0.0, 0.0, 0.0, 0.0, 0.0, 0.0, 0.0, 1.6546756903197107E9, 0.0, 2022-06-08 10:08:10.319
15.0, 27228.358653588137, 28017.86697123849, -19691.819809892157, -15188.658557970353, 2020.7988644598563, -1048.9897190320157, 25505.419135739703, 3264.427574208686, -0.096, 0.982, 0.28400000000000003, 192.0, 0.0, 0.0, 0.0, 0.0, 0.0, 0.0, 0.0, 0.0, 0.0, 1.6546756903197155E9, 0.0, 2022-06-08 10:08:10.319
16.0, 27204.732859698877, 27999.337375085044, -19725.52624053076, -15222.968485709249, 1984.7007971645353, -1078.6057804352977, 25538.499717533556, 3243.126361742778, -0.096, 0.982, 0.28400000000000003, 192.0, 0.0, 0.0, 0.0, 0.0, 0.0, 0.0, 0.0, 0.0, 0.0, 1.6546756903197205E9, 0.0, 2022-06-08 10:08:10.319
17.0, 27206.722164955398, 27998.711526240295, -19722.776975962755, -15224.711921776763, 1982.353863996728, -1086.9653328615825, 25512.974025365595, 3205.329561868854, -0.1, 0.968, 0.28600000000000003, 192.0, 252.0, 224.0, 30.0, 64.0, 8.0, 240.0, 0.0, 0.0, 0.0, 1.654675690319725E9, 0.0, 2022-06-08 10:08:10.319
18.0, 27233.72307225741, 28025.801840520126, -19678.27465275224, -15191.541933005088, 2015.9932394019652, -1063.1160215277698, 25473.254975468517, 3210.8951462382256, -0.1, 0.968, 0.28600000000000003, 192.0, 0.0, 0.0, 0.0, 0.0, 0.0, 0.0, 0.0, 0.0, 0.0, 1.6546756903197296E9, 0.0, 2022-06-08 10:08:10.319
19.0, 27262.71328481594, 28052.422768166398, -19650.089102994098, -15167.424400737811, 2050.0796496963085, -1026.3921053877002, 25471.22096672308, 3255.5092281710185, -0.1, 0.968, 0.28600000000000003, 192.0, 0.0, 0.0, 0.0, 0.0, 0.0, 0.0, 0.0, 0.0, 0.0, 1.654675690319734E9, 0.0, 2022-06-08 10:08:10.319
20.0, 27249.34694163167, 28043.571477362097, -19678.297004496697, -15169.14548506087, 2028.6890302525796, -1042.530064884432, 25490.89050184375, 3259.130210772778, -0.1, 0.968, 0.28600000000000003, 192.0, 0.0, 0.0, 0.0, 0.0, 0.0, 0.0, 0.0, 0.0, 0.0, 1.6546756903197389E9, 0.0, 2022-06-08 10:08:10.319
21.0, 27218.00979590533, 28016.034128193158, -19713.165725846975, -15202.449584299278, 1989.9758088559877, -1080.7738996474625, 25531.973008152607, 3237.560777373407, -0.1, 0.968, 0.28600000000000003, 192.0, 0.0, 0.0, 0.0, 0.0, 0.0, 0.0, 0.0, 0.0, 0.0, 1.6546756903197432E9, 0.0, 2022-06-08 10:08:10.319
22.0, 27215.998138904353, 28010.133267656955, -19716.607894493092, -15214.698340260786, 1986.7348059099684, -1092.8661933977835, 25527.010920883527, 3211.3421811273315, -0.1, 0.968, 0.28600000000000003, 192.0, 0.0, 0.0, 0.0, 0.0, 0.0, 0.0, 0.0, 0.0, 0.0, 1.6546756903197477E9, 0.0, 2022-06-08 10:08:10.319
23.0, 27238.10401417065, 28029.22165742179, -19680.50982719777, -15188.747964948174, 2008.6842189650797, -1065.7535273734961, 25484.162626762703, 3213.487948595041, -0.1, 0.968, 0.28600000000000003, 192.0, 0.0, 0.0, 0.0, 0.0, 0.0, 0.0, 0.0, 0.0, 0.0, 1.654675690319752E9, 0.0, 2022-06-08 10:08:10.319
24.0, 27253.616124822634, 28045.046692496147, -19659.342725198596, -15164.317508258524, 2035.5286640559036, -1044.0723352518482, 25484.408495951713, 3230.1399982142448, -0.1, 0.968, 0.28600000000000003, 192.0, 0.0, 0.0, 0.0, 0.0, 0.0, 0.0, 0.0, 0.0, 0.0, 1.6546756903197565E9, 0.0, 2022-06-08 10:08:10.319
25.0, 27234.706549013445, 28030.62981732247, -19688.064716823665, -15188.14446784788, 2013.3557335562389, -1069.5756756753535, 25521.177115580693, 3242.4111059202082, -0.1, 0.968, 0.28600000000000003, 192.0, 0.0, 0.0, 0.0, 0.0, 0.0, 0.0, 0.0, 0.0, 0.0, 1.6546756903197613E9, 0.0, 2022-06-08 10:08:10.319
26.0, 27206.453944021934, 28008.412183333898, -19717.703129971404, -15214.899505960884, 1981.2362767739628, -1094.1178910872807, 25552.87188921832, 3235.7055825836164, -0.1, 0.968, 0.28600000000000003, 192.0, 0.0, 0.0, 0.0, 0.0, 0.0, 0.0, 0.0, 0.0, 0.0, 1.6546756903197656E9, 0.0, 2022-06-08 10:08:10.319
27.0, 27219.708528483934, 28014.82713399257, -19699.799382662703, -15197.19692435228, 1990.1769745560855, -1088.8875828847388, 25539.080862889394, 3219.522919597974, -0.09, 0.972, 0.294, 192.0, 253.0, 48.0, 30.0, 96.0, 9.0, 48.0, 0.0, 0.0, 0.0, 1.654675690319772E9, 0.0, 2022-06-08 10:08:10.319
28.0, 27257.930011502507, 28049.56174487612, -19655.07354200763, -15154.885072098385, 2036.1098094117415, -1053.7953440899068, 25492.075144299884, 3230.5646813588955, -0.09, 0.972, 0.294, 192.0, 0.0, 0.0, 0.0, 0.0, 0.0, 0.0, 0.0, 0.0, 0.0, 1.6546756903197765E9, 0.0, 2022-06-08 10:08:10.319
29.0, 27244.340150873682, 28047.818308808604, -19653.821844318136, -15151.465255196723, 2047.285681639395, -1046.0392887639152, 25479.80403659392, 3245.07096351039, -0.09, 0.972, 0.294, 192.0, 0.0, 0.0, 0.0, 0.0, 0.0, 0.0, 0.0, 0.0, 0.0, 1.6546756903197813E9, 0.0, 2022-06-08 10:08:10.319
30.0, 27229.25272336635, 28034.74253830225, -19681.85093186509, -15174.19697930777, 2030.7230389980125, -1057.885713325228, 25514.315130032915, 3257.163257260711, -0.09, 0.972, 0.294, 192.0, 0.0, 0.0, 0.0, 0.0, 0.0, 0.0, 0.0, 0.0, 0.0, 1.6546756903197856E9, 0.0, 2022-06-08 10:08:10.319
31.0, 27203.503513753836, 28014.35774735901, -19710.081185112143, -15200.01324415365, 1999.609410716225, -1076.303550756401, 25550.882583961797, 3252.871722325292, -0.09, 0.972, 0.294, 192.0, 0.0, 0.0, 0.0, 0.0, 0.0, 0.0, 0.0, 0.0, 0.0, 1.6546756903197913E9, 0.0, 2022-06-08 10:08:10.319
32.0, 27209.85140917914, 28019.096317183536, -19695.731365171836, -15185.708127702252, 2004.7503119409457, -1071.0732425538592, 25550.97199093962, 3241.8523123088257, -0.09, 0.972, 0.294, 192.0, 0.0, 0.0, 0.0, 0.0, 0.0, 0.0, 0.0, 0.0, 0.0, 1.654675690319796E9, 0.0, 2022-06-08 10:08:10.319
33.0, 27233.76777574632, 28037.715320314805, -19663.56720490065, -15158.707220400242, 2029.896024453166, -1052.789515589418, 25506.670833429198, 3242.232291964566, -0.09, 0.972, 0.294, 192.0, 0.0, 0.0, 0.0, 0.0, 0.0, 0.0, 0.0, 0.0, 0.0, 1.6546756903198009E9, 0.0, 2022-06-08 10:08:10.319
34.0, 27242.082624683695, 28045.31491342961, -19651.094931494586, -15149.699467384753, 2049.900835740666, -1033.0529252353817, 25491.270481499494, 3261.745364874049, -0.09, 0.972, 0.294, 192.0, 0.0, 0.0, 0.0, 0.0, 0.0, 0.0, 0.0, 0.0, 0.0, 1.6546756903198059E9, 0.0, 2022-06-08 10:08:10.319
35.0, 27234.974769946908, 28037.02241623669, -19666.763504357757, -15147.978383061694, 2048.895007240177, -1036.4727421370437, 25530.18486859618, 3286.5781529638953, -0.09, 0.972, 0.294, 192.0, 0.0, 0.0, 0.0, 0.0, 0.0, 0.0, 0.0, 0.0, 0.0, 1.6546756903198133E9, 0.0, 2022-06-08 10:08:10.319
36.0, 27202.7212026979, 28005.573511788072, -19714.931513658943, -15198.87330518643, 2001.4422537615603, -1067.273445996457, 25564.561851568444, 3263.0864695413675, -0.09, 0.972, 0.294, 192.0, 0.0, 0.0, 0.0, 0.0, 0.0, 0.0, 0.0, 0.0, 0.0, 1.6546756903198175E9, 0.0, 2022-06-08 10:08:10.319
37.0, 27214.724089470397, 28014.491857825742, -19695.37373726055, -15179.650804954865, 2008.2148323315184, -1065.8652860957725, 25546.501642048555, 3237.3819634177644, -0.088, 0.972, 0.3, 192.0, 253.0, 64.0, 30.0, 96.0, 9.0, 96.0, 0.0, 0.0, 0.0, 1.6546756903198223E9, 0.0, 2022-06-08 10:08:10.319
38.0, 27249.123424187117, 28040.35282616053, -19654.872376307532, -15140.065865524515, 2046.7939432613784, -1033.5446636133986, 25513.130487576782, 3256.336242715865, -0.088, 0.972, 0.3, 192.0, 0.0, 0.0, 0.0, 0.0, 0.0, 0.0, 0.0, 0.0, 0.0, 1.654675690319827E9, 0.0, 2022-06-08 10:08:10.319
39.0, 27254.174918434015, 28036.754195303227, -19656.32523969713, -15139.66353412432, 2051.0184229634315, -1030.4377711341108, 25505.24032178406, 3261.588902662862, -0.088, 0.972, 0.3, 192.0, 0.0, 0.0, 0.0, 0.0, 0.0, 0.0, 0.0, 0.0, 0.0, 1.654675690319832E9, 0.0, 2022-06-08 10:08:10.319
40.0, 27233.253685623848, 28028.059366710113, -19666.9423183134, -15156.293231999069, 2047.3750886172163, -1035.3775066587339, 25546.81456647093, 3270.9095801007247, -0.088, 0.972, 0.3, 192.0, 0.0, 0.0, 0.0, 0.0, 0.0, 0.0, 0.0, 0.0, 0.0, 1.654675690319837E9, 0.0, 2022-06-08 10:08:10.319
41.0, 27216.422822049004, 28009.239197878745, -19701.118135585562, -15182.467124756233, 2017.1108266247306, -1053.4153644341666, 25586.86889253484, 3266.7968591209483, -0.088, 0.972, 0.3, 192.0, 0.0, 0.0, 0.0, 0.0, 0.0, 0.0, 0.0, 0.0, 0.0, 1.6546756903198416E9, 0.0, 2022-06-08 10:08:10.319
42.0, 27223.173048874505, 28011.228503135266, -19688.1988272904, -15173.86170314094, 2027.9737744300098, -1045.815771319362, 25577.86113951935, 3249.563664145907, -0.088, 0.972, 0.3, 192.0, 0.0, 0.0, 0.0, 0.0, 0.0, 0.0, 0.0, 0.0, 0.0, 1.6546756903198462E9, 0.0, 2022-06-08 10:08:10.319
43.0, 27244.787185762787, 28023.745480030237, -19651.452559405872, -15140.177624246791, 2049.7890770183894, -1032.8517595352841, 25539.05851114494, 3248.3119664564097, -0.088, 0.972, 0.3, 192.0, 0.0, 0.0, 0.0, 0.0, 0.0, 0.0, 0.0, 0.0, 0.0, 1.6546756903198512E9, 0.0, 2022-06-08 10:08:10.319
44.0, 27251.62681956611, 28026.204171920323, -19638.89087902199, -15134.85790906643, 2066.508181870959, -1026.8167885323512, 25523.591103981867, 3260.1136875288116, -0.088, 0.972, 0.3, 192.0, 0.0, 0.0, 0.0, 0.0, 0.0, 0.0, 0.0, 0.0, 0.0, 1.6546756903198562E9, 0.0, 2022-06-08 10:08:10.319
45.0, 27227.01754892082, 28006.467581566285, -19671.971460815843, -15176.923892131317, 2038.54614955737, -1047.1568759866807, 25549.027389172006, 3251.7541351025266, -0.088, 0.972, 0.3, 192.0, 0.0, 0.0, 0.0, 0.0, 0.0, 0.0, 0.0, 0.0, 0.0, 1.654675690319862E9, 0.0, 2022-06-08 10:08:10.319
46.0, 27201.693022452953, 27985.63575573394, -19706.9519408884, -15191.117249860437, 1999.8105764163229, -1082.2267630370573, 25581.996212243583, 3226.1613877012, -0.088, 0.972, 0.3, 192.0, 0.0, 0.0, 0.0, 0.0, 0.0, 0.0, 0.0, 0.0, 0.0, 1.654675690319867E9, 0.0, 2022-06-08 10:08:10.319
47.0, 27196.90974913952, 27977.142092840924, -19708.181286833442, -15194.090031872993, 1997.5977537152476, -1088.0382165954372, 25571.803816771964, 3202.133262411745, -0.08600000000000001, 0.972, 0.302, 192.0, 253.0, 80.0, 30.0, 96.0, 9.0, 112.0, 0.0, 0.0, 0.0, 1.6546756903198717E9, 0.0, 2022-06-08 10:08:10.319
48.0, 27220.312025584226, 27998.420953562374, -19678.051135307687, -15167.156179804348, 2015.903832424144, -1064.501829683999, 25520.95359813614, 3196.724140253561, -0.08600000000000001, 0.972, 0.302, 192.0, 0.0, 0.0, 0.0, 0.0, 0.0, 0.0, 0.0, 0.0, 0.0, 1.654675690319878E9, 0.0, 2022-06-08 10:08:10.319
49.0, 27241.412072350035, 28022.918465485393, -19658.38160018702, -15147.419589450312, 2035.8415884782778, -1035.243396192002, 25489.884673343262, 3229.06711448039, -0.08600000000000001, 0.972, 0.302, 192.0, 0.0, 0.0, 0.0, 0.0, 0.0, 0.0, 0.0, 0.0, 0.0, 1.6546756903198824E9, 0.0, 2022-06-08 10:08:10.319
50.0, 27225.29646459776, 28006.378174588466, -19677.84996960759, -15164.496322214167, 2025.805655217845, -1041.5242363839432, 25521.266522558515, 3254.7045653706273, -0.08600000000000001, 0.972, 0.302, 192.0, 0.0, 0.0, 0.0, 0.0, 0.0, 0.0, 0.0, 0.0, 0.0, 1.654675690319887E9, 0.0, 2022-06-08 10:08:10.319
51.0, 27208.979691145385, 27994.64350874943, -19702.66040595298, -15184.47878175721, 2012.4393120335715, -1056.5446086579095, 25577.01177323005, 3258.1467340167446, -0.08600000000000001, 0.972, 0.302, 192.0, 0.0, 0.0, 0.0, 0.0, 0.0, 0.0, 0.0, 0.0, 0.0, 1.6546756903198917E9, 0.0, 2022-06-08 10:08:10.319
52.0, 27215.461697037423, 28000.16438962989, -19692.08803082562, -15183.294139301079, 2017.2002336025519, -1055.6505388796973, 25580.744514554088, 3233.939794771647, -0.08600000000000001, 0.972, 0.302, 192.0, 0.0, 0.0, 0.0, 0.0, 0.0, 0.0, 0.0, 0.0, 0.0, 1.6546756903198965E9, 0.0, 2022-06-08 10:08:10.319
53.0, 27250.688046298987, 28034.98840749126, -19652.145463483987, -15142.099874269948, 2046.4363153500935, -1016.244413404991, 25534.34229306487, 3233.1798354601665, -0.08600000000000001, 0.972, 0.302, 192.0, 0.0, 0.0, 0.0, 0.0, 0.0, 0.0, 0.0, 0.0, 0.0, 1.6546756903199012E9, 0.0, 2022-06-08 10:08:10.319
54.0, 27251.135081188095, 28034.630779579973, -19647.563355870647, -15135.014371277615, 2049.967890974032, -1009.5612418128541, 25513.28694978797, 3246.0544402664236, -0.08600000000000001, 0.972, 0.302, 192.0, 0.0, 0.0, 0.0, 0.0, 0.0, 0.0, 0.0, 0.0, 0.0, 1.6546756903199055E9, 0.0, 2022-06-08 10:08:10.319
55.0, 27214.05353713674, 27999.40443031841, -19690.389298247017, -15176.34274677548, 2012.9086986671327, -1051.3590039442784, 25537.896220433264, 3238.231329707066, -0.08600000000000001, 0.972, 0.302, 192.0, 0.0, 0.0, 0.0, 0.0, 0.0, 0.0, 0.0, 0.0, 0.0, 1.65467569031991E9, 0.0, 2022-06-08 10:08:10.319
56.0, 27209.985519645874, 27996.78927621714, -19709.14241184502, -15186.512790502644, 1990.8475268897448, -1069.5086204419877, 25552.223688629114, 3218.673553308672, -0.08600000000000001, 0.972, 0.302, 192.0, 0.0, 0.0, 0.0, 0.0, 0.0, 0.0, 0.0, 0.0, 0.0, 1.654675690319915E9, 0.0, 2022-06-08 10:08:10.319
57.0, 27212.108935369128, 27996.11872388348, -19704.04621410921, -15182.891807900884, 1985.5278117093817, -1064.881809339739, 25538.834993700388, 3211.2527741495105, -0.1, 0.978, 0.302, 192.0, 252.0, 224.0, 30.0, 144.0, 9.0, 112.0, 0.0, 0.0, 0.0, 1.6546756903199196E9, 0.0, 2022-06-08 10:08:10.319
58.0, 27234.125403657607, 28017.73286077176, -19664.036591534208, -15162.685830913286, 2025.5821377732918, -1040.1831317166248, 25519.411327768725, 3227.5024923685187, -0.1, 0.978, 0.302, 192.0, 0.0, 0.0, 0.0, 0.0, 0.0, 0.0, 0.0, 0.0, 0.0, 1.6546756903199244E9, 0.0, 2022-06-08 10:08:10.319
59.0, 27248.430520109003, 28026.248875409234, -19649.619716360536, -15131.214574720214, 2046.5257223279148, -1018.1890151726026, 25511.85643814283, 3257.945568316647, -0.1, 0.978, 0.302, 192.0, 0.0, 0.0, 0.0, 0.0, 0.0, 0.0, 0.0, 0.0, 0.0, 1.654675690319929E9, 0.0, 2022-06-08 10:08:10.319
60.0, 27236.695854269965, 28015.140058414945, -19673.37962071653, -15147.531348172588, 2036.065105922831, -1019.4407128620999, 25538.790290211477, 3284.767661663015, -0.1, 0.978, 0.302, 192.0, 0.0, 0.0, 0.0, 0.0, 0.0, 0.0, 0.0, 0.0, 0.0, 1.65467569031994E9, 0.0, 2022-06-08 10:08:10.319
61.0, 27214.545275514756, 27997.325718084066, -19705.342615287616, -15187.71978470323, 1999.3188380383062, -1046.6427858642085, 25581.370363398837, 3278.911504615725, -0.1, 0.978, 0.302, 192.0, 0.0, 0.0, 0.0, 0.0, 0.0, 0.0, 0.0, 0.0, 0.0, 1.6546756903199458E9, 0.0, 2022-06-08 10:08:10.319
62.0, 27215.327586570693, 27993.123590126466, -19704.04621410921, -15191.72074696073, 1991.3839687566722, -1063.5854081613313, 25589.796971058488, 3264.6734433976944, -0.1, 0.978, 0.302, 192.0, 0.0, 0.0, 0.0, 0.0, 0.0, 0.0, 0.0, 0.0, 0.0, 1.654675690319951E9, 0.0, 2022-06-08 10:08:10.319
63.0, 27243.40137760656, 28018.06813693859, -19666.13765551301, -15149.721819129209, 2027.1467598851634, -1039.400820660689, 25545.272296103514, 3263.913484086214, -0.1, 0.978, 0.302, 192.0, 0.0, 0.0, 0.0, 0.0, 0.0, 0.0, 0.0, 0.0, 0.0, 1.654675690319956E9, 0.0, 2022-06-08 10:08:10.319
64.0, 27264.25555518336, 28037.760023803716, -19645.059960491653, -15126.364246173413, 2056.673414310624, -1018.4572361060663, 25518.181981823684, 3287.4051675087417, -0.1, 0.978, 0.302, 192.0, 0.0, 0.0, 0.0, 0.0, 0.0, 0.0, 0.0, 0.0, 0.0, 1.6546756903199618E9, 0.0, 2022-06-08 10:08:10.319
65.0, 27250.799805021266, 28027.567628332097, -19673.93841432791, -15153.566319175521, 2035.193387889074, -1031.1977304455913, 25556.24700263107, 3305.219507839621, -0.1, 0.978, 0.302, 192.0, 0.0, 0.0, 0.0, 0.0, 0.0, 0.0, 0.0, 0.0, 0.0, 1.6546756903199706E9, 0.0, 2022-06-08 10:08:10.319
66.0, 27222.43544130748, 28000.700831496815, -19716.33967355963, -15201.846087198985, 1989.5958292002476, -1071.6320361652417, 25595.854293805874, 3271.0213388230013, -0.1, 0.978, 0.302, 192.0, 0.0, 0.0, 0.0, 0.0, 0.0, 0.0, 0.0, 0.0, 0.0, 1.6546756903199804E9, 0.0, 2022-06-08 10:08:10.319
67.0, 27220.602598262143, 27994.151770371413, -19714.797403192213, -15202.471936043732, 1985.416052987105, -1081.69032117013, 25584.767828556043, 3249.7871815904596, -0.096, 0.97, 0.31, 192.0, 253.0, 0.0, 30.0, 80.0, 9.0, 176.0, 0.0, 0.0, 0.0, 1.6546756903199918E9, 0.0, 2022-06-08 10:08:10.319
68.0, 27241.21090664994, 28011.027337435167, -19689.36111800207, -15173.839351396484, 2002.8280619177895, -1063.0042628054932, 25544.646447258765, 3254.7269171150824, -0.096, 0.97, 0.31, 192.0, 0.0, 0.0, 0.0, 0.0, 0.0, 0.0, 0.0, 0.0, 0.0, 1.6546756903199987E9, 0.0, 2022-06-08 10:08:10.319
69.0, 27265.239031939393, 28030.182782433367, -19667.143484013497, -15154.415685464823, 2028.711381997035, -1043.4241346626443, 25521.6241504698, 3269.2108475221216, -0.096, 0.97, 0.31, 192.0, 0.0, 0.0, 0.0, 0.0, 0.0, 0.0, 0.0, 0.0, 0.0, 1.6546756903200092E9, 0.0, 2022-06-08 10:08:10.320
70.0, 27265.14962496157, 28034.854297024525, -19677.112362040563, -15169.57016820552, 2024.1739778726076, -1036.338631670312, 25551.799005484463, 3293.171917578211, -0.096, 0.97, 0.31, 192.0, 0.0, 0.0, 0.0, 0.0, 0.0, 0.0, 0.0, 0.0, 0.0, 1.6546756903200147E9, 0.0, 2022-06-08 10:08:10.320
71.0, 27258.131177202606, 28031.278017911678, -19699.41940300696, -15178.667328198831, 2006.2031753305407, -1045.9051782971833, 25593.12738098233, 3292.9484001336577, -0.096, 0.97, 0.31, 192.0, 0.0, 0.0, 0.0, 0.0, 0.0, 0.0, 0.0, 0.0, 0.0, 1.654675690320021E9, 0.0, 2022-06-08 10:08:10.320
72.0, 27256.901831257564, 28024.706605041818, -19705.0520426097, -15172.05121184006, 1989.7969949003452, -1062.4231174496554, 25587.87472103533, 3272.317740001409, -0.096, 0.97, 0.31, 192.0, 0.0, 0.0, 0.0, 0.0, 0.0, 0.0, 0.0, 0.0, 0.0, 1.6546756903200276E9, 0.0, 2022-06-08 10:08:10.320
73.0, 27268.658848841056, 28034.54137260215, -19684.89076911101, -15158.550758189054, 1995.9213728810994, -1055.7846493464292, 25540.06433964543, 3254.481047926074, -0.096, 0.97, 0.31, 192.0, 0.0, 0.0, 0.0, 0.0, 0.0, 0.0, 0.0, 0.0, 0.0, 1.6546756903200333E9, 0.0, 2022-06-08 10:08:10.320
74.0, 27274.58206112171, 28038.899962770938, -19682.18620803192, -15159.3777727339, 2015.3673905572166, -1029.1190182112477, 25517.48907774557, 3253.78814384796, -0.096, 0.97, 0.31, 192.0, 0.0, 0.0, 0.0, 0.0, 0.0, 0.0, 0.0, 0.0, 0.0, 1.6546756903200395E9, 0.0, 2022-06-08 10:08:10.320
75.0, 27273.86680529914, 28038.140003459455, -19693.429135492937, -15169.95014786126, 2003.833890418278, -1032.114151968259, 25552.15663339575, 3272.7647748905156, -0.096, 0.97, 0.31, 192.0, 0.0, 0.0, 0.0, 0.0, 0.0, 0.0, 0.0, 0.0, 0.0, 1.6546756903200452E9, 0.0, 2022-06-08 10:08:10.320
76.0, 27257.415921380034, 28021.77852651817, -19726.33090333115, -15195.878171429416, 1978.3305499947728, -1070.8720768537614, 25602.224540975636, 3282.2195627951105, -0.096, 0.97, 0.31, 192.0, 0.0, 0.0, 0.0, 0.0, 0.0, 0.0, 0.0, 0.0, 0.0, 1.6546756903200507E9, 0.0, 2022-06-08 10:08:10.320
77.0, 27236.405281592048, 27998.845636707025, -19747.475653585872, -15220.35333160798, 1968.9204655790886, -1095.8613271547947, 25584.87958727832, 3245.383887932764, -0.1, 0.962, 0.31, 192.0, 252.0, 224.0, 30.0, 16.0, 9.0, 176.0, 0.0, 0.0, 0.0, 1.6546756903200564E9, 0.0, 2022-06-08 10:08:10.320
78.0, 27279.499444901878, 28037.760023803716, -19683.102629554585, -15159.154255289348, 2016.2167568465184, -1050.5543411438873, 25530.56484825192, 3258.1914375056554, -0.1, 0.962, 0.31, 192.0, 0.0, 0.0, 0.0, 0.0, 0.0, 0.0, 0.0, 0.0, 0.0, 1.654675690320062E9, 0.0, 2022-06-08 10:08:10.320
79.0, 27320.69370993301, 28068.672486385407, -19645.730512825314, -15121.223344948692, 2047.7103647840459, -1025.6544978206753, 25509.80007765294, 3293.484842000585, -0.1, 0.962, 0.31, 192.0, 0.0, 0.0, 0.0, 0.0, 0.0, 0.0, 0.0, 0.0, 0.0, 1.654675690320068E9, 0.0, 2022-06-08 10:08:10.320
80.0, 27283.67922111502, 28048.086529742068, -19678.297004496697, -15150.682944140786, 2026.8561872072444, -1039.11024798277, 25543.81943271392, 3297.5305077469957, -0.1, 0.962, 0.31, 192.0, 0.0, 0.0, 0.0, 0.0, 0.0, 0.0, 0.0, 0.0, 0.0, 1.6546756903200743E9, 0.0, 2022-06-08 10:08:10.320
81.0, 27257.706494057955, 28024.68425329736, -19716.987874148832, -15191.586636493998, 1994.423806002594, -1064.0324430504375, 25583.15850295526, 3282.867763384314, -0.1, 0.962, 0.31, 192.0, 0.0, 0.0, 0.0, 0.0, 0.0, 0.0, 0.0, 0.0, 0.0, 1.6546756903200805E9, 0.0, 2022-06-08 10:08:10.320
82.0, 27263.741465060888, 28027.768794032192, -19710.908199656988, -15197.666310985842, 2000.1682043276078, -1064.0324430504375, 25591.987442015106, 3274.2399900245655, -0.1, 0.962, 0.31, 192.0, 0.0, 0.0, 0.0, 0.0, 0.0, 0.0, 0.0, 0.0, 0.0, 1.6546756903200865E9, 0.0, 2022-06-08 10:08:10.320
83.0, 27281.511101902855, 28040.218715693798, -19687.12594355654, -15159.847159367462, 2017.6919719805685, -1049.2802917099348, 25558.01279044304, 3262.259454996521, -0.1, 0.962, 0.31, 192.0, 0.0, 0.0, 0.0, 0.0, 0.0, 0.0, 0.0, 0.0, 0.0, 1.654675690320093E9, 0.0, 2022-06-08 10:08:10.320
84.0, 27299.995994567395, 28050.634628609972, -19670.295079981697, -15131.66160960932, 2041.0495449363643, -1021.5417768408987, 25528.95552265114, 3276.1175365588115, -0.1, 0.962, 0.31, 192.0, 0.0, 0.0, 0.0, 0.0, 0.0, 0.0, 0.0, 0.0, 0.0, 1.6546756903200994E9, 0.0, 2022-06-08 10:08:10.320
85.0, 27290.049468284782, 28047.192459963855, -19694.14439131551, -15155.756790132142, 2022.4305418050938, -1024.179282686625, 25553.81066248544, 3292.1437373332665, -0.1, 0.962, 0.31, 192.0, 0.0, 0.0, 0.0, 0.0, 0.0, 0.0, 0.0, 0.0, 0.0, 1.6546756903201056E9, 0.0, 2022-06-08 10:08:10.320
86.0, 27272.01161050935, 28032.820288279094, -19714.9538654034, -15180.656633455354, 2007.4995765089486, -1057.1034022692922, 25597.083639750916, 3296.234106568588, -0.1, 0.962, 0.31, 192.0, 0.0, 0.0, 0.0, 0.0, 0.0, 0.0, 0.0, 0.0, 0.0, 1.654675690320112E9, 0.0, 2022-06-08 10:08:10.320
87.0, 27269.55291861927, 28030.808631278116, -19716.116156115077, -15185.52931374661, 1995.0720065917978, -1070.4697454535658, 25590.892206536795, 3264.8299056088813, -0.098, 0.964, 0.312, 192.0, 252.0, 240.0, 30.0, 32.0, 9.0, 192.0, 0.0, 0.0, 0.0, 1.654675690320119E9, 0.0, 2022-06-08 10:08:10.320
88.0, 27288.88717757311, 28046.588962863563, -19682.521484198747, -15162.57407219101, 2025.0233441619093, -1053.0577365228817, 25538.61147625583, 3255.26335898201, -0.098, 0.964, 0.312, 192.0, 0.0, 0.0, 0.0, 0.0, 0.0, 0.0, 0.0, 0.0, 0.0, 1.6546756903201249E9, 0.0, 2022-06-08 10:08:10.320
89.0, 27293.044602041795, 28048.444157653354, -19675.65949865097, -15148.4254179508, 2041.45187633656, -1045.1675707301583, 25516.349138778347, 3273.0776993128898, -0.098, 0.964, 0.312, 192.0, 0.0, 0.0, 0.0, 0.0, 0.0, 0.0, 0.0, 0.0, 0.0, 1.6546756903201313E9, 0.0, 2022-06-08 10:08:10.320
90.0, 27275.342020433192, 28033.0661574681, -19698.9500163734, -15170.553644961554, 2022.899928438655, -1062.7360418720295, 25554.25769737455, 3285.393510507764, -0.098, 0.964, 0.312, 192.0, 0.0, 0.0, 0.0, 0.0, 0.0, 0.0, 0.0, 0.0, 0.0, 1.6546756903201373E9, 0.0, 2022-06-08 10:08:10.320
91.0, 27251.67152305502, 28012.16727640239, -19732.835260967644, -15204.841220955996, 1985.1478320536414, -1086.9876846060379, 25595.78723857251, 3279.7608709050264, -0.098, 0.964, 0.312, 192.0, 0.0, 0.0, 0.0, 0.0, 0.0, 0.0, 0.0, 0.0, 0.0, 1.6546756903201463E9, 0.0, 2022-06-08 10:08:10.320
92.0, 27259.06995046973, 28021.666767795894, -19724.207487607895, -15200.72849997622, 1990.0428640893538, -1081.6456176812194, 25593.93204378272, 3245.5403501439514, -0.098, 0.964, 0.312, 192.0, 0.0, 0.0, 0.0, 0.0, 0.0, 0.0, 0.0, 0.0, 0.0, 1.654675690320152E9, 0.0, 2022-06-08 10:08:10.320
93.0, 27282.896910059084, 28046.03016925218, -19694.77024016026, -15167.357345504446, 2014.7638934569234, -1046.3522131862894, 25542.746548980063, 3261.4324404516747, -0.098, 0.964, 0.312, 192.0, 0.0, 0.0, 0.0, 0.0, 0.0, 0.0, 0.0, 0.0, 0.0, 1.6546756903201585E9, 0.0, 2022-06-08 10:08:10.320
94.0, 27311.68595691752, 28076.45089345585, -19660.505015910272, -15129.448786908244, 2057.031042221909, -1006.5214045669323, 25526.787403438975, 3310.9862579090905, -0.098, 0.964, 0.312, 192.0, 0.0, 0.0, 0.0, 0.0, 0.0, 0.0, 0.0, 0.0, 0.0, 1.6546756903201675E9, 0.0, 2022-06-08 10:08:10.320
95.0, 27290.63061364062, 28059.1729949919, -19689.964615102366, -15159.444827967267, 2040.4013443471606, -1040.9877945170158, 25566.841729502885, 3320.4410458136854, -0.098, 0.964, 0.312, 192.0, 0.0, 0.0, 0.0, 0.0, 0.0, 0.0, 0.0, 0.0, 0.0, 1.6546756903201723E9, 0.0, 2022-06-08 10:08:10.320
96.0, 27255.15839519005, 28023.231389907767, -19734.779862735257, -15214.228953627224, 1993.7979571578453, -1087.5688299618757, 25594.55789262747, 3279.3138360159205, -0.092, 0.97, 0.308, 192.0, 253.0, 32.0, 30.0, 80.0, 9.0, 160.0, 0.0, 0.0, 0.0, 1.6546756903201766E9, 0.0, 2022-06-08 10:08:10.320
97.0, 27263.942630760987, 28021.555009073618, -19728.029635909752, -15198.470973786232, 1978.5093639504153, -1084.4172339936774, 25581.526825610024, 3250.748306602038, -0.092, 0.97, 0.308, 192.0, 0.0, 0.0, 0.0, 0.0, 0.0, 0.0, 0.0, 0.0, 0.0, 1.6546756903201814E9, 0.0, 2022-06-08 10:08:10.320
98.0, 27282.762799592354, 28054.993218778756, -19683.66142316597, -15156.00265932115, 2012.7522364559456, -1047.045117264404, 25549.407368827746, 3258.7949346059486, -0.092, 0.97, 0.308, 192.0, 0.0, 0.0, 0.0, 0.0, 0.0, 0.0, 0.0, 0.0, 0.0, 1.654675690320186E9, 0.0, 2022-06-08 10:08:10.320
99.0, 27305.91920684805, 28076.763817878225, -19655.811149574656, -15127.146557229347, 2048.4032688621605, -1015.2385849045021, 25532.82237444191, 3284.5441442184624, -0.092, 0.97, 0.308, 192.0, 0.0, 0.0, 0.0, 0.0, 0.0, 0.0, 0.0, 0.0, 0.0, 1.6546756903201904E9, 0.0, 2022-06-08 10:08:10.320
100.0, 27285.78028509382, 28056.535489146172, -19685.986004589322, -15159.422476222811, 2042.2341873924956, -1024.4922071089993, 25563.578374812412, 3302.4925950160737, -0.092, 0.97, 0.308, 192.0, 0.0, 0.0, 0.0, 0.0, 0.0, 0.0, 0.0, 0.0, 0.0, 1.654675690320197E9, 0.0, 2022-06-08 10:08:10.320
101.0, 27265.57430810622, 28040.777509305182, -19721.324112573162, -15188.837371925996, 1996.7707391704012, -1058.042175536415, 25585.93011926772, 3278.3750627487975, -0.092, 0.97, 0.308, 192.0, 0.0, 0.0, 0.0, 0.0, 0.0, 0.0, 0.0, 0.0, 0.0, 1.6546756903202016E9, 0.0, 2022-06-08 10:08:10.320
102.0, 27257.14770044657, 28027.478221354275, -19732.365874334082, -15198.001587152672, 1984.0078930864208, -1080.97506534756, 25578.44228487519, 3253.0281845364793, -0.092, 0.97, 0.308, 192.0, 0.0, 0.0, 0.0, 0.0, 0.0, 0.0, 0.0, 0.0, 0.0, 1.654675690320206E9, 0.0, 2022-06-08 10:08:10.320
103.0, 27276.772532078332, 28044.063215740112, -19697.251283794794, -15170.263072283635, 1999.5423554828592, -1061.5737511603536, 25534.52110702051, 3250.3459752018425, -0.092, 0.97, 0.308, 192.0, 0.0, 0.0, 0.0, 0.0, 0.0, 0.0, 0.0, 0.0, 0.0, 1.6546756903202105E9, 0.0, 2022-06-08 10:08:10.320
104.0, 27303.147590535595, 28069.901832330448, -19664.818902590145, -15138.791816090563, 2038.1214664127192, -1011.4611400915552, 25520.551266735943, 3272.340091745865, -0.092, 0.97, 0.308, 192.0, 0.0, 0.0, 0.0, 0.0, 0.0, 0.0, 0.0, 0.0, 0.0, 1.6546756903202152E9, 0.0, 2022-06-08 10:08:10.320
105.0, 27286.20496823847, 28054.434425167376, -19691.08220232513, -15160.137732045381, 2033.293489610373, -1035.2657479364573, 25563.265450390038, 3284.9017721297473, -0.092, 0.97, 0.308, 192.0, 0.0, 0.0, 0.0, 0.0, 0.0, 0.0, 0.0, 0.0, 0.0, 1.6546756903202195E9, 0.0, 2022-06-08 10:08:10.320
106.0, 27265.39549415058, 28040.50928837172, -19722.1064236291, -15186.95982539175, 2011.5228905109038, -1070.5815041758424, 25608.527732912033, 3278.576228448895, -0.088, 0.97, 0.312, 192.0, 253.0, 64.0, 30.0, 80.0, 9.0, 192.0, 0.0, 0.0, 0.0, 1.654675690320224E9, 0.0, 2022-06-08 10:08:10.320
107.0, 27246.552973574755, 28018.269302638688, -19743.34058086164, -15209.15510763587, 1974.5754569262813, -1092.6426759532305, 25599.408221174268, 3237.225501206577, -0.088, 0.97, 0.312, 192.0, 0.0, 0.0, 0.0, 0.0, 0.0, 0.0, 0.0, 0.0, 0.0, 1.6546756903202288E9, 0.0, 2022-06-08 10:08:10.320
108.0, 27281.131122247116, 28047.70655008633, -19695.507847727284, -15166.217406537226, 2015.9708876575098, -1059.8303150928398, 25553.20716538515, 3246.7249926000827, -0.088, 0.97, 0.312, 192.0, 0.0, 0.0, 0.0, 0.0, 0.0, 0.0, 0.0, 0.0, 0.0, 1.6546756903202336E9, 0.0, 2022-06-08 10:08:10.320
109.0, 27302.477038201934, 28069.790073608172, -19665.98119330182, -15133.226231721192, 2049.029117706909, -1032.91881476865, 25532.330636063893, 3280.9455133611577, -0.088, 0.97, 0.312, 192.0, 0.0, 0.0, 0.0, 0.0, 0.0, 0.0, 0.0, 0.0, 0.0, 1.6546756903202393E9, 0.0, 2022-06-08 10:08:10.320
110.0, 27285.847340327186, 28059.08358801408, -19692.13273431453, -15162.551720446554, 2025.2692133509177, -1042.0606782508705, 25552.178985140203, 3282.5995424508505, -0.088, 0.97, 0.312, 192.0, 0.0, 0.0, 0.0, 0.0, 0.0, 0.0, 0.0, 0.0, 0.0, 1.6546756903202443E9, 0.0, 2022-06-08 10:08:10.320
111.0, 27267.83183429621, 28043.727939573284, -19721.7040922289, -15179.76256367714, 1997.1730705705966, -1062.5795796608425, 25583.717296566643, 3281.6607691837276, -0.088, 0.97, 0.312, 192.0, 0.0, 0.0, 0.0, 0.0, 0.0, 0.0, 0.0, 0.0, 0.0, 1.6546756903202488E9, 0.0, 2022-06-08 10:08:10.320
112.0, 27253.25849691135, 28025.153639930923, -19735.450415068917, -15182.511828245144, 1978.5987709282365, -1083.5678677043759, 25580.36453489835, 3258.906693328225, -0.088, 0.97, 0.312, 192.0, 0.0, 0.0, 0.0, 0.0, 0.0, 0.0, 0.0, 0.0, 0.0, 1.654675690320256E9, 0.0, 2022-06-08 10:08:10.320
113.0, 27276.437255911504, 28040.12930871598, -19699.575865218147, -15160.405952978845, 2009.1089021097307, -1050.241416721513, 25543.081825146895, 3259.778411361982, -0.088, 0.97, 0.312, 192.0, 0.0, 0.0, 0.0, 0.0, 0.0, 0.0, 0.0, 0.0, 0.0, 1.6546756903202603E9, 0.0, 2022-06-08 10:08:10.320
114.0, 27305.986262081416, 28065.677352628394, -19670.809170104167, -15126.923039784795, 2039.2614053799398, -1023.1734541861362, 25531.68243547469, 3284.7900134074707, -0.088, 0.97, 0.312, 192.0, 0.0, 0.0, 0.0, 0.0, 0.0, 0.0, 0.0, 0.0, 0.0, 1.6546756903202648E9, 0.0, 2022-06-08 10:08:10.320
115.0, 27299.370145722645, 28060.536451403674, -19687.237702278817, -15143.128054514893, 2035.5286640559036, -1029.856625778273, 25567.221709158624, 3292.2778477999987, -0.088, 0.97, 0.312, 192.0, 0.0, 0.0, 0.0, 0.0, 0.0, 0.0, 0.0, 0.0, 0.0, 1.654675690320269E9, 0.0, 2022-06-08 10:08:10.320
116.0, 27252.565592833234, 28020.660939295405, -19733.81873772368, -15191.229008582714, 1997.5977537152476, -1064.0324430504375, 25595.697831594687, 3263.868780597303, -0.088, 0.97, 0.302, 192.0, 253.0, 64.0, 30.0, 80.0, 9.0, 112.0, 0.0, 0.0, 0.0, 1.6546756903202739E9, 0.0, 2022-06-08 10:08:10.320
117.0, 27256.521851601825, 28022.337320129554, -19728.074339398663, -15185.395203279879, 1992.8144804018118, -1063.0936697833145, 25597.083639750916, 3253.78814384796, -0.088, 0.97, 0.302, 192.0, 0.0, 0.0, 0.0, 0.0, 0.0, 0.0, 0.0, 0.0, 0.0, 1.6546756903202786E9, 0.0, 2022-06-08 10:08:10.320
118.0, 27280.952308291475, 28043.817346551103, -19688.355289501586, -15152.314621486024, 2026.677373251602, -1036.6068526037757, 25561.119682922326, 3250.971824046591, -0.088, 0.97, 0.302, 192.0, 0.0, 0.0, 0.0, 0.0, 0.0, 0.0, 0.0, 0.0, 0.0, 1.654675690320284E9, 0.0, 2022-06-08 10:08:10.320
119.0, 27295.704459631976, 28051.282829199175, -19673.245510249795, -15133.270935210103, 2046.324556627817, -1024.0228204754378, 25524.328711548893, 3265.612216664817, -0.088, 0.97, 0.302, 192.0, 0.0, 0.0, 0.0, 0.0, 0.0, 0.0, 0.0, 0.0, 0.0, 1.6546756903202884E9, 0.0, 2022-06-08 10:08:10.320
120.0, 27285.31089846026, 28039.369349404496, -19690.434001735928, -15153.454560453245, 2041.3624693587387, -1036.696259581597, 25551.44137757318, 3284.7006064296493, -0.088, 0.97, 0.302, 192.0, 0.0, 0.0, 0.0, 0.0, 0.0, 0.0, 0.0, 0.0, 0.0, 1.654675690320293E9, 0.0, 2022-06-08 10:08:10.320
121.0, 27262.936802260498, 28020.102145684024, -19723.38047306305, -15192.905389416861, 2008.3712945427055, -1062.0878412828256, 25593.172084471236, 3267.9815015770796, -0.088, 0.97, 0.302, 192.0, 0.0, 0.0, 0.0, 0.0, 0.0, 0.0, 0.0, 0.0, 0.0, 1.654675690800492E9, 0.0, 2022-06-08 10:08:10.800
122.0, 27254.845470767676, 28010.177971145866, -19727.62730450956, -15183.987043379193, 1987.4053582436275, -1078.7845943909401, 25588.791142558, 3241.0252977639793, -0.088, 0.97, 0.302, 192.0, 0.0, 0.0, 0.0, 0.0, 0.0, 0.0, 0.0, 0.0, 0.0, 1.654675690800582E9, 0.0, 2022-06-08 10:08:10.800
123.0, 27291.92701481903, 28045.046692496147, -19678.60992891907, -15142.3233917145, 2027.772608729912, -1049.4591056655772, 25552.02252292902, 3246.1438472442446, -0.088, 0.97, 0.302, 192.0, 0.0, 0.0, 0.0, 0.0, 0.0, 0.0, 0.0, 0.0, 0.0, 1.6546756908005893E9, 0.0, 2022-06-08 10:08:10.800
124.0, 27305.382764981125, 28055.1720327344, -19659.432132176415, -15131.66160960932, 2057.2098561775515, -1027.375582143734, 25530.72131046311, 3259.420783450697, -0.088, 0.97, 0.302, 192.0, 0.0, 0.0, 0.0, 0.0, 0.0, 0.0, 0.0, 0.0, 0.0, 1.654675690800596E9, 0.0, 2022-06-08 10:08:10.800
125.0, 27282.293412958792, 28029.668692310894, -19692.870341881557, -15165.032764081094, 2029.6725070086131, -1047.6709661091527, 25557.319886364927, 3272.7647748905156, -0.088, 0.97, 0.302, 192.0, 0.0, 0.0, 0.0, 0.0, 0.0, 0.0, 0.0, 0.0, 0.0, 1.6546756908006012E9, 0.0, 2022-06-08 10:08:10.800
126.0, 27250.933915487996, 28005.037069921145, -19736.411540080495, -15201.510811032154, 1991.7192449235017, -1092.1956410641244, 25595.519017639046, 3251.3741554467865, -0.084, 0.974, 0.306, 192.0, 253.0, 96.0, 30.0, 112.0, 9.0, 144.0, 0.0, 0.0, 0.0, 1.6546756908006063E9, 0.0, 2022-06-08 10:08:10.800
127.0, 27260.612220837145, 28016.45881133781, -19725.503888786305, -15181.99773812267, 1999.5647072273146, -1090.563963718887, 25600.54816014149, 3234.4985883830295, -0.084, 0.974, 0.306, 192.0, 0.0, 0.0, 0.0, 0.0, 0.0, 0.0, 0.0, 0.0, 0.0, 1.6546756908006108E9, 0.0, 2022-06-08 10:08:10.800
128.0, 27279.432389668513, 28029.802802777627, -19694.65848143798, -15155.265051754124, 2021.6258790047025, -1058.623320892253, 25558.839804987885, 3245.6074053773173, -0.084, 0.974, 0.306, 192.0, 0.0, 0.0, 0.0, 0.0, 0.0, 0.0, 0.0, 0.0, 0.0, 1.654675690800616E9, 0.0, 2022-06-08 10:08:10.800
129.0, 27285.199139737982, 28030.02632022218, -19687.282405767728, -15148.648935395353, 2015.2779835793954, -1047.2239312200466, 25525.267484816013, 3244.042783265446, -0.084, 0.974, 0.306, 192.0, 0.0, 0.0, 0.0, 0.0, 0.0, 0.0, 0.0, 0.0, 0.0, 1.654675690800622E9, 0.0, 2022-06-08 10:08:10.800
130.0, 27284.573290893233, 28031.45683186732, -19693.205618048385, -15149.81122610703, 2019.7036289815462, -1054.175323745647, 25549.92145895022, 3260.4489636956414, -0.084, 0.974, 0.306, 192.0, 0.0, 0.0, 0.0, 0.0, 0.0, 0.0, 0.0, 0.0, 0.0, 1.6546756908006272E9, 0.0, 2022-06-08 10:08:10.800
131.0, 27254.5325463453, 28007.808686233606, -19730.37656907756, -15185.752831191163, 1988.4782419774822, -1082.1597078036914, 25589.327584424926, 3256.69387062715, -0.084, 0.974, 0.306, 192.0, 0.0, 0.0, 0.0, 0.0, 0.0, 0.0, 0.0, 0.0, 0.0, 1.6546756908006322E9, 0.0, 2022-06-08 10:08:10.800
132.0, 27243.15550841755, 27999.247968107222, -19738.222031381374, -15202.293122088091, 1975.648340660136, -1097.0683213553812, 25601.196360730693, 3217.935945741647, -0.084, 0.974, 0.306, 192.0, 0.0, 0.0, 0.0, 0.0, 0.0, 0.0, 0.0, 0.0, 0.0, 1.6546756908006392E9, 0.0, 2022-06-08 10:08:10.800
133.0, 27263.137967960593, 28014.40245084792, -19709.924722900956, -15173.057040340549, 1991.7639484124124, -1075.0518530669037, 25555.44233983068, 3219.947602742625, -0.084, 0.974, 0.306, 192.0, 0.0, 0.0, 0.0, 0.0, 0.0, 0.0, 0.0, 0.0, 0.0, 1.6546756908006792E9, 0.0, 2022-06-08 10:08:10.800
134.0, 27286.696706616487, 28032.64147432345, -19680.93451034242, -15155.421513965312, 2018.4072278031383, -1051.627224877742, 25525.84863017185, 3244.266300709999, -0.084, 0.974, 0.306, 192.0, 0.0, 0.0, 0.0, 0.0, 0.0, 0.0, 0.0, 0.0, 0.0, 1.6546756908006852E9, 0.0, 2022-06-08 10:08:10.800
135.0, 27284.573290893233, 28035.323683658087, -19684.04140282171, -15147.888976083874, 2020.8435679487668, -1052.2530737224906, 25555.15176715276, 3260.4042602067307, -0.084, 0.974, 0.306, 192.0, 0.0, 0.0, 0.0, 0.0, 0.0, 0.0, 0.0, 0.0, 0.0, 1.65467569080069E9, 0.0, 2022-06-08 10:08:10.800
136.0, 27260.366351648136, 28011.250854879723, -19719.737138716835, -15172.85587464045, 1990.1769745560855, -1071.0508908094039, 25606.940759055706, 3245.1380187437558, -0.088, 0.974, 0.302, 192.0, 253.0, 64.0, 30.0, 112.0, 9.0, 112.0, 0.0, 0.0, 0.0, 1.6546756908006952E9, 0.0, 2022-06-08 10:08:10.800
137.0, 27248.11759568663, 27996.699869239317, -19726.17444111996, -15185.976348635717, 1981.39273898515, -1082.0926525703255, 25621.089413295915, 3232.062248237401, -0.088, 0.974, 0.302, 192.0, 0.0, 0.0, 0.0, 0.0, 0.0, 0.0, 0.0, 0.0, 0.0, 1.6546756908006997E9, 0.0, 2022-06-08 10:08:10.800
138.0, 27269.91054653055, 28015.87766598197, -19695.41844074946, -15155.913252343327, 2006.8737276642, -1071.5426291874205, 25581.660936076754, 3241.07000125289, -0.088, 0.974, 0.302, 192.0, 0.0, 0.0, 0.0, 0.0, 0.0, 0.0, 0.0, 0.0, 0.0, 1.6546756908007045E9, 0.0, 2022-06-08 10:08:10.800
139.0, 27292.39640145259, 28033.73670980176, -19670.7421148708, -15132.443920665255, 2033.0699721658198, -1037.8809020377282, 25554.950601452663, 3267.109783543323, -0.088, 0.974, 0.302, 192.0, 0.0, 0.0, 0.0, 0.0, 0.0, 0.0, 0.0, 0.0, 0.0, 1.6546756908007095E9, 0.0, 2022-06-08 10:08:10.800
140.0, 27285.936747305008, 28029.735747544262, -19685.293100511208, -15143.03864753707, 2021.8493964492557, -1035.9363002701164, 25578.93402325321, 3282.778356406493, -0.088, 0.974, 0.302, 192.0, 0.0, 0.0, 0.0, 0.0, 0.0, 0.0, 0.0, 0.0, 0.0, 1.6546756908007145E9, 0.0, 2022-06-08 10:08:10.800
141.0, 27261.72980805991, 28008.367479844987, -19717.166688104473, -15175.00164210816, 2002.649247962147, -1061.7078616270855, 25604.482067165623, 3268.8308678663816, -0.088, 0.974, 0.302, 192.0, 0.0, 0.0, 0.0, 0.0, 0.0, 0.0, 0.0, 0.0, 0.0, 1.6546756908007197E9, 0.0, 2022-06-08 10:08:10.800
142.0, 27255.605430079155, 27997.616290761984, -19719.826545694657, -15184.277616057112, 1996.323704281295, -1070.335634986834, 25609.175933501236, 3248.7590013455156, -0.088, 0.974, 0.302, 192.0, 0.0, 0.0, 0.0, 0.0, 0.0, 0.0, 0.0, 0.0, 0.0, 1.654675690800725E9, 0.0, 2022-06-08 10:08:10.800
143.0, 27282.159302492062, 28019.453945094818, -19683.750830143792, -15144.022124293106, 2019.4354080480825, -1049.660271365675, 25570.887395249298, 3251.0165275355016, -0.088, 0.974, 0.302, 192.0, 0.0, 0.0, 0.0, 0.0, 0.0, 0.0, 0.0, 0.0, 0.0, 1.6546756908007305E9, 0.0, 2022-06-08 10:08:10.800
144.0, 27295.346831720693, 28031.278017911678, -19667.568167158148, -15121.066882737505, 2041.898911225666, -1031.5106548679657, 25543.282990846994, 3268.584998677373, -0.088, 0.974, 0.302, 192.0, 0.0, 0.0, 0.0, 0.0, 0.0, 0.0, 0.0, 0.0, 0.0, 1.6546756908007357E9, 0.0, 2022-06-08 10:08:10.800
145.0, 27297.02321255484, 28034.653131324427, -19674.541911428205, -15125.760749073119, 2041.384821103194, -1026.4144571321556, 25575.49185460709, 3293.0154553670236, -0.088, 0.974, 0.302, 192.0, 0.0, 0.0, 0.0, 0.0, 0.0, 0.0, 0.0, 0.0, 0.0, 1.6546756908007405E9, 0.0, 2022-06-08 10:08:10.800
146.0, 27280.617032124643, 28018.179895660865, -19697.117173328064, -15151.308792985536, 2017.3119923248282, -1039.8925590387057, 25614.227427748137, 3295.7647199350263, -0.088, 0.978, 0.308, 192.0, 253.0, 64.0, 30.0, 144.0, 9.0, 160.0, 0.0, 0.0, 0.0, 1.6546756908007455E9, 0.0, 2022-06-08 10:08:10.800
147.0, 27256.521851601825, 27997.63864250644, -19723.00049340731, -15174.174627563314, 1989.1264425666861, -1070.4250419646553, 25601.77750608653, 3250.5694926463957, -0.088, 0.978, 0.308, 192.0, 0.0, 0.0, 0.0, 0.0, 0.0, 0.0, 0.0, 0.0, 0.0, 1.6546756908007529E9, 0.0, 2022-06-08 10:08:10.800
148.0, 27272.413941909548, 28010.043860679136, -19694.859647138077, -15152.404028463845, 2007.8348526757782, -1042.7982858178957, 25567.86990974783, 3241.427629164175, -0.088, 0.978, 0.308, 192.0, 0.0, 0.0, 0.0, 0.0, 0.0, 0.0, 0.0, 0.0, 0.0, 1.654675690800758E9, 0.0, 2022-06-08 10:08:10.800
149.0, 27298.051392799785, 28031.613294078506, -19664.260108978764, -15126.319542684501, 2041.4742280810153, -1023.6428408196975, 25556.090540419882, 3276.273998769999, -0.088, 0.978, 0.308, 192.0, 0.0, 0.0, 0.0, 0.0, 0.0, 0.0, 0.0, 0.0, 0.0, 1.6546756908007631E9, 0.0, 2022-06-08 10:08:10.800
150.0, 27277.867767556643, 28013.061346180602, -19695.485495982826, -15145.407932449334, 2021.1788441155963, -1032.2259106905356, 25575.558909840456, 3281.526658716996, -0.088, 0.978, 0.308, 192.0, 0.0, 0.0, 0.0, 0.0, 0.0, 0.0, 0.0, 0.0, 0.0, 1.654675690800773E9, 0.0, 2022-06-08 10:08:10.800
151.0, 27250.978618976907, 27987.178026101355, -19721.167650361975, -15170.464237983733, 2001.8892886506665, -1083.0090740929932, 25615.948512071194, 3273.591789435362, -0.088, 0.978, 0.308, 192.0, 0.0, 0.0, 0.0, 0.0, 0.0, 0.0, 0.0, 0.0, 0.0, 1.654675690800778E9, 0.0, 2022-06-08 10:08:10.800
152.0, 27256.20892717945, 27984.4064097889, -19725.19096436393, -15171.827694395506, 1996.8601461482224, -1083.433757237644, 25621.335282484924, 3261.521847429496, -0.088, 0.978, 0.308, 192.0, 0.0, 0.0, 0.0, 0.0, 0.0, 0.0, 0.0, 0.0, 0.0, 1.6546756908007836E9, 0.0, 2022-06-08 10:08:10.800
153.0, 27284.819160082243, 28021.286788140154, -19667.61287064706, -15124.352589172435, 2039.0155361909315, -1041.0995532392924, 25585.05840123396, 3272.675367912694, -0.088, 0.978, 0.308, 192.0, 0.0, 0.0, 0.0, 0.0, 0.0, 0.0, 0.0, 0.0, 0.0, 1.65467569080079E9, 0.0, 2022-06-08 10:08:10.800
154.0, 27294.609224153668, 28025.198343419834, -19659.454483920872, -15120.552792615032, 2047.7103647840459, -1026.4144571321556, 25556.5822787979, 3278.9562081046356, -0.088, 0.978, 0.308, 192.0, 0.0, 0.0, 0.0, 0.0, 0.0, 0.0, 0.0, 0.0, 0.0, 1.654675690800796E9, 0.0, 2022-06-08 10:08:10.800
155.0, 27286.987279294408, 28017.822267749583, -19677.872321352046, -15129.09115899696, 2041.2060071475516, -1039.1996549605913, 25578.039953474996, 3296.524679246507, -0.088, 0.978, 0.308, 192.0, 0.0, 0.0, 0.0, 0.0, 0.0, 0.0, 0.0, 0.0, 0.0, 1.6546756908008192E9, 0.0, 2022-06-08 10:08:10.800
156.0, 27264.21085169445, 27995.090543638533, -19715.490307270327, -15159.869511111918, 2006.0243613748983, -1059.2938732259124, 25624.55393368649, 3290.0873768433785, -0.088, 0.976, 0.308, 192.0, 253.0, 64.0, 30.0, 128.0, 9.0, 160.0, 0.0, 0.0, 0.0, 1.654675690800828E9, 0.0, 2022-06-08 10:08:10.800
157.0, 27255.426616123514, 27983.802912688603, -19718.351330560607, -15166.485627470689, 2010.5617654993257, -1062.2219517495575, 25623.793974375007, 3262.0806410408786, -0.088, 0.976, 0.308, 192.0, 0.0, 0.0, 0.0, 0.0, 0.0, 0.0, 0.0, 0.0, 0.0, 1.6546756908008344E9, 0.0, 2022-06-08 10:08:10.800
158.0, 27266.289563928793, 27991.223691847765, -19701.74398443031, -15154.259223253635, 2014.4733207790043, -1041.077201494837, 25581.59388084339, 3239.0136407630016, -0.088, 0.976, 0.308, 192.0, 0.0, 0.0, 0.0, 0.0, 0.0, 0.0, 0.0, 0.0, 0.0, 1.6546756908008404E9, 0.0, 2022-06-08 10:08:10.800
159.0, 27284.68504961551, 28001.617253019485, -19683.102629554585, -15134.075598010493, 2042.1894839035851, -1046.1957509751023, 25560.046799188473, 3264.6063881643286, -0.088, 0.976, 0.308, 192.0, 0.0, 0.0, 0.0, 0.0, 0.0, 0.0, 0.0, 0.0, 0.0, 1.6546756908008473E9, 0.0, 2022-06-08 10:08:10.800
160.0, 27282.762799592354, 28001.550197786117, -19691.059850580677, -15138.657705623831, 2043.2176641485291, -1031.3318409123233, 25592.367421670846, 3305.8900601732803, -0.088, 0.976, 0.308, 192.0, 0.0, 0.0, 0.0, 0.0, 0.0, 0.0, 0.0, 0.0, 0.0, 1.6546756908008544E9, 0.0, 2022-06-08 10:08:10.800
161.0, 27259.807558036755, 27986.01573538968, -19720.765318961778, -15168.027897838105, 2019.7259807260016, -1056.0528702798929, 25635.84156463642, 3282.2195627951105, -0.088, 0.976, 0.308, 192.0, 0.0, 0.0, 0.0, 0.0, 0.0, 0.0, 0.0, 0.0, 0.0, 1.654675690800861E9, 0.0, 2022-06-08 10:08:10.800
162.0, 27254.95722948995, 27975.979802129248, -19725.168612619473, -15183.137677089891, 1998.3577130267279, -1075.9012193562055, 25639.328436771448, 3263.354690474831, -0.088, 0.976, 0.308, 192.0, 0.0, 0.0, 0.0, 0.0, 0.0, 0.0, 0.0, 0.0, 0.0, 1.654675690800866E9, 0.0, 2022-06-08 10:08:10.800
163.0, 27274.000915765875, 27988.630889490953, -19698.681795439934, -15161.121208801414, 2015.4791492794932, -1059.6067976482866, 25600.88343630832, 3260.4713154400965, -0.088, 0.976, 0.308, 192.0, 0.0, 0.0, 0.0, 0.0, 0.0, 0.0, 0.0, 0.0, 0.0, 1.6546756908008723E9, 0.0, 2022-06-08 10:08:10.800
164.0, 27296.531474176823, 28003.405392575907, -19674.36309747256, -15123.480871138678, 2047.1515711726634, -1041.7701055729515, 25570.529767338012, 3264.6287399087837, -0.088, 0.976, 0.308, 192.0, 0.0, 0.0, 0.0, 0.0, 0.0, 0.0, 0.0, 0.0, 0.0, 1.6546756908008783E9, 0.0, 2022-06-08 10:08:10.800
165.0, 27298.967814322452, 28007.719279255783, -19680.867455109055, -15131.393388675857, 2045.2963763828727, -1032.628242090731, 25587.181816957214, 3291.0261501105015, -0.088, 0.976, 0.308, 192.0, 0.0, 0.0, 0.0, 0.0, 0.0, 0.0, 0.0, 0.0, 0.0, 1.654675690800883E9, 0.0, 2022-06-08 10:08:10.800
166.0, 27261.819215037733, 27979.31021205309, -19725.794461464222, -15172.297081029068, 2007.0525416198425, -1056.142277257714, 25618.92129408375, 3274.6646731692167, -0.084, 0.97, 0.308, 192.0, 253.0, 96.0, 30.0, 80.0, 9.0, 160.0, 0.0, 0.0, 0.0, 1.6546756908008904E9, 0.0, 2022-06-08 10:08:10.800
167.0, 27244.29544738477, 27961.317057766566, -19747.252136141316, -15189.843200426485, 1991.451023990038, -1082.0703008258702, 25630.588904689423, 3241.8523123088257, -0.084, 0.97, 0.308, 192.0, 0.0, 0.0, 0.0, 0.0, 0.0, 0.0, 0.0, 0.0, 0.0, 1.6546756908008974E9, 0.0, 2022-06-08 10:08:10.800
168.0, 27275.364372177646, 27991.670726736873, -19706.683719954937, -15148.648935395353, 2019.0107249034318, -1057.5504371583984, 25600.25758746357, 3238.49955064053, -0.084, 0.97, 0.308, 192.0, 0.0, 0.0, 0.0, 0.0, 0.0, 0.0, 0.0, 0.0, 0.0, 1.6546756908009057E9, 0.0, 2022-06-08 10:08:10.800
169.0, 27298.587834666712, 28011.049689179625, -19672.46319919386, -15124.03966475006, 2044.1117339267414, -1028.2696519219462, 25571.937927238694, 3259.286672983965, -0.084, 0.97, 0.308, 192.0, 0.0, 0.0, 0.0, 0.0, 0.0, 0.0, 0.0, 0.0, 0.0, 1.654675690800915E9, 0.0, 2022-06-08 10:08:10.800
170.0, 27287.523721161335, 28001.88547395295, -19694.77024016026, -15141.362266702923, 2034.321669855317, -1037.210349704069, 25596.30132869498, 3280.9678651056133, -0.084, 0.97, 0.308, 192.0, 0.0, 0.0, 0.0, 0.0, 0.0, 0.0, 0.0, 0.0, 0.0, 1.6546756908009212E9, 0.0, 2022-06-08 10:08:10.800
171.0, 27260.656924326056, 27981.16540684288, -19728.09669114312, -15179.96372937724, 2013.7804167008899, -1055.7846493464292, 25631.393567489813, 3270.350786489342, -0.084, 0.97, 0.308, 192.0, 0.0, 0.0, 0.0, 0.0, 0.0, 0.0, 0.0, 0.0, 0.0, 1.6546756908009272E9, 0.0, 2022-06-08 10:08:10.800
172.0, 27252.275020155314, 27974.638697461927, -19734.33282784615, -15176.230988053203, 1991.2722100343956, -1078.5163734574764, 25632.064119823473, 3252.6705566251944, -0.084, 0.97, 0.308, 192.0, 0.0, 0.0, 0.0, 0.0, 0.0, 0.0, 0.0, 0.0, 0.0, 1.654675690800934E9, 0.0, 2022-06-08 10:08:10.800
173.0, 27274.850282055177, 27990.17315985837, -19697.497152983804, -15145.251470238147, 2017.647268491658, -1059.0033005479934, 25592.792104815497, 3254.8833793262697, -0.084, 0.97, 0.308, 192.0, 0.0, 0.0, 0.0, 0.0, 0.0, 0.0, 0.0, 0.0, 0.0, 1.6546756908009405E9, 0.0, 2022-06-08 10:08:10.800
174.0, 27295.346831720693, 28005.01471817669, -19670.429190448427, -15123.23500194967, 2044.5587688158475, -1029.8119222893622, 25570.462712104647, 3269.8590481113256, -0.084, 0.97, 0.308, 192.0, 0.0, 0.0, 0.0, 0.0, 0.0, 0.0, 0.0, 0.0, 0.0, 1.6546756908009508E9, 0.0, 2022-06-08 10:08:10.800
175.0, 27278.15834023456, 27989.994345902724, -19695.284330282728, -15148.537176673077, 2031.3041843538506, -1040.92073928365, 25596.16721822825, 3268.3838329772752, -0.084, 0.97, 0.308, 192.0, 0.0, 0.0, 0.0, 0.0, 0.0, 0.0, 0.0, 0.0, 0.0, 1.6546756908009577E9, 0.0, 2022-06-08 10:08:10.800
176.0, 27249.14577593157, 27964.44630199031, -19737.23855462534, -15188.993834137182, 1989.5287739668815, -1076.9070478566944, 25639.060215837984, 3254.101068270334, -0.092, 0.968, 0.316, 192.0, 253.0, 32.0, 30.0, 64.0, 9.0, 224.0, 0.0, 0.0, 0.0, 1.6546756908009884E9, 0.0, 2022-06-08 10:08:10.800
177.0, 27245.658903796542, 27960.065360077067, -19742.491214572336, -15175.806304908552, 1986.6006954432364, -1084.7748619049623, 25640.870707138864, 3233.872739538281, -0.092, 0.968, 0.316, 192.0, 0.0, 0.0, 0.0, 0.0, 0.0, 0.0, 0.0, 0.0, 0.0, 1.6546756908009949E9, 0.0, 2022-06-08 10:08:10.800
178.0, 27278.761837334852, 27989.54731101362, -19694.77024016026, -15139.03768527957, 2022.229376104996, -1050.8002103328956, 25606.02433753304, 3247.4402484226525, -0.092, 0.968, 0.316, 192.0, 0.0, 0.0, 0.0, 0.0, 0.0, 0.0, 0.0, 0.0, 0.0, 1.6546756908010056E9, 0.0, 2022-06-08 10:08:10.801
179.0, 27286.652003127576, 27993.101238382013, -19681.582710931627, -15125.403121161835, 2037.8308937348002, -1039.9596142720718, 25570.4850638491, 3258.057327038923, -0.092, 0.968, 0.316, 192.0, 0.0, 0.0, 0.0, 0.0, 0.0, 0.0, 0.0, 0.0, 0.0, 1.6546756908010116E9, 0.0, 2022-06-08 10:08:10.801
180.0, 27277.4877879009, 27986.48512202324, -19699.642920451515, -15138.300077712545, 2023.7492947279568, -1039.2667101939571, 25580.029258731516, 3267.132135287778, -0.092, 0.968, 0.316, 192.0, 0.0, 0.0, 0.0, 0.0, 0.0, 0.0, 0.0, 0.0, 0.0, 1.6546756908010175E9, 0.0, 2022-06-08 10:08:10.801
181.0, 27253.213793422437, 27966.14503456891, -19736.43389182495, -15172.967633362727, 1999.7658729274124, -1067.6087221632865, 25635.21571579167, 3262.326510229887, -0.092, 0.968, 0.316, 192.0, 0.0, 0.0, 0.0, 0.0, 0.0, 0.0, 0.0, 0.0, 0.0, 1.6546756908010237E9, 0.0, 2022-06-08 10:08:10.801
182.0, 27256.477148112914, 27963.663990934372, -19725.43683355294, -15175.247511297168, 2001.6657712061133, -1057.9527685585938, 25649.431425265244, 3243.5510448874293, -0.092, 0.968, 0.316, 192.0, 0.0, 0.0, 0.0, 0.0, 0.0, 0.0, 0.0, 0.0, 0.0, 1.6546756908010333E9, 0.0, 2022-06-08 10:08:10.801
183.0, 27272.950383776475, 27972.761150927683, -19697.877132639544, -15155.265051754124, 2010.3829515436832, -1053.4153644341666, 25601.97867178663, 3233.649222093728, -0.092, 0.968, 0.316, 192.0, 0.0, 0.0, 0.0, 0.0, 0.0, 0.0, 0.0, 0.0, 0.0, 1.654675690801041E9, 0.0, 2022-06-08 10:08:10.801
184.0, 27285.690878116, 27983.91467141088, -19685.740135400312, -15138.94827830175, 2023.9728121725097, -1049.9955475325046, 25570.23919466009, 3242.9922512760463, -0.092, 0.968, 0.316, 192.0, 0.0, 0.0, 0.0, 0.0, 0.0, 0.0, 0.0, 0.0, 0.0, 1.6546756908010478E9, 0.0, 2022-06-08 10:08:10.801
185.0, 27291.21175899646, 27981.76890394317, -19691.126905814042, -15146.190243505269, 2026.8114837183339, -1043.0665067513594, 25591.383944914814, 3262.7511933745377, -0.088, 0.968, 0.316, 192.0, 253.0, 64.0, 30.0, 64.0, 9.0, 224.0, 0.0, 0.0, 0.0, 1.6546756908010614E9, 0.0, 2022-06-08 10:08:10.801
186.0, 27266.311915673246, 27972.381171271943, -19716.272618326264, -15155.66738315432, 2015.7026667240461, -1056.7681261024627, 25635.618047191867, 3266.327472487387, -0.088, 0.968, 0.316, 192.0, 0.0, 0.0, 0.0, 0.0, 0.0, 0.0, 0.0, 0.0, 0.0, 1.6546756908010702E9, 0.0, 2022-06-08 10:08:10.801
187.0, 27239.467470582425, 27949.20241227179, -19740.881888971555, -15175.515732230633, 1985.416052987105, -1083.2772950264568, 25647.37506477536, 3245.674460610683, -0.088, 0.968, 0.316, 192.0, 0.0, 0.0, 0.0, 0.0, 0.0, 0.0, 0.0, 0.0, 0.0, 1.6546756908010793E9, 0.0, 2022-06-08 10:08:10.801
188.0, 27258.041770224783, 27960.445339732807, -19712.159897346486, -15156.069714554515, 1998.3353612822727, -1066.982873318538, 25602.98450028712, 3228.2848034244544, -0.088, 0.968, 0.316, 192.0, 0.0, 0.0, 0.0, 0.0, 0.0, 0.0, 0.0, 0.0, 0.0, 1.6546756908010921E9, 0.0, 2022-06-08 10:08:10.801
189.0, 27283.05337227027, 27978.371438785965, -19685.203693533385, -15138.970630046206, 2028.063181407831, -1046.173399230647, 25563.556023067955, 3236.845521550837, -0.088, 0.968, 0.316, 192.0, 0.0, 0.0, 0.0, 0.0, 0.0, 0.0, 0.0, 0.0, 0.0, 1.6546756908011053E9, 0.0, 2022-06-08 10:08:10.801
190.0, 27287.97075605044, 27981.54538649862, -19691.126905814042, -15131.482795653677, 2029.6501552641578, -1035.3551549142785, 25573.435494117202, 3266.528638187485, -0.088, 0.968, 0.316, 192.0, 0.0, 0.0, 0.0, 0.0, 0.0, 0.0, 0.0, 0.0, 0.0, 1.6546756908011117E9, 0.0, 2022-06-08 10:08:10.801
191.0, 27279.991183279897, 27980.807778931594, -19707.13075484404, -15136.131958500382, 2015.389742301672, -1036.495093881499, 25621.379985973836, 3291.5402402329732, -0.088, 0.968, 0.316, 192.0, 0.0, 0.0, 0.0, 0.0, 0.0, 0.0, 0.0, 0.0, 0.0, 1.6546756908011196E9, 0.0, 2022-06-08 10:08:10.801
192.0, 27267.29539242928, 27967.53084272514, -19717.74783346031, -15156.76261863263, 1997.5306984818815, -1059.629149392742, 25640.93776237223, 3275.558742947429, -0.088, 0.968, 0.316, 192.0, 0.0, 0.0, 0.0, 0.0, 0.0, 0.0, 0.0, 0.0, 0.0, 1.6546756908011353E9, 0.0, 2022-06-08 10:08:10.801
193.0, 27278.605375123665, 27972.470578249762, -19693.56324595967, -15140.892880069361, 2015.4120940461273, -1044.2958526964012, 25594.379078671824, 3250.256568224021, -0.088, 0.968, 0.316, 192.0, 0.0, 0.0, 0.0, 0.0, 0.0, 0.0, 0.0, 0.0, 0.0, 1.6546756908011596E9, 0.0, 2022-06-08 10:08:10.801
194.0, 27293.446933441992, 27984.764037700184, -19671.7926468602, -15121.08923448196, 2039.4402193355822, -1028.6719833221416, 25559.309191621447, 3260.0913357843565, -0.088, 0.968, 0.316, 192.0, 0.0, 0.0, 0.0, 0.0, 0.0, 0.0, 0.0, 0.0, 0.0, 1.6546756908011744E9, 0.0, 2022-06-08 10:08:10.801
195.0, 27282.44987516998, 27973.431703261344, -19690.70222266939, -15132.600382876442, 2024.5316057838925, -1025.3415733983009, 25597.038936262004, 3271.490725456563, -0.08600000000000001, 0.964, 0.312, 192.0, 253.0, 80.0, 30.0, 32.0, 9.0, 192.0, 0.0, 0.0, 0.0, 1.6546756908011997E9, 0.0, 2022-06-08 10:08:10.801
196.0, 27267.988296507396, 27963.373418256455, -19712.361063046585, -15154.929775587294, 2005.7561404414346, -1059.2268179925463, 25637.763814659575, 3264.3158154864095, -0.08600000000000001, 0.964, 0.312, 192.0, 0.0, 0.0, 0.0, 0.0, 0.0, 0.0, 0.0, 0.0, 0.0, 1.6546756908012311E9, 0.0, 2022-06-08 10:08:10.801
197.0, 27252.789110277787, 27949.157708782877, -19724.47570854136, -15166.91031061534, 1987.2935995213509, -1074.1577832886915, 25631.93000935674, 3246.613233877806, -0.08600000000000001, 0.964, 0.312, 192.0, 0.0, 0.0, 0.0, 0.0, 0.0, 0.0, 0.0, 0.0, 0.0, 1.654675690801272E9, 0.0, 2022-06-08 10:08:10.801
198.0, 27278.82889256822, 27969.140168325925, -19685.606024933582, -15131.773368331596, 2017.8484341917556, -1040.8313323058287, 25608.05834627847, 3255.9115595712137, -0.08600000000000001, 0.964, 0.312, 192.0, 0.0, 0.0, 0.0, 0.0, 0.0, 0.0, 0.0, 0.0, 0.0, 1.6546756908012905E9, 0.0, 2022-06-08 10:08:10.801
199.0, 27303.795791124798, 27991.3578023145, -19657.040495519697, -15094.401251602323, 2055.779344532412, -1020.0442099623931, 25593.417953660246, 3285.1476413187556, -0.08600000000000001, 0.964, 0.312, 192.0, 0.0, 0.0, 0.0, 0.0, 0.0, 0.0, 0.0, 0.0, 0.0, 1.6546756908013003E9, 0.0, 2022-06-08 10:08:10.801
200.0, 27296.576177665735, 27981.277165565156, -19662.494321166792, -15096.681129536764, 2063.155420202663, -1016.5573378273652, 25609.958244557172, 3290.7579291770376, -0.08600000000000001, 0.964, 0.312, 192.0, 0.0, 0.0, 0.0, 0.0, 0.0, 0.0, 0.0, 0.0, 0.0, 1.6546756908013113E9, 0.0, 2022-06-08 10:08:10.801
201.0, 27256.857127768653, 27943.569772669052, -19715.624417737057, -15150.23590925168, 2006.940782897566, -1063.5407046724206, 25647.79974792001, 3274.5082109580294, -0.08600000000000001, 0.964, 0.312, 192.0, 0.0, 0.0, 0.0, 0.0, 0.0, 0.0, 0.0, 0.0, 0.0, 1.654675690801323E9, 0.0, 2022-06-08 10:08:10.801
202.0, 27238.30517987075, 27922.179153225323, -19735.562173791193, -15172.699412429263, 1970.4403842020495, -1089.4240247516661, 25645.251649052105, 3238.0525157514235, -0.08600000000000001, 0.964, 0.312, 192.0, 0.0, 0.0, 0.0, 0.0, 0.0, 0.0, 0.0, 0.0, 0.0, 1.6546756908013496E9, 0.0, 2022-06-08 10:08:10.801
203.0, 27275.87846230012, 27953.33748499602, -19689.338766257617, -15135.193185233258, 2024.866881950722, -1050.464934166066, 25588.880549535817, 3239.9747657745797, -0.08600000000000001, 0.964, 0.312, 192.0, 0.0, 0.0, 0.0, 0.0, 0.0, 0.0, 0.0, 0.0, 0.0, 1.6546756908013778E9, 0.0, 2022-06-08 10:08:10.801
204.0, 27310.925997606042, 27981.97006964327, -19647.473948892828, -15097.150516170326, 2062.6860335691017, -1011.9975819584826, 25567.512281836545, 3274.4635074691187, -0.08600000000000001, 0.964, 0.312, 192.0, 0.0, 0.0, 0.0, 0.0, 0.0, 0.0, 0.0, 0.0, 0.0, 1.6546756908013911E9, 0.0, 2022-06-08 10:08:10.801
205.0, 27296.285604987814, 27967.32967702504, -19670.831521848624, -15106.694711052742, 2049.0067659624538, -1017.2055384165691, 25602.045727019995, 3282.9348186176803, -0.08600000000000001, 0.9560000000000001, 0.318, 192.0, 253.0, 80.0, 29.0, 224.0, 9.0, 240.0, 0.0, 0.0, 0.0, 1.6546756908014047E9, 0.0, 2022-06-08 10:08:10.801
206.0, 27265.864880784142, 27945.20145001429, -19714.886810170032, -15157.120246543915, 2009.8241579323005, -1047.1568759866807, 25641.205983305692, 3261.7900683629596, -0.08600000000000001, 0.9560000000000001, 0.318, 192.0, 0.0, 0.0, 0.0, 0.0, 0.0, 0.0, 0.0, 0.0, 0.0, 1.6546756908014235E9, 0.0, 2022-06-08 10:08:10.801
207.0, 27246.418863108025, 27924.704900348774, -19733.908144701498, -15180.835447410995, 1978.1070325502196, -1086.205373550102, 25643.955247873695, 3231.391695903742, -0.08600000000000001, 0.9560000000000001, 0.318, 192.0, 0.0, 0.0, 0.0, 0.0, 0.0, 0.0, 0.0, 0.0, 0.0, 1.6546756908014452E9, 0.0, 2022-06-08 10:08:10.801
208.0, 27284.662697871056, 27953.046912318103, -19683.951995843887, -15139.127092257393, 2018.2060621030407, -1056.0975737688034, 25602.425706675735, 3234.6326988497617, -0.08600000000000001, 0.9560000000000001, 0.318, 192.0, 0.0, 0.0, 0.0, 0.0, 0.0, 0.0, 0.0, 0.0, 0.0, 1.6546756908014705E9, 0.0, 2022-06-08 10:08:10.801
209.0, 27313.02706158484, 27977.075037607556, -19652.525443139726, -15108.147574442337, 2054.8852747541996, -1024.6486693201864, 25568.719276037133, 3256.068021782401, -0.08600000000000001, 0.9560000000000001, 0.318, 192.0, 0.0, 0.0, 0.0, 0.0, 0.0, 0.0, 0.0, 0.0, 0.0, 1.6546756908014803E9, 0.0, 2022-06-08 10:08:10.801
210.0, 27314.30111101879, 27979.645488219918, -19652.61485011755, -15110.606266332421, 2058.8862370116994, -1013.4951488369882, 25584.521959367034, 3289.260362298532, -0.08600000000000001, 0.9560000000000001, 0.318, 192.0, 0.0, 0.0, 0.0, 0.0, 0.0, 0.0, 0.0, 0.0, 0.0, 1.6546756908014927E9, 0.0, 2022-06-08 10:08:10.801
211.0, 27280.371162935637, 27951.97402858425, -19694.814943649166, -15146.436112694279, 2025.3809720731942, -1046.6874893531192, 25634.567515202467, 3286.1758215636996, -0.08600000000000001, 0.9560000000000001, 0.318, 192.0, 0.0, 0.0, 0.0, 0.0, 0.0, 0.0, 0.0, 0.0, 0.0, 1.654675690801512E9, 0.0, 2022-06-08 10:08:10.801
212.0, 27264.680238328012, 27936.52897316563, -19710.7517374458, -15161.322374501513, 2010.0923788657642, -1064.948864573105, 25644.08935834043, 3247.552007144929, -0.08600000000000001, 0.9560000000000001, 0.318, 192.0, 0.0, 0.0, 0.0, 0.0, 0.0, 0.0, 0.0, 0.0, 0.0, 1.6546756908015275E9, 0.0, 2022-06-08 10:08:10.801
213.0, 27273.665639599043, 27942.38513021292, -19697.631263450538, -15148.023086550606, 2015.1662248571188, -1050.4425824216107, 25601.576340386433, 3232.5316348709625, -0.08600000000000001, 0.9560000000000001, 0.318, 192.0, 0.0, 0.0, 0.0, 0.0, 0.0, 0.0, 0.0, 0.0, 0.0, 1.654675690801535E9, 0.0, 2022-06-08 10:08:10.801
214.0, 27302.45468645748, 27964.04397059011, -19663.768370600745, -15105.4653651077, 2058.5733125893253, -1021.0723902073372, 25580.431590131713, 3258.5267136724847, -0.08600000000000001, 0.9560000000000001, 0.318, 192.0, 0.0, 0.0, 0.0, 0.0, 0.0, 0.0, 0.0, 0.0, 0.0, 1.6546756908015423E9, 0.0, 2022-06-08 10:08:10.801
215.0, 27303.46051495797, 27965.854461890995, -19664.528329912227, -15111.165059943803, 2065.4352981371044, -1008.756579012463, 25610.561741657468, 3283.8288883958926, -0.088, 0.96, 0.318, 192.0, 253.0, 64.0, 30.0, 0.0, 9.0, 240.0, 0.0, 0.0, 0.0, 1.6546756908015504E9, 0.0, 2022-06-08 10:08:10.801
216.0, 27272.525700631824, 27938.80885110007, -19710.416461278972, -15153.566319175521, 2026.386800573683, -1040.2501869499906, 25652.94064914473, 3279.0903185713673, -0.088, 0.96, 0.318, 192.0, 0.0, 0.0, 0.0, 0.0, 0.0, 0.0, 0.0, 0.0, 0.0, 1.6546756908015592E9, 0.0, 2022-06-08 10:08:10.801
217.0, 27251.783281777298, 27919.631054357418, -19729.52720278826, -15173.973461863216, 2003.677428207091, -1064.658291895186, 25676.901719200818, 3252.715260114105, -0.088, 0.96, 0.318, 192.0, 0.0, 0.0, 0.0, 0.0, 0.0, 0.0, 0.0, 0.0, 0.0, 1.654675690801571E9, 0.0, 2022-06-08 10:08:10.801
218.0, 27274.24678495488, 27931.656292874373, -19692.75858315928, -15140.334086457979, 2019.1895388590742, -1043.6029486182867, 25630.164221544772, 3227.8824720242587, -0.088, 0.96, 0.318, 192.0, 0.0, 0.0, 0.0, 0.0, 0.0, 0.0, 0.0, 0.0, 0.0, 1.6546756908015883E9, 0.0, 2022-06-08 10:08:10.801
219.0, 27299.236035255915, 27954.67858966334, -19663.9918880453, -15114.540173356554, 2049.878483996211, -1029.7001635670858, 25589.72991582512, 3242.7016785981273, -0.088, 0.96, 0.318, 192.0, 0.0, 0.0, 0.0, 0.0, 0.0, 0.0, 0.0, 0.0, 0.0, 1.654675690801622E9, 0.0, 2022-06-08 10:08:10.801
220.0, 27294.698631131487, 27952.644580917906, -19674.85483585058, -15124.285533939068, 2048.224454906518, -1034.3269746693343, 25602.06807876445, 3265.545161431451, -0.088, 0.96, 0.318, 192.0, 0.0, 0.0, 0.0, 0.0, 0.0, 0.0, 0.0, 0.0, 0.0, 1.6546756908016324E9, 0.0, 2022-06-08 10:08:10.801
221.0, 27266.69189532899, 27929.644635873396, -19715.400900292505, -15164.362211747433, 2004.3926840296608, -1050.3531754437895, 25635.573343702956, 3270.3731382337974, -0.088, 0.96, 0.318, 192.0, 0.0, 0.0, 0.0, 0.0, 0.0, 0.0, 0.0, 0.0, 0.0, 1.654675690801647E9, 0.0, 2022-06-08 10:08:10.801
222.0, 27258.511156858345, 27920.994510769193, -19726.107385886597, -15176.521560731122, 1992.613314701714, -1068.4580884525883, 25642.5023844841, 3250.7706583464933, -0.088, 0.96, 0.318, 192.0, 0.0, 0.0, 0.0, 0.0, 0.0, 0.0, 0.0, 0.0, 0.0, 1.6546756908016608E9, 0.0, 2022-06-08 10:08:10.801
223.0, 27268.50238662987, 27928.817621328548, -19700.738155929823, -15157.589633177477, 2010.7182277105128, -1059.9420738151161, 25599.855256063376, 3227.4130853906972, -0.088, 0.96, 0.318, 192.0, 0.0, 0.0, 0.0, 0.0, 0.0, 0.0, 0.0, 0.0, 0.0, 1.65467569080167E9, 0.0, 2022-06-08 10:08:10.801
224.0, 27284.863863571154, 27943.256848246678, -19680.643937664503, -15137.026028278593, 2026.1185796402194, -1039.7360968275186, 25557.09636892037, 3234.4762366385744, -0.088, 0.96, 0.318, 192.0, 0.0, 0.0, 0.0, 0.0, 0.0, 0.0, 0.0, 0.0, 0.0, 1.6546756908016753E9, 0.0, 2022-06-08 10:08:10.801
225.0, 27272.458645398456, 27926.403632927377, -19700.984025118833, -15158.19313027777, 2012.3946085446607, -1041.5465881283985, 25572.943755739183, 3241.874664053281, -0.09, 0.9580000000000001, 0.318, 192.0, 253.0, 48.0, 29.0, 240.0, 9.0, 240.0, 0.0, 0.0, 0.0, 1.6546756908016863E9, 0.0, 2022-06-08 10:08:10.801
226.0, 27262.378008649113, 27916.501810133675, -19717.166688104473, -15181.438944511288, 1996.6589804481246, -1064.7029953840965, 25606.359613699868, 3234.6326988497617, -0.09, 0.9580000000000001, 0.318, 192.0, 0.0, 0.0, 0.0, 0.0, 0.0, 0.0, 0.0, 0.0, 0.0, 1.6546756908016956E9, 0.0, 2022-06-08 10:08:10.801
227.0, 27247.558802075244, 27904.163647194346, -19731.181231877952, -15192.659520227853, 1982.2197535299963, -1090.2510392965125, 25615.389718459814, 3215.7901782739377, -0.09, 0.9580000000000001, 0.318, 192.0, 0.0, 0.0, 0.0, 0.0, 0.0, 0.0, 0.0, 0.0, 0.0, 1.654675690801702E9, 0.0, 2022-06-08 10:08:10.801
228.0, 27283.612165881656, 27933.95852255327, -19686.9471296009, -15147.821920850507, 2022.229376104996, -1054.6894138681191, 25603.051555520484, 3230.005887747513, -0.09, 0.9580000000000001, 0.318, 192.0, 0.0, 0.0, 0.0, 0.0, 0.0, 0.0, 0.0, 0.0, 0.0, 1.65467569080171E9, 0.0, 2022-06-08 10:08:10.801
229.0, 27307.036794070817, 27950.47646170574, -19664.036591534208, -15132.399217176346, 2043.0164984484315, -1025.63214607622, 25565.791197513485, 3238.9689372740913, -0.09, 0.9580000000000001, 0.318, 192.0, 0.0, 0.0, 0.0, 0.0, 0.0, 0.0, 0.0, 0.0, 0.0, 1.6546756908017151E9, 0.0, 2022-06-08 10:08:10.801
230.0, 27292.709325874966, 27936.305455721078, -19689.517580213258, -15146.346705716456, 2015.5685562573144, -1036.8750735372394, 25577.72702905262, 3241.4723326530857, -0.09, 0.9580000000000001, 0.318, 192.0, 0.0, 0.0, 0.0, 0.0, 0.0, 0.0, 0.0, 0.0, 0.0, 1.6546756908017235E9, 0.0, 2022-06-08 10:08:10.801
231.0, 27272.950383776475, 27920.122792735434, -19722.28523758474, -15165.189226292281, 2002.0457508618535, -1067.8992948412056, 25627.236143021124, 3232.35282091532, -0.09, 0.9580000000000001, 0.318, 192.0, 0.0, 0.0, 0.0, 0.0, 0.0, 0.0, 0.0, 0.0, 0.0, 1.65467569080173E9, 0.0, 2022-06-08 10:08:10.801
232.0, 27267.20598545146, 27915.607740355463, -19722.15112711801, -15175.068697341527, 1996.4578147480267, -1085.557172960898, 25645.855146152397, 3210.6492770492173, -0.09, 0.9580000000000001, 0.318, 192.0, 0.0, 0.0, 0.0, 0.0, 0.0, 0.0, 0.0, 0.0, 0.0, 1.6546756908017414E9, 0.0, 2022-06-08 10:08:10.801
233.0, 27287.724886861433, 27932.550362652586, -19697.631263450538, -15149.028915051094, 2012.3946085446607, -1064.881809339739, 25606.24785497759, 3209.174061915167, -0.09, 0.9580000000000001, 0.318, 192.0, 0.0, 0.0, 0.0, 0.0, 0.0, 0.0, 0.0, 0.0, 0.0, 1.6546756908017492E9, 0.0, 2022-06-08 10:08:10.801
234.0, 27300.68889864551, 27940.731101123227, -19677.827617863135, -15128.4206066633, 2029.1137133972304, -1044.3182044408566, 25564.517148079532, 3225.2449661785326, -0.09, 0.9580000000000001, 0.318, 192.0, 0.0, 0.0, 0.0, 0.0, 0.0, 0.0, 0.0, 0.0, 0.0, 1.6546756908017595E9, 0.0, 2022-06-08 10:08:10.801
235.0, 27296.129142776626, 27937.75831911067, -19683.70612665488, -15132.958010787728, 2026.5432627848702, -1042.2171404620576, 25583.672593077732, 3246.5014751555295, -0.088, 0.96, 0.32, 192.0, 253.0, 64.0, 30.0, 0.0, 10.0, 0.0, 0.0, 0.0, 0.0, 1.654675690801766E9, 0.0, 2022-06-08 10:08:10.801
236.0, 27272.8386250542, 27919.85457180197, -19716.742004959822, -15158.99779307816, 2005.2644020634177, -1061.3949372047111, 25624.464526708667, 3250.7036031131274, -0.088, 0.96, 0.32, 192.0, 0.0, 0.0, 0.0, 0.0, 0.0, 0.0, 0.0, 0.0, 0.0, 1.6546756908017766E9, 0.0, 2022-06-08 10:08:10.801
237.0, 27267.183633707005, 27911.24915018668, -19722.844031196124, -15166.463275726233, 1997.0836635927753, -1068.2122192635798, 25630.54420120051, 3228.128341213267, -0.088, 0.96, 0.32, 192.0, 0.0, 0.0, 0.0, 0.0, 0.0, 0.0, 0.0, 0.0, 0.0, 1.6546756908017824E9, 0.0, 2022-06-08 10:08:10.801
238.0, 27288.82012233974, 27928.012958528157, -19690.635167436027, -15137.18249048978, 2015.4344457905825, -1033.0305734909266, 25598.089468251404, 3228.2177481910885, -0.088, 0.96, 0.32, 192.0, 0.0, 0.0, 0.0, 0.0, 0.0, 0.0, 0.0, 0.0, 0.0, 1.654675690801789E9, 0.0, 2022-06-08 10:08:10.801
239.0, 27299.92893933403, 27932.259789974665, -19672.46319919386, -15126.297190940046, 2039.1049431687527, -1033.5446636133986, 25577.279994163513, 3235.6608790947057, -0.088, 0.96, 0.32, 192.0, 0.0, 0.0, 0.0, 0.0, 0.0, 0.0, 0.0, 0.0, 0.0, 1.6546756908017986E9, 0.0, 2022-06-08 10:08:10.801
240.0, 27308.422602227045, 27938.697092377795, -19667.83638809161, -15126.61011536242, 2048.4926758399815, -1044.7652393299627, 25594.826113560932, 3241.7629053310047, -0.088, 0.96, 0.32, 192.0, 0.0, 0.0, 0.0, 0.0, 0.0, 0.0, 0.0, 0.0, 0.0, 1.6546756908018205E9, 0.0, 2022-06-08 10:08:10.801
241.0, 27285.31089846026, 27919.563999124053, -19701.52046698576, -15155.28740349858, 2007.7007422090462, -1064.8371058508285, 25635.953323358695, 3228.463617380097, -0.088, 0.96, 0.32, 192.0, 0.0, 0.0, 0.0, 0.0, 0.0, 0.0, 0.0, 0.0, 0.0, 1.6546756912797773E9, 0.0, 2022-06-08 10:08:11.279
242.0, 27273.129197732116, 27905.48240011721, -19711.645807224013, -15174.308738030046, 1991.741596667957, -1070.4473937091104, 25645.095186840917, 3221.0651899653903, -0.088, 0.96, 0.32, 192.0, 0.0, 0.0, 0.0, 0.0, 0.0, 0.0, 0.0, 0.0, 0.0, 1.6546756912799454E9, 0.0, 2022-06-08 10:08:11.279
243.0, 27279.20887222396, 27907.672871073828, -19695.95488261639, -15149.654763895842, 2000.2352595609736, -1063.0266145499486, 25606.4937241666, 3212.079788694357, -0.088, 0.96, 0.32, 192.0, 0.0, 0.0, 0.0, 0.0, 0.0, 0.0, 0.0, 0.0, 0.0, 1.65467569127997E9, 0.0, 2022-06-08 10:08:11.279
244.0, 27305.628634170134, 27929.041138773104, -19660.16973974344, -15116.283609424068, 2026.5209110404148, -1030.6165850897532, 25568.45105510367, 3230.0505912364238, -0.088, 0.96, 0.32, 192.0, 0.0, 0.0, 0.0, 0.0, 0.0, 0.0, 0.0, 0.0, 0.0, 1.6546756912799747E9, 0.0, 2022-06-08 10:08:11.279
245.0, 27318.59264595421, 27940.798156356595, -19650.469082649837, -15107.454670364223, 2037.093286167775, -1007.7283987675189, 25578.576395341923, 3272.1165743013116, -0.094, 0.964, 0.324, 192.0, 253.0, 16.0, 30.0, 32.0, 10.0, 32.0, 0.0, 0.0, 0.0, 1.65467569127998E9, 0.0, 2022-06-08 10:08:11.279
246.0, 27288.283680472814, 27917.79821131208, -19696.446620994404, -15146.704333627742, 1998.3800647711832, -1043.7370590850187, 25635.97567510315, 3265.7239753870936, -0.094, 0.964, 0.324, 192.0, 0.0, 0.0, 0.0, 0.0, 0.0, 0.0, 0.0, 0.0, 0.0, 1.654675691279985E9, 0.0, 2022-06-08 10:08:11.279
247.0, 27273.35271517667, 27906.0858972175, -19715.311493314683, -15166.820903637517, 1990.0428640893538, -1070.7603181314848, 25649.543183987524, 3217.7347800415496, -0.094, 0.964, 0.324, 192.0, 0.0, 0.0, 0.0, 0.0, 0.0, 0.0, 0.0, 0.0, 0.0, 1.65467569127999E9, 0.0, 2022-06-08 10:08:11.279
248.0, 27279.700610601976, 27909.99745249718, -19697.0501180947, -15153.454560453245, 1990.9145821231107, -1062.8254488498508, 25607.365442200356, 3205.7318932690496, -0.094, 0.964, 0.324, 192.0, 0.0, 0.0, 0.0, 0.0, 0.0, 0.0, 0.0, 0.0, 0.0, 1.6546756912799947E9, 0.0, 2022-06-08 10:08:11.279
249.0, 27304.73456439192, 27929.063490517558, -19663.477797922827, -15119.70342632573, 2017.3119923248282, -1029.6107565892646, 25578.978726742116, 3239.4159721631972, -0.094, 0.964, 0.324, 192.0, 0.0, 0.0, 0.0, 0.0, 0.0, 0.0, 0.0, 0.0, 0.0, 1.6546756912800002E9, 0.0, 2022-06-08 10:08:11.280
250.0, 27316.715099419966, 27939.1441272669, -19655.833501319114, -15108.75107154263, 2040.289585624884, -1012.8022447588736, 25595.451962405677, 3260.918350329203, -0.094, 0.964, 0.324, 192.0, 0.0, 0.0, 0.0, 0.0, 0.0, 0.0, 0.0, 0.0, 0.0, 1.6546756912800052E9, 0.0, 2022-06-08 10:08:11.280
251.0, 27289.6918403735, 27917.306472934066, -19690.925740113944, -15145.765560360618, 2015.25563183494, -1053.5047714119878, 25649.766701432076, 3250.4800856685742, -0.094, 0.964, 0.324, 192.0, 0.0, 0.0, 0.0, 0.0, 0.0, 0.0, 0.0, 0.0, 0.0, 1.65467569128001E9, 0.0, 2022-06-08 10:08:11.280
252.0, 27277.331325689713, 27902.509618104654, -19701.833391408134, -15169.883092627895, 1995.519041480904, -1067.787536118929, 25667.357524318402, 3237.06903899539, -0.094, 0.964, 0.324, 192.0, 0.0, 0.0, 0.0, 0.0, 0.0, 0.0, 0.0, 0.0, 0.0, 1.654675691280015E9, 0.0, 2022-06-08 10:08:11.280
253.0, 27285.82498858273, 27909.595121096983, -19686.388335989515, -15151.107627285437, 2000.2799630498844, -1055.404669690689, 25623.145773785804, 3215.6337160627504, -0.094, 0.964, 0.324, 192.0, 0.0, 0.0, 0.0, 0.0, 0.0, 0.0, 0.0, 0.0, 0.0, 1.65467569128002E9, 0.0, 2022-06-08 10:08:11.280
254.0, 27309.78605863882, 27928.996435284193, -19659.36507694305, -15109.958065743216, 2029.0466581638645, -1031.7118205680633, 25573.97193598413, 3226.429608634664, -0.094, 0.964, 0.324, 192.0, 0.0, 0.0, 0.0, 0.0, 0.0, 0.0, 0.0, 0.0, 0.0, 1.6546756912800248E9, 0.0, 2022-06-08 10:08:11.280
255.0, 27310.993052839407, 27930.315188207056, -19662.27080372224, -15118.56348735851, 2032.1759023876075, -1027.4202856326444, 25584.45490413367, 3250.904768813225, -0.098, 0.9580000000000001, 0.32, 192.0, 252.0, 240.0, 29.0, 240.0, 10.0, 0.0, 0.0, 0.0, 0.0, 1.6546756912800298E9, 0.0, 2022-06-08 10:08:11.280
0.0, 27283.96979379294, 27907.628167584917, -19700.33582452963, -15153.52161568661, 2006.0914166082641, -1054.1976754901023, 25635.953323358695, 3254.481047926074, -0.098, 0.9580000000000001, 0.32, 192.0, 0.0, 0.0, 0.0, 0.0, 0.0, 0.0, 0.0, 0.0, 0.0, 1.6546756912800348E9, 0.0, 2022-06-08 10:08:11.280
1.0, 27268.68120058551, 27892.071353444026, -19720.81002245069, -15173.839351396484, 1984.7231489089907, -1078.9634083465826, 25660.003800392606, 3220.193471931633, -0.098, 0.9580000000000001, 0.32, 192.0, 0.0, 0.0, 0.0, 0.0, 0.0, 0.0, 0.0, 0.0, 0.0, 1.6546756912800398E9, 0.0, 2022-06-08 10:08:11.280
2.0, 27280.952308291475, 27899.067449458536, -19700.402879762994, -15154.527444187099, 1990.3334367672728, -1065.530009928943, 25609.958244557172, 3199.2722391214656, -0.098, 0.9580000000000001, 0.32, 192.0, 0.0, 0.0, 0.0, 0.0, 0.0, 0.0, 0.0, 0.0, 0.0, 1.6546756912800448E9, 0.0, 2022-06-08 10:08:11.280
3.0, 27299.817180611753, 27914.557208366063, -19671.099742782088, -15124.218478705703, 2032.7346959989902, -1044.5864253743202, 25577.078828463418, 3219.0758847088678, -0.098, 0.9580000000000001, 0.32, 192.0, 0.0, 0.0, 0.0, 0.0, 0.0, 0.0, 0.0, 0.0, 0.0, 1.6546756912800496E9, 0.0, 2022-06-08 10:08:11.280
4.0, 27304.6451574141, 27914.110173476958, -19673.826655605633, -15125.023141506093, 2042.3012426258617, -1025.430980376122, 25613.489820181112, 3257.677347383183, -0.098, 0.9580000000000001, 0.32, 192.0, 0.0, 0.0, 0.0, 0.0, 0.0, 0.0, 0.0, 0.0, 0.0, 1.6546756912800548E9, 0.0, 2022-06-08 10:08:11.280
5.0, 27286.7414101054, 27898.151027935866, -19701.252246052296, -15149.252432495647, 2013.06516087832, -1044.8769980522393, 25658.774454447564, 3254.838675837359, -0.098, 0.9580000000000001, 0.32, 192.0, 0.0, 0.0, 0.0, 0.0, 0.0, 0.0, 0.0, 0.0, 0.0, 1.6546756912800703E9, 0.0, 2022-06-08 10:08:11.280
6.0, 27275.476130899922, 27887.62335629742, -19705.40967052098, -15157.366115732922, 2005.5773264857921, -1071.9226088431608, 25666.105826628904, 3217.1759864301666, -0.098, 0.9580000000000001, 0.32, 192.0, 0.0, 0.0, 0.0, 0.0, 0.0, 0.0, 0.0, 0.0, 0.0, 1.6546756912800753E9, 0.0, 2022-06-08 10:08:11.280
7.0, 27294.385706709112, 27902.084934960003, -19677.000603318287, -15138.14361550136, 2020.2400708484736, -1057.30456796939, 25630.477145967146, 3210.783387515949, -0.098, 0.9580000000000001, 0.32, 192.0, 0.0, 0.0, 0.0, 0.0, 0.0, 0.0, 0.0, 0.0, 0.0, 1.65467569128008E9, 0.0, 2022-06-08 10:08:11.280
8.0, 27307.863808615664, 27909.416307141342, -19659.298021709685, -15122.698560082741, 2038.0544111793533, -1029.8789775227283, 25594.11085773836, 3231.5258063704737, -0.098, 0.9580000000000001, 0.32, 192.0, 0.0, 0.0, 0.0, 0.0, 0.0, 0.0, 0.0, 0.0, 0.0, 1.6546756912800846E9, 0.0, 2022-06-08 10:08:11.280
9.0, 27295.704459631976, 27897.011088968648, -19677.93937658541, -15150.101798784948, 2029.3148790973282, -1046.6427858642085, 25607.07486952244, 3234.655050594217, -0.096, 0.966, 0.318, 192.0, 253.0, 0.0, 30.0, 48.0, 9.0, 240.0, 0.0, 0.0, 0.0, 1.65467569128009E9, 0.0, 2022-06-08 10:08:11.280
10.0, 27278.471264656935, 27884.76233300714, -19708.293045555718, -15165.658612925841, 2005.7114369525239, -1075.588294933831, 25648.939686887228, 3231.59286160384, -0.096, 0.966, 0.318, 192.0, 0.0, 0.0, 0.0, 0.0, 0.0, 0.0, 0.0, 0.0, 0.0, 1.6546756912800949E9, 0.0, 2022-06-08 10:08:11.280
11.0, 27264.121444716628, 27868.177338621303, -19718.351330560607, -15172.408839751344, 1988.0088553439207, -1087.0547398394037, 25661.210794593193, 3212.727989283561, -0.096, 0.966, 0.318, 192.0, 0.0, 0.0, 0.0, 0.0, 0.0, 0.0, 0.0, 0.0, 0.0, 1.6546756912800994E9, 0.0, 2022-06-08 10:08:11.280
12.0, 27266.11074997315, 27866.724475231706, -19714.685644469937, -15172.833522895995, 1990.5793059562811, -1085.0877863273367, 25621.245875507102, 3191.2479628620104, -0.096, 0.966, 0.318, 192.0, 0.0, 0.0, 0.0, 0.0, 0.0, 0.0, 0.0, 0.0, 0.0, 1.654675691280104E9, 0.0, 2022-06-08 10:08:11.280
13.0, 27303.46051495797, 27898.575711080517, -19669.84804509259, -15132.265106709614, 2031.9076814541438, -1052.3648324447672, 25585.594843100887, 3204.323733368365, -0.096, 0.966, 0.318, 192.0, 0.0, 0.0, 0.0, 0.0, 0.0, 0.0, 0.0, 0.0, 0.0, 1.6546756912801085E9, 0.0, 2022-06-08 10:08:11.280
14.0, 27311.84241912871, 27904.074240216523, -19663.589556645104, -15134.56733638851, 2031.2371291204847, -1042.6194718622532, 25600.816381074954, 3217.8018352749154, -0.096, 0.966, 0.318, 192.0, 0.0, 0.0, 0.0, 0.0, 0.0, 0.0, 0.0, 0.0, 0.0, 1.6546756912801132E9, 0.0, 2022-06-08 10:08:11.280
15.0, 27285.467360671446, 27886.438713841286, -19694.814943649166, -15163.33403150249, 2017.9378411695768, -1063.4065942056889, 25650.526660743555, 3231.302288925921, -0.096, 0.966, 0.318, 192.0, 0.0, 0.0, 0.0, 0.0, 0.0, 0.0, 0.0, 0.0, 0.0, 1.654675691280118E9, 0.0, 2022-06-08 10:08:11.280
16.0, 27277.06310475625, 27878.637955026385, -19702.481591997337, -15169.011374594138, 2004.6385532186691, -1071.5202774429654, 25671.716114487186, 3225.267317922988, -0.096, 0.966, 0.318, 192.0, 0.0, 0.0, 0.0, 0.0, 0.0, 0.0, 0.0, 0.0, 0.0, 1.6546756912801228E9, 0.0, 2022-06-08 10:08:11.280
17.0, 27280.549976891278, 27874.569937535518, -19692.535065714725, -15163.915176858329, 1997.709512437524, -1077.242324023524, 25636.959151859184, 3212.146843927723, -0.096, 0.966, 0.318, 192.0, 0.0, 0.0, 0.0, 0.0, 0.0, 0.0, 0.0, 0.0, 0.0, 1.6546756912801273E9, 0.0, 2022-06-08 10:08:11.280
18.0, 27315.418698241556, 27904.543626850085, -19657.398123430983, -15124.33023742798, 2032.9805651879985, -1042.9547480290828, 25590.981613514617, 3217.310096896899, -0.09, 0.968, 0.316, 192.0, 253.0, 48.0, 30.0, 64.0, 9.0, 224.0, 0.0, 0.0, 0.0, 1.6546756912801318E9, 0.0, 2022-06-08 10:08:11.280
19.0, 27321.6995384335, 27912.389089153898, -19656.906385052967, -15122.787967060563, 2061.1214114572304, -1024.3133931533569, 25603.632700876322, 3258.057327038923, -0.09, 0.968, 0.316, 192.0, 0.0, 0.0, 0.0, 0.0, 0.0, 0.0, 0.0, 0.0, 0.0, 1.6546756912801363E9, 0.0, 2022-06-08 10:08:11.280
20.0, 27298.07374454424, 27892.049001699568, -19685.427210977938, -15154.102761042448, 2031.5947570317696, -1039.8925590387057, 25656.85220442441, 3262.304158485432, -0.09, 0.968, 0.316, 192.0, 0.0, 0.0, 0.0, 0.0, 0.0, 0.0, 0.0, 0.0, 0.0, 1.654675691280141E9, 0.0, 2022-06-08 10:08:11.280
21.0, 27275.565537877745, 27868.579670021496, -19707.778955433245, -15160.674173912308, 1994.9602478695213, -1071.5873326763312, 25682.17673089227, 3219.679381809161, -0.09, 0.968, 0.316, 192.0, 0.0, 0.0, 0.0, 0.0, 0.0, 0.0, 0.0, 0.0, 0.0, 1.6546756912801456E9, 0.0, 2022-06-08 10:08:11.280
22.0, 27278.20304372347, 27869.89842294436, -19697.22893205034, -15152.605194163943, 1997.418939759605, -1071.207353020591, 25642.97177111766, 3191.5161837954743, -0.09, 0.968, 0.316, 192.0, 0.0, 0.0, 0.0, 0.0, 0.0, 0.0, 0.0, 0.0, 0.0, 1.6546756912801502E9, 0.0, 2022-06-08 10:08:11.280
23.0, 27306.053317314785, 27891.624318554917, -19659.119207754044, -15115.903629768329, 2034.746352999968, -1029.4542943780773, 25596.815418817452, 3221.0204864764796, -0.09, 0.968, 0.316, 192.0, 0.0, 0.0, 0.0, 0.0, 0.0, 0.0, 0.0, 0.0, 0.0, 1.6546756912801547E9, 0.0, 2022-06-08 10:08:11.280
24.0, 27298.31961373325, 27886.32695511901, -19666.65174563548, -15127.526536885089, 2026.2526901069511, -1040.406649161178, 25601.01754677505, 3245.8532745663256, -0.09, 0.968, 0.316, 192.0, 0.0, 0.0, 0.0, 0.0, 0.0, 0.0, 0.0, 0.0, 0.0, 1.6546756912801595E9, 0.0, 2022-06-08 10:08:11.280
25.0, 27281.376991436126, 27871.597155522963, -19694.099687826598, -15148.850101095451, 2006.6055067307364, -1060.0314807929374, 25644.134061829336, 3244.1098384988118, -0.09, 0.968, 0.316, 192.0, 0.0, 0.0, 0.0, 0.0, 0.0, 0.0, 0.0, 0.0, 0.0, 1.654675691280164E9, 0.0, 2022-06-08 10:08:11.280
26.0, 27279.678258857522, 27865.249260097655, -19703.085089097633, -15159.802455878551, 2003.4762625069932, -1063.1160215277698, 25667.737503974142, 3237.225501206577, -0.09, 0.968, 0.316, 192.0, 0.0, 0.0, 0.0, 0.0, 0.0, 0.0, 0.0, 0.0, 0.0, 1.6546756912801685E9, 0.0, 2022-06-08 10:08:11.280
