%OpenBCI Raw EEG Data
%Number of channels = 8
%Sample Rate = 250 Hz
%Board = OpenBCI_GUI$BoardCytonSerial
Sample Index, EXG Channel 0, EXG Channel 1, EXG Channel 2, EXG Channel 3, EXG Channel 4, EXG Channel 5, EXG Channel 6, EXG Channel 7, Accel Channel 0, Accel Channel 1, Accel Channel 2, Other, Other, Other, Other, Other, Other, Other, Analog Channel 0, Analog Channel 1, Analog Channel 2, Timestamp, Other, Timestamp (Formatted)
0.0, 0.0, 0.0, 0.0, 0.0, 0.0, 0.0, 0.0, 0.0, 0.01, 0.778, 0.656, 192.0, 0.0, 80.0, 24.0, 80.0, 20.0, 128.0, 0.0, 0.0, 0.0, 1.6541564791212344E9, 0.0, 2022-06-02 09:54:39.121
1.0, 22483.038602237535, 1162.044842486959, -75943.04692066276, -54033.576432892856, -39461.20017304423, -38936.51532370035, -7480.011281968508, -46097.83543322509, 0.01, 0.778, 0.656, 192.0, 0.0, 0.0, 0.0, 0.0, 0.0, 0.0, 0.0, 0.0, 0.0, 1.6541564796043584E9, 0.0, 2022-06-02 09:54:39.604
2.0, 22487.06191623949, 1154.3111389054227, -75960.39187436008, -54058.252758771516, -39486.74821695664, -38969.148870605095, -7516.712846364123, -46138.493256389294, 0.01, 0.778, 0.656, 192.0, 0.0, 0.0, 0.0, 0.0, 0.0, 0.0, 0.0, 0.0, 0.0, 1.6541564796043687E9, 0.0, 2022-06-02 09:54:39.604
3.0, 22484.87144528287, 1150.5783975813863, -75942.175202629, -54054.02827906946, -39471.14669932684, -38968.79124269381, -7496.86449728781, -46106.619668796026, 0.01, 0.778, 0.656, 192.0, 0.0, 0.0, 0.0, 0.0, 0.0, 0.0, 0.0, 0.0, 0.0, 1.6541564796043744E9, 0.0, 2022-06-02 09:54:39.604
4.0, 22484.916148771783, 1159.0273569854924, -75912.98382437037, -54037.622098639265, -39441.7094518792, -38954.10614658667, -7455.111438645296, -46079.842278938566, 0.01, 0.778, 0.656, 192.0, 0.0, 0.0, 0.0, 0.0, 0.0, 0.0, 0.0, 0.0, 0.0, 1.6541564796043816E9, 0.0, 2022-06-02 09:54:39.604
5.0, 22490.79465756353, 1171.164354224724, -75903.66314693251, -54034.761075348986, -39441.731803623654, -38952.452117496985, -7476.345595877839, -46109.10071243057, 0.01, 0.778, 0.656, 192.0, 0.0, 0.0, 0.0, 0.0, 0.0, 0.0, 0.0, 0.0, 0.0, 1.6541564796043873E9, 0.0, 2022-06-02 09:54:39.604
6.0, 22486.816047050484, 1157.2168656846125, -75934.30738858072, -54063.70658441861, -39466.67635043578, -38971.42874853954, -7516.377570197293, -46140.99665176829, 0.01, 0.778, 0.656, 192.0, 0.0, 0.0, 0.0, 0.0, 0.0, 0.0, 0.0, 0.0, 0.0, 1.6541564796043928E9, 0.0, 2022-06-02 09:54:39.604
7.0, 22475.103732955904, 1131.5123595610094, -75967.79030177479, -54093.99319815555, -39487.17290010129, -39002.14004542113, -7520.825567343899, -46155.36882345305, 0.01, 0.778, 0.656, 192.0, 0.0, 0.0, 0.0, 0.0, 0.0, 0.0, 0.0, 0.0, 0.0, 1.6541564796043983E9, 0.0, 2022-06-02 09:54:39.604
8.0, 22467.370029374368, 1126.9302519476714, -75960.66009529354, -54089.902828920225, -39479.86387966441, -39006.23041465645, -7505.358160180826, -46140.527265134726, 0.01, 0.772, 0.658, 192.0, 0.0, 80.0, 24.0, 32.0, 20.0, 144.0, 0.0, 0.0, 0.0, 1.6541564796044035E9, 0.0, 2022-06-02 09:54:39.604
9.0, 22460.3515816154, 1134.4180863401994, -75943.00221717385, -54072.580226967366, -39465.04467309054, -38986.851452213705, -7494.405805397726, -46118.62255556852, 0.01, 0.772, 0.658, 192.0, 0.0, 0.0, 0.0, 0.0, 0.0, 0.0, 0.0, 0.0, 0.0, 1.6541564796044092E9, 0.0, 2022-06-02 09:54:39.604
10.0, 22458.138758914323, 1144.3422608783558, -75941.88462995108, -54061.06907857288, -39458.160335798304, -38973.216888095965, -7483.1628779367065, -46114.21926191083, 0.01, 0.772, 0.658, 192.0, 0.0, 0.0, 0.0, 0.0, 0.0, 0.0, 0.0, 0.0, 0.0, 1.6541564796044147E9, 0.0, 2022-06-02 09:54:39.604
11.0, 22469.269927653066, 1144.9904614675595, -75953.73105451239, -54064.80181989692, -39460.261399777104, -38974.133309618635, -7450.61873800978, -46128.8373027846, 0.01, 0.772, 0.658, 192.0, 0.0, 0.0, 0.0, 0.0, 0.0, 0.0, 0.0, 0.0, 0.0, 1.654156479604421E9, 0.0, 2022-06-02 09:54:39.604
12.0, 22472.73444804364, 1132.786408994962, -75972.37240938812, -54085.23131432907, -39486.547051256544, -38999.23431864194, -7479.497191846037, -46157.738108365316, 0.01, 0.772, 0.658, 192.0, 0.0, 0.0, 0.0, 0.0, 0.0, 0.0, 0.0, 0.0, 0.0, 1.6541564796044261E9, 0.0, 2022-06-02 09:54:39.604
13.0, 22468.77818927505, 1131.4900078165542, -75961.21888890493, -54078.95047413713, -39483.70837971072, -38995.52392906236, -7515.6846661191785, -46126.89270101699, 0.01, 0.772, 0.658, 192.0, 0.0, 0.0, 0.0, 0.0, 0.0, 0.0, 0.0, 0.0, 0.0, 1.6541564796044316E9, 0.0, 2022-06-02 09:54:39.604
14.0, 22482.010421992592, 1156.7474790510512, -75925.00906288733, -54047.50156968851, -39457.57919044247, -38961.30340830128, -7486.962674494109, -46088.380645320496, 0.01, 0.772, 0.658, 192.0, 0.0, 0.0, 0.0, 0.0, 0.0, 0.0, 0.0, 0.0, 0.0, 1.654156479604438E9, 0.0, 2022-06-02 09:54:39.604
15.0, 22487.88893078434, 1166.8951710337606, -75916.49304824985, -54042.874758586266, -39452.59475142894, -38957.3918530216, -7495.232819942573, -46097.20958438034, 0.01, 0.772, 0.658, 192.0, 0.0, 0.0, 0.0, 0.0, 0.0, 0.0, 0.0, 0.0, 0.0, 1.6541564796044436E9, 0.0, 2022-06-02 09:54:39.604
16.0, 22490.39232616333, 1164.5482378659533, -75932.13926936856, -54052.709526146595, -39459.85906837691, -38965.77375719235, -7502.117157234808, -46119.67308755792, 0.01, 0.772, 0.658, 192.0, 0.0, 0.0, 0.0, 0.0, 0.0, 0.0, 0.0, 0.0, 0.0, 1.6541564796044493E9, 0.0, 2022-06-02 09:54:39.604
17.0, 22473.628517821853, 1134.46278982911, -75971.32187739872, -54091.19923009864, -39492.4702635372, -39005.71632453398, -7512.130738750785, -46156.8440385871, 0.012, 0.776, 0.66, 192.0, 0.0, 96.0, 24.0, 64.0, 20.0, 160.0, 0.0, 0.0, 0.0, 1.654156479604455E9, 0.0, 2022-06-02 09:54:39.604
18.0, 22494.4603436542, 1157.7980110404505, -75934.66501649201, -54060.5102849615, -39468.75506267012, -38981.598792266705, -7487.81204078341, -46124.47871261582, 0.012, 0.776, 0.66, 192.0, 0.0, 0.0, 0.0, 0.0, 0.0, 0.0, 0.0, 0.0, 0.0, 1.6541564796044605E9, 0.0, 2022-06-02 09:54:39.604
19.0, 22507.78198334956, 1185.5365259094865, -75892.57668168268, -54019.53953737492, -39430.80180058501, -38943.75728890387, -7458.017165424486, -46084.69260748537, 0.012, 0.776, 0.66, 192.0, 0.0, 0.0, 0.0, 0.0, 0.0, 0.0, 0.0, 0.0, 0.0, 1.654156479604466E9, 0.0, 2022-06-02 09:54:39.604
20.0, 22490.481733141154, 1171.4996303915539, -75909.16167606851, -54026.69209560062, -39442.46941119068, -38939.242236523896, -7466.533180061959, -46070.901581156446, 0.012, 0.776, 0.66, 192.0, 0.0, 0.0, 0.0, 0.0, 0.0, 0.0, 0.0, 0.0, 0.0, 1.6541564796044717E9, 0.0, 2022-06-02 09:54:39.604
21.0, 22480.11052371389, 1152.6571098157299, -75942.59988577366, -54049.7590958785, -39467.16808881379, -38940.24806502439, -7477.485534845059, -46064.97836887579, 0.012, 0.776, 0.66, 192.0, 0.0, 0.0, 0.0, 0.0, 0.0, 0.0, 0.0, 0.0, 0.0, 1.6541564796044772E9, 0.0, 2022-06-02 09:54:39.604
22.0, 22481.809256292494, 1146.0633452014142, -75962.20236566095, -54066.45584898661, -39485.027132633586, -38959.33645478922, -7496.395110654249, -46088.93943893188, 0.012, 0.776, 0.66, 192.0, 0.0, 0.0, 0.0, 0.0, 0.0, 0.0, 0.0, 0.0, 0.0, 1.6541564796044922E9, 0.0, 2022-06-02 09:54:39.604
23.0, 22485.27377668307, 1150.913673748216, -75950.57945854419, -54056.37521223727, -39478.232202319174, -38960.18582107852, -7496.8197937989, -46093.92387794541, 0.012, 0.776, 0.66, 192.0, 0.0, 0.0, 0.0, 0.0, 0.0, 0.0, 0.0, 0.0, 0.0, 1.6541564796044977E9, 0.0, 2022-06-02 09:54:39.604
24.0, 22490.21351220769, 1161.910732020227, -75930.14996411205, -54035.722200360564, -39460.75313815512, -38941.7903353918, -7492.125927463285, -46078.724691715805, 0.012, 0.776, 0.66, 192.0, 0.0, 0.0, 0.0, 0.0, 0.0, 0.0, 0.0, 0.0, 0.0, 1.6541564796045032E9, 0.0, 2022-06-02 09:54:39.604
25.0, 22496.226131466166, 1172.103127491847, -75925.27728382079, -54027.11677874527, -39451.34305373944, -38931.01679456435, -7482.939360492153, -46078.791746949166, 0.012, 0.776, 0.66, 192.0, 0.0, 0.0, 0.0, 0.0, 0.0, 0.0, 0.0, 0.0, 0.0, 1.6541564796045084E9, 0.0, 2022-06-02 09:54:39.604
26.0, 22495.421468665776, 1163.5424093654644, -75954.69217952398, -54051.01079356799, -39467.30219928053, -38951.71450992996, -7485.95684599362, -46110.106540931054, 0.012, 0.776, 0.66, 192.0, 0.0, 0.0, 0.0, 0.0, 0.0, 0.0, 0.0, 0.0, 0.0, 1.654156479604514E9, 0.0, 2022-06-02 09:54:39.604
27.0, 22490.39232616333, 1147.9855952245707, -75975.81457803423, -54078.63754971475, -39484.13306285537, -38981.82230971126, -7503.525317135492, -46128.79259929569, 0.014, 0.768, 0.66, 192.0, 0.0, 112.0, 24.0, 0.0, 20.0, 160.0, 0.0, 0.0, 0.0, 1.6541564796045194E9, 0.0, 2022-06-02 09:54:39.604
28.0, 22491.465209897186, 1158.4015081407438, -75948.47839456539, -54063.50541871851, -39471.25845804912, -38982.87284170066, -7495.679854831679, -46126.11038996105, 0.014, 0.768, 0.66, 192.0, 0.0, 0.0, 0.0, 0.0, 0.0, 0.0, 0.0, 0.0, 0.0, 1.6541564796045249E9, 0.0, 2022-06-02 09:54:39.604
29.0, 22489.677070340764, 1167.1633919672242, -75929.94879841195, -54047.83684585534, -39465.96109461321, -38981.37527482215, -7506.386340425771, -46139.476733145326, 0.014, 0.768, 0.66, 192.0, 0.0, 0.0, 0.0, 0.0, 0.0, 0.0, 0.0, 0.0, 0.0, 1.65415647960453E9, 0.0, 2022-06-02 09:54:39.604
30.0, 22481.630442336853, 1166.1128599778247, -75928.09360362215, -54048.797970866915, -39455.83575437495, -38978.804824209794, -7484.034595970464, -46132.86061678656, 0.014, 0.768, 0.66, 192.0, 0.0, 0.0, 0.0, 0.0, 0.0, 0.0, 0.0, 0.0, 0.0, 1.6541564796045356E9, 0.0, 2022-06-02 09:54:39.604
31.0, 22472.3544683879, 1149.7290312920848, -75957.19557490297, -54072.80374441192, -39476.689931951754, -38991.7017807605, -7495.858668787321, -46128.68084057341, 0.014, 0.768, 0.66, 192.0, 0.0, 0.0, 0.0, 0.0, 0.0, 0.0, 0.0, 0.0, 0.0, 1.6541564796045408E9, 0.0, 2022-06-02 09:54:39.604
32.0, 22481.518683614577, 1140.9671474656043, -75974.04879022227, -54092.22741034358, -39501.165092130315, -39014.880539760656, -7530.973259326609, -46155.3911751975, 0.014, 0.768, 0.66, 192.0, 0.0, 0.0, 0.0, 0.0, 0.0, 0.0, 0.0, 0.0, 0.0, 1.6541564796045463E9, 0.0, 2022-06-02 09:54:39.604
33.0, 22483.798561549018, 1140.1848364096686, -75965.7786447738, -54079.88924740425, -39500.20396711874, -39014.880539760656, -7539.601032686357, -46152.10546876257, 0.014, 0.768, 0.66, 192.0, 0.0, 0.0, 0.0, 0.0, 0.0, 0.0, 0.0, 0.0, 0.0, 1.6541564796045516E9, 0.0, 2022-06-02 09:54:39.604
34.0, 22465.134854928834, 1131.9593944501155, -75963.99050521739, -54072.24495080054, -39490.43625479177, -39006.94567047902, -7511.482538161581, -46128.8373027846, 0.014, 0.768, 0.66, 192.0, 0.0, 0.0, 0.0, 0.0, 0.0, 0.0, 0.0, 0.0, 0.0, 1.654156479604557E9, 0.0, 2022-06-02 09:54:39.604
35.0, 22471.5051020986, 1144.1857986671685, -75945.57266778621, -54054.36355523629, -39472.17487957179, -38980.23533585493, -7485.174534937684, -46096.02494192421, 0.014, 0.768, 0.66, 192.0, 0.0, 0.0, 0.0, 0.0, 0.0, 0.0, 0.0, 0.0, 0.0, 1.6541564796045623E9, 0.0, 2022-06-02 09:54:39.604
36.0, 22486.391363905834, 1152.2547784155345, -75950.04301667727, -54060.756154150506, -39477.248725563135, -38978.06721664277, -7498.965561266609, -46118.06376195714, 0.014, 0.768, 0.66, 192.0, 0.0, 0.0, 0.0, 0.0, 0.0, 0.0, 0.0, 0.0, 0.0, 1.6541564796045678E9, 0.0, 2022-06-02 09:54:39.604
37.0, 22482.36804990388, 1139.5813393093754, -75970.6289733206, -54085.67834921818, -39496.78415021708, -39001.67065878757, -7515.0364655299745, -46144.930558792425, 0.016, 0.766, 0.662, 192.0, 0.0, 128.0, 23.0, 240.0, 20.0, 176.0, 0.0, 0.0, 0.0, 1.6541564796045732E9, 0.0, 2022-06-02 09:54:39.604
38.0, 22484.960852260694, 1146.2198074126015, -75951.09354866667, -54075.97769212457, -39487.396417545846, -38996.39564709612, -7527.06170404693, -46139.27556744523, 0.016, 0.766, 0.662, 192.0, 0.0, 0.0, 0.0, 0.0, 0.0, 0.0, 0.0, 0.0, 0.0, 1.6541564796045785E9, 0.0, 2022-06-02 09:54:39.604
39.0, 22491.867541297383, 1167.073984989403, -75910.34631852464, -54043.74647662002, -39449.46550720519, -38966.354902548184, -7481.441793613648, -46096.24845936876, 0.016, 0.766, 0.662, 192.0, 0.0, 0.0, 0.0, 0.0, 0.0, 0.0, 0.0, 0.0, 0.0, 1.654156479604584E9, 0.0, 2022-06-02 09:54:39.604
40.0, 22475.416657378275, 1153.5958830828529, -75913.47556274838, -54046.78631386594, -39447.92323683778, -38959.80584142278, -7459.268863113984, -46084.64790399646, 0.016, 0.766, 0.662, 192.0, 0.0, 0.0, 0.0, 0.0, 0.0, 0.0, 0.0, 0.0, 0.0, 1.6541564796045892E9, 0.0, 2022-06-02 09:54:39.604
41.0, 22472.466227110177, 1142.174141666191, -75935.33556882567, -54058.14100004924, -39463.65886493431, -38966.44430952601, -7471.316453375394, -46104.809177495146, 0.016, 0.766, 0.662, 192.0, 0.0, 0.0, 0.0, 0.0, 0.0, 0.0, 0.0, 0.0, 0.0, 1.6541564796045947E9, 0.0, 2022-06-02 09:54:39.604
42.0, 22463.07849443895, 1118.0342576544592, -75965.06338895124, -54079.643378215245, -39490.65977223632, -38988.796053981314, -7490.829526284877, -46109.99478220878, 0.016, 0.766, 0.662, 192.0, 0.0, 0.0, 0.0, 0.0, 0.0, 0.0, 0.0, 0.0, 0.0, 1.6541564796046E9, 0.0, 2022-06-02 09:54:39.604
43.0, 22465.11250318438, 1121.3646675783, -75952.74757775637, -54066.344090264334, -39481.808481432025, -38986.67263825806, -7489.19784893964, -46107.44668334087, 0.016, 0.766, 0.662, 192.0, 0.0, 0.0, 0.0, 0.0, 0.0, 0.0, 0.0, 0.0, 0.0, 1.6541564796046078E9, 0.0, 2022-06-02 09:54:39.604
44.0, 22462.564404316476, 1123.465731557099, -75932.34043506866, -54043.92529057566, -39462.67538817828, -38968.120690360156, -7477.418479611693, -46099.66827627042, 0.016, 0.766, 0.662, 192.0, 0.0, 0.0, 0.0, 0.0, 0.0, 0.0, 0.0, 0.0, 0.0, 1.6541564796046133E9, 0.0, 2022-06-02 09:54:39.604
45.0, 22440.21265986117, 1103.1703475916802, -75940.9235049395, -54048.82032261138, -39465.156431812815, -38971.316989817264, -7490.5613053514135, -46122.40000038147, 0.016, 0.766, 0.662, 192.0, 0.0, 0.0, 0.0, 0.0, 0.0, 0.0, 0.0, 0.0, 0.0, 1.6541564796046185E9, 0.0, 2022-06-02 09:54:39.604
46.0, 22423.650017219785, 1071.2744082539568, -75962.93997322799, -54066.008814097506, -39476.064083107005, -38976.94962942, -7496.90920077672, -46135.699288332384, 0.016, 0.766, 0.662, 192.0, 0.0, 0.0, 0.0, 0.0, 0.0, 0.0, 0.0, 0.0, 0.0, 1.654156479604624E9, 0.0, 2022-06-02 09:54:39.604
47.0, 22409.456659490665, 1045.145218985703, -75978.58619434669, -54074.6142357128, -39489.54218501356, -38991.14298714912, -7498.987913011064, -46131.005421996764, 0.016, 0.762, 0.66, 192.0, 0.0, 128.0, 23.0, 208.0, 20.0, 160.0, 0.0, 0.0, 0.0, 1.6541564796046293E9, 0.0, 2022-06-02 09:54:39.604
48.0, 22395.66563316174, 1028.180244944125, -75961.30829588274, -54060.97967159506, -39480.80265293153, -38983.43163531204, -7493.176459452684, -46113.21343341034, 0.016, 0.762, 0.66, 192.0, 0.0, 0.0, 0.0, 0.0, 0.0, 0.0, 0.0, 0.0, 0.0, 1.6541564796046348E9, 0.0, 2022-06-02 09:54:39.604
49.0, 22361.802740311952, 993.2891718493905, -75949.46187132143, -54052.68717440214, -39466.497536480136, -38978.447196298504, -7480.033633712964, -46110.30770663115, 0.016, 0.762, 0.66, 192.0, 0.0, 0.0, 0.0, 0.0, 0.0, 0.0, 0.0, 0.0, 0.0, 1.65415647960464E9, 0.0, 2022-06-02 09:54:39.604
50.0, 22321.301379358934, 958.5769127102986, -75944.34332184117, -54045.869892343275, -39454.874629363374, -38975.317952074765, -7471.808191753411, -46113.973392721826, 0.016, 0.762, 0.66, 192.0, 0.0, 0.0, 0.0, 0.0, 0.0, 0.0, 0.0, 0.0, 0.0, 1.6541564796046455E9, 0.0, 2022-06-02 09:54:39.604
51.0, 22303.777611705973, 929.6090518962208, -75945.70677825293, -54046.71925863258, -39451.36540548389, -38965.23731532542, -7478.446659856637, -46118.443741612886, 0.016, 0.762, 0.66, 192.0, 0.0, 0.0, 0.0, 0.0, 0.0, 0.0, 0.0, 0.0, 0.0, 1.6541564796046507E9, 0.0, 2022-06-02 09:54:39.604
52.0, 22256.88365183874, 854.9318736710399, -75989.42679040752, -54093.92614292218, -39487.597583245944, -39007.683278046046, -7514.969410296609, -46161.426146200436, 0.016, 0.762, 0.66, 192.0, 0.0, 0.0, 0.0, 0.0, 0.0, 0.0, 0.0, 0.0, 0.0, 1.6541564796046567E9, 0.0, 2022-06-02 09:54:39.604
53.0, 22229.882744536728, 834.0776960942384, -75976.17220594552, -54085.723052707086, -39480.62383897589, -39008.39853386862, -7522.993686556064, -46154.96649205285, 0.016, 0.762, 0.66, 192.0, 0.0, 0.0, 0.0, 0.0, 0.0, 0.0, 0.0, 0.0, 0.0, 1.654156479604662E9, 0.0, 2022-06-02 09:54:39.604
54.0, 22205.698157036088, 809.8484051046855, -75945.52796429729, -54065.38296525276, -39458.29444626504, -38980.1012253882, -7489.153145450729, -46108.40780835245, 0.016, 0.762, 0.66, 192.0, 0.0, 0.0, 0.0, 0.0, 0.0, 0.0, 0.0, 0.0, 0.0, 1.6541564796046677E9, 0.0, 2022-06-02 09:54:39.604
55.0, 22177.803179955863, 782.445166402479, -75926.93131291048, -54054.00592732501, -39437.01558554359, -38953.39089076411, -7443.689697228635, -46063.145525830456, 0.016, 0.762, 0.66, 192.0, 0.0, 0.0, 0.0, 0.0, 0.0, 0.0, 0.0, 0.0, 0.0, 1.654156479604673E9, 0.0, 2022-06-02 09:54:39.604
56.0, 22144.454377228543, 741.317956604714, -75954.33455161269, -54083.77845093948, -39455.05344331902, -38968.81359443827, -7471.495267331036, -46103.758645505746, 0.016, 0.762, 0.66, 192.0, 0.0, 0.0, 0.0, 0.0, 0.0, 0.0, 0.0, 0.0, 0.0, 1.6541564796046782E9, 0.0, 2022-06-02 09:54:39.604
57.0, 22114.145411747148, 707.8797468995747, -75984.33059267171, -54116.23318388858, -39473.60539121692, -38993.981658694946, -7486.135659949263, -46124.635174827, 0.018000000000000002, 0.766, 0.67, 192.0, 0.0, 144.0, 23.0, 240.0, 20.0, 240.0, 0.0, 0.0, 0.0, 1.6541564796046836E9, 0.0, 2022-06-02 09:54:39.604
58.0, 22083.635280565653, 678.2189820073822, -75975.00991523385, -54109.39355008525, -39465.96109461321, -38995.21100463998, -7485.666273315701, -46119.74014279129, 0.018000000000000002, 0.766, 0.67, 192.0, 0.0, 0.0, 0.0, 0.0, 0.0, 0.0, 0.0, 0.0, 0.0, 1.6541564796046891E9, 0.0, 2022-06-02 09:54:39.604
59.0, 22073.666402538587, 677.5707814181783, -75956.94970571395, -54092.5179830215, -39450.35957698341, -38983.92337369006, -7478.491363345548, -46117.527320090216, 0.018000000000000002, 0.766, 0.67, 192.0, 0.0, 0.0, 0.0, 0.0, 0.0, 0.0, 0.0, 0.0, 0.0, 1.6541564796046946E9, 0.0, 2022-06-02 09:54:39.604
60.0, 22053.438073806534, 660.2034759764047, -75957.86612723663, -54092.54033476595, -39446.40331821481, -38968.05363512679, -7453.94914793362, -46079.19407834936, 0.018000000000000002, 0.766, 0.67, 192.0, 0.0, 0.0, 0.0, 0.0, 0.0, 0.0, 0.0, 0.0, 0.0, 1.6541564796047E9, 0.0, 2022-06-02 09:54:39.604
61.0, 22033.187393330027, 634.5660250861675, -75981.55897635924, -54106.28665760597, -39459.926123610276, -38966.57841999274, -7471.00352895302, -46089.52058428772, 0.018000000000000002, 0.766, 0.67, 192.0, 0.0, 0.0, 0.0, 0.0, 0.0, 0.0, 0.0, 0.0, 0.0, 1.6541564796047053E9, 0.0, 2022-06-02 09:54:39.604
62.0, 22021.855058891186, 608.9956294292962, -76011.08563078471, -54131.633535818284, -39481.607315731926, -38995.83685348473, -7510.119081749807, -46136.325137177126, 0.018000000000000002, 0.766, 0.67, 192.0, 0.0, 0.0, 0.0, 0.0, 0.0, 0.0, 0.0, 0.0, 0.0, 1.6541564796047108E9, 0.0, 2022-06-02 09:54:39.604
63.0, 22030.97457062895, 622.6748970359441, -75988.9350520295, -54108.90181170724, -39466.18461205776, -38982.38110332264, -7505.022884013997, -46123.00349748177, 0.018000000000000002, 0.766, 0.67, 192.0, 0.0, 0.0, 0.0, 0.0, 0.0, 0.0, 0.0, 0.0, 0.0, 1.6541564796047163E9, 0.0, 2022-06-02 09:54:39.604
64.0, 22006.5441139393, 619.5009493232906, -75974.56288034473, -54098.08356739087, -39450.963074083695, -38973.082777629235, -7473.059889442908, -46105.83735774009, 0.018000000000000002, 0.766, 0.67, 192.0, 0.0, 0.0, 0.0, 0.0, 0.0, 0.0, 0.0, 0.0, 0.0, 1.6541564796047237E9, 0.0, 2022-06-02 09:54:39.604
65.0, 22005.582988927723, 624.7983127591983, -75958.89430748158, -54080.9174276492, -39439.787201856045, -38957.548315232794, -7456.6313572682575, -46095.35438959055, 0.018000000000000002, 0.766, 0.67, 192.0, 0.0, 0.0, 0.0, 0.0, 0.0, 0.0, 0.0, 0.0, 0.0, 1.6541564796047292E9, 0.0, 2022-06-02 09:54:39.604
66.0, 22001.045584803294, 618.2045481448828, -75982.43069439301, -54096.407186556724, -39459.30027476553, -38969.59590549421, -7477.440831356148, -46130.33486966311, 0.018000000000000002, 0.766, 0.67, 192.0, 0.0, 0.0, 0.0, 0.0, 0.0, 0.0, 0.0, 0.0, 0.0, 1.6541564796047344E9, 0.0, 2022-06-02 09:54:39.604
67.0, 21999.34685222469, 607.7662834842544, -76015.57833142023, -54118.06602693391, -39487.754045457135, -38993.8028447393, -7492.9082385192205, -46157.4922391763, 0.014, 0.76, 0.666, 192.0, 0.0, 112.0, 23.0, 192.0, 20.0, 208.0, 0.0, 0.0, 0.0, 1.65415647960474E9, 0.0, 2022-06-02 09:54:39.604
68.0, 22001.313805736758, 609.4426643184024, -76014.21487500846, -54105.99608492805, -39496.31476358351, -38996.03801918483, -7485.487459360059, -46141.4883901463, 0.014, 0.76, 0.666, 192.0, 0.0, 0.0, 0.0, 0.0, 0.0, 0.0, 0.0, 0.0, 0.0, 1.6541564796047451E9, 0.0, 2022-06-02 09:54:39.604
69.0, 22015.842439632706, 631.5708913291563, -75986.58811886169, -54076.916465391696, -39467.32455102498, -38970.91465841707, -7488.728462306079, -46098.17070939192, 0.014, 0.76, 0.666, 192.0, 0.0, 0.0, 0.0, 0.0, 0.0, 0.0, 0.0, 0.0, 0.0, 1.6541564796047506E9, 0.0, 2022-06-02 09:54:39.604
70.0, 22019.351663512192, 647.2618159367819, -75982.87772928212, -54069.24981704353, -39460.37315849938, -38963.650341469096, -7484.124002948285, -46098.64009602548, 0.014, 0.76, 0.666, 192.0, 0.0, 0.0, 0.0, 0.0, 0.0, 0.0, 0.0, 0.0, 0.0, 1.654156479604756E9, 0.0, 2022-06-02 09:54:39.604
71.0, 22013.54020995381, 638.5446355992121, -76019.22166576644, -54103.55974478242, -39491.71030422572, -38990.51713830437, -7512.15309049524, -46138.56031162266, 0.014, 0.76, 0.666, 192.0, 0.0, 0.0, 0.0, 0.0, 0.0, 0.0, 0.0, 0.0, 0.0, 1.6541564796047614E9, 0.0, 2022-06-02 09:54:39.604
72.0, 22018.859925134173, 634.2531006637932, -76042.37807302215, -54136.64032657628, -39526.623729064915, -39023.82123754278, -7544.250195533061, -46170.009216071274, 0.014, 0.76, 0.666, 192.0, 0.0, 0.0, 0.0, 0.0, 0.0, 0.0, 0.0, 0.0, 0.0, 1.6541564796047668E9, 0.0, 2022-06-02 09:54:39.604
73.0, 22036.003713131395, 653.7661735732763, -76026.79890713679, -54131.09709395136, -39521.25931039564, -39028.649214345125, -7541.322117009416, -46176.42416672995, 0.014, 0.76, 0.666, 192.0, 0.0, 0.0, 0.0, 0.0, 0.0, 0.0, 0.0, 0.0, 0.0, 1.654156479604772E9, 0.0, 2022-06-02 09:54:39.604
74.0, 22055.82971046325, 684.8350983661531, -76000.82618007972, -54113.59567804285, -39493.67725773779, -39009.985507724945, -7521.853747588843, -46152.351337951586, 0.014, 0.76, 0.666, 192.0, 0.0, 0.0, 0.0, 0.0, 0.0, 0.0, 0.0, 0.0, 0.0, 1.6541564796047776E9, 0.0, 2022-06-02 09:54:39.604
75.0, 22075.298079883825, 704.6387439535551, -75982.83302579321, -54103.98442792707, -39477.36048428542, -38992.12646390515, -7505.022884013997, -46119.29310790219, 0.014, 0.76, 0.666, 192.0, 0.0, 0.0, 0.0, 0.0, 0.0, 0.0, 0.0, 0.0, 0.0, 1.6541564796047833E9, 0.0, 2022-06-02 09:54:39.604
76.0, 22070.872434481673, 695.2510112823262, -76018.03702331032, -54139.054314977446, -39505.34486834346, -39016.1098857057, -7511.884869561776, -46131.921843519434, 0.014, 0.76, 0.666, 192.0, 0.0, 0.0, 0.0, 0.0, 0.0, 0.0, 0.0, 0.0, 0.0, 1.6541564796047885E9, 0.0, 2022-06-02 09:54:39.604
77.0, 22085.490475355444, 700.3695607625915, -76040.88050614363, -54161.04843152147, -39529.84238026648, -39046.10592676472, -7543.847864132866, -46171.75265213879, 0.012, 0.766, 0.674, 192.0, 0.0, 96.0, 23.0, 240.0, 21.0, 16.0, 0.0, 0.0, 0.0, 1.654156479604794E9, 0.0, 2022-06-02 09:54:39.604
78.0, 22131.89269684466, 748.2917008747698, -75999.66388936805, -54124.168053170215, -39493.543147271055, -39022.837760786744, -7517.003419042042, -46148.015099527256, 0.012, 0.766, 0.674, 192.0, 0.0, 0.0, 0.0, 0.0, 0.0, 0.0, 0.0, 0.0, 0.0, 1.6541564796047995E9, 0.0, 2022-06-02 09:54:39.604
79.0, 22155.94317387857, 781.1040617351606, -75975.90398501206, -54101.74925348154, -39469.04563534804, -39005.55986232279, -7492.997645497042, -46124.590471338095, 0.012, 0.766, 0.674, 192.0, 0.0, 0.0, 0.0, 0.0, 0.0, 0.0, 0.0, 0.0, 0.0, 1.6541564796048048E9, 0.0, 2022-06-02 09:54:39.604
80.0, 22169.264813573936, 800.8853555781074, -75962.24706914986, -54091.936837665664, -39462.80949864501, -38996.90973721859, -7484.906314004221, -46123.74110504879, 0.012, 0.766, 0.674, 192.0, 0.0, 0.0, 0.0, 0.0, 0.0, 0.0, 0.0, 0.0, 0.0, 1.6541564796048102E9, 0.0, 2022-06-02 09:54:39.604
81.0, 22178.876063689717, 810.4519022049788, -75974.182900689, -54101.3692738258, -39470.252629548624, -39000.15074016461, -7486.560343093914, -46138.51560813375, 0.012, 0.766, 0.674, 192.0, 0.0, 0.0, 0.0, 0.0, 0.0, 0.0, 0.0, 0.0, 0.0, 1.6541564796048155E9, 0.0, 2022-06-02 09:54:39.604
82.0, 22190.275453361923, 814.3634574846575, -75996.46758991094, -54125.509157837536, -39495.800673461046, -39021.451952630516, -7522.636058644779, -46178.972265597855, 0.012, 0.766, 0.674, 192.0, 0.0, 0.0, 0.0, 0.0, 0.0, 0.0, 0.0, 0.0, 0.0, 1.6541564796048207E9, 0.0, 2022-06-02 09:54:39.604
83.0, 22189.761363239453, 813.1117597951603, -76000.11092425715, -54133.779303286, -39503.22145262021, -39039.623920872684, -7491.835354785366, -46176.89355336351, 0.012, 0.766, 0.674, 192.0, 0.0, 0.0, 0.0, 0.0, 0.0, 0.0, 0.0, 0.0, 0.0, 1.6541564796048265E9, 0.0, 2022-06-02 09:54:39.604
84.0, 22204.580569813323, 832.2448530489032, -75985.62699385012, -54116.79197749996, -39485.07183612249, -39032.04667950233, -7518.5009859205475, -46166.723509636344, 0.012, 0.766, 0.674, 192.0, 0.0, 0.0, 0.0, 0.0, 0.0, 0.0, 0.0, 0.0, 0.0, 1.6541564796048317E9, 0.0, 2022-06-02 09:54:39.604
85.0, 22211.956645483573, 844.2253880769478, -75975.05461872276, -54111.51696580851, -39473.89596389484, -39014.4111531271, -7448.696487986624, -46122.84703527058, 0.012, 0.766, 0.674, 192.0, 0.0, 0.0, 0.0, 0.0, 0.0, 0.0, 0.0, 0.0, 0.0, 1.6541564796048398E9, 0.0, 2022-06-02 09:54:39.604
86.0, 22234.06252074987, 862.9114464415844, -75974.56288034473, -54106.063140161416, -39471.50432723812, -38994.674562773056, -7422.522595229459, -46090.21348836583, 0.012, 0.766, 0.674, 192.0, 0.0, 0.0, 0.0, 0.0, 0.0, 0.0, 0.0, 0.0, 0.0, 1.654156479604848E9, 0.0, 2022-06-02 09:54:39.604
87.0, 22244.97017204406, 862.1738388745594, -76005.56474990425, -54134.76278004203, -39513.905586469846, -39026.07876373277, -7511.5719451394025, -46140.14728547899, 0.016, 0.762, 0.676, 192.0, 0.0, 128.0, 23.0, 208.0, 21.0, 32.0, 0.0, 0.0, 0.0, 1.6541564796048577E9, 0.0, 2022-06-02 09:54:39.604
88.0, 22261.26459375198, 873.9755599469614, -75998.5910056342, -54130.09126545087, -39512.54213005807, -39037.47815340497, -7525.787654612977, -46155.3911751975, 0.016, 0.762, 0.676, 192.0, 0.0, 0.0, 0.0, 0.0, 0.0, 0.0, 0.0, 0.0, 0.0, 1.6541564796048667E9, 0.0, 2022-06-02 09:54:39.604
89.0, 22288.578425476364, 911.7500080764304, -75963.18584241699, -54094.08260513337, -39478.455719763726, -39003.95053672201, -7493.958770508621, -46117.16969217893, 0.016, 0.762, 0.676, 192.0, 0.0, 0.0, 0.0, 0.0, 0.0, 0.0, 0.0, 0.0, 0.0, 1.6541564796048748E9, 0.0, 2022-06-02 09:54:39.604
90.0, 22314.03706241096, 946.0599358153268, -75942.48812705137, -54070.90384613322, -39463.077719578476, -38977.821347453755, -7489.935456506665, -46106.30674437365, 0.016, 0.762, 0.676, 192.0, 0.0, 0.0, 0.0, 0.0, 0.0, 0.0, 0.0, 0.0, 0.0, 1.654156479604885E9, 0.0, 2022-06-02 09:54:39.604
91.0, 22312.830068210373, 938.8403223562625, -75976.64159257908, -54094.104956877825, -39493.58785075997, -38994.048713928314, -7518.098654520351, -46132.52534061973, 0.016, 0.762, 0.676, 192.0, 0.0, 0.0, 0.0, 0.0, 0.0, 0.0, 0.0, 0.0, 0.0, 1.6541564796048975E9, 0.0, 2022-06-02 09:54:39.604
92.0, 22320.42966132518, 938.1027147892374, -76005.02830803732, -54117.41782634471, -39518.75591501664, -39022.14485670863, -7536.53884369598, -46169.606884671084, 0.016, 0.762, 0.676, 192.0, 0.0, 0.0, 0.0, 0.0, 0.0, 0.0, 0.0, 0.0, 0.0, 1.6541564796049032E9, 0.0, 2022-06-02 09:54:39.604
93.0, 22331.918457975204, 945.6129009262206, -76002.81548533625, -54114.176823398695, -39521.81810400702, -39034.304205692315, -7554.040259604485, -46183.95670461139, 0.016, 0.762, 0.676, 192.0, 0.0, 0.0, 0.0, 0.0, 0.0, 0.0, 0.0, 0.0, 0.0, 1.6541564796049087E9, 0.0, 2022-06-02 09:54:39.604
94.0, 22347.4752721161, 963.9413313795724, -75968.01381921934, -54080.85037241583, -39487.79874894604, -39000.754237264904, -7509.314418949416, -46129.41844814044, 0.016, 0.762, 0.676, 192.0, 0.0, 0.0, 0.0, 0.0, 0.0, 0.0, 0.0, 0.0, 0.0, 1.654156479604914E9, 0.0, 2022-06-02 09:54:39.604
95.0, 22360.126359477803, 987.0977386352705, -75940.85644970613, -54057.73866864904, -39475.86291740691, -38976.5472980198, -7485.643921571246, -46099.064779170134, 0.016, 0.762, 0.676, 192.0, 0.0, 0.0, 0.0, 0.0, 0.0, 0.0, 0.0, 0.0, 0.0, 1.6541564796049216E9, 0.0, 2022-06-02 09:54:39.604
96.0, 22375.392600940777, 996.0831399063039, -75949.70774051044, -54064.7124129191, -39491.26326933662, -38982.090530644724, -7497.020959498997, -46116.02975321171, 0.016, 0.762, 0.676, 192.0, 0.0, 0.0, 0.0, 0.0, 0.0, 0.0, 0.0, 0.0, 0.0, 1.654156479604927E9, 0.0, 2022-06-02 09:54:39.604
97.0, 22381.494627177075, 990.8081282148514, -75972.99825823287, -54089.142869608746, -39508.8764439674, -39008.59969956872, -7514.902355063243, -46134.20172145387, 0.012, 0.76, 0.672, 192.0, 0.0, 96.0, 23.0, 192.0, 21.0, 0.0, 0.0, 0.0, 0.0, 1.6541564796049325E9, 0.0, 2022-06-02 09:54:39.604
98.0, 22397.364365740345, 1010.2541458909686, -75956.7261882694, -54080.403337526724, -39499.46635955171, -39020.133199707656, -7533.454302961148, -46146.98691928231, 0.012, 0.76, 0.672, 192.0, 0.0, 0.0, 0.0, 0.0, 0.0, 0.0, 0.0, 0.0, 0.0, 1.654156479604938E9, 0.0, 2022-06-02 09:54:39.604
99.0, 22409.836639146404, 1030.951861256583, -75930.93227516799, -54062.25372102901, -39475.438234262256, -39004.06229544429, -7510.990799783564, -46124.14343644899, 0.012, 0.76, 0.672, 192.0, 0.0, 0.0, 0.0, 0.0, 0.0, 0.0, 0.0, 0.0, 0.0, 1.6541564796049435E9, 0.0, 2022-06-02 09:54:39.604
100.0, 22424.946418398195, 1052.0072045334823, -75915.24135056036, -54050.18377902315, -39458.83088813197, -38994.49574881742, -7482.134697691763, -46116.09680844508, 0.012, 0.76, 0.672, 192.0, 0.0, 0.0, 0.0, 0.0, 0.0, 0.0, 0.0, 0.0, 0.0, 1.6541564796049488E9, 0.0, 2022-06-02 09:54:39.604
101.0, 22424.477031764633, 1048.3415184428118, -75941.19172587297, -54075.37419502428, -39471.83960340495, -39019.77557179637, -7437.051229125408, -46156.37465195354, 0.012, 0.76, 0.672, 192.0, 0.0, 0.0, 0.0, 0.0, 0.0, 0.0, 0.0, 0.0, 0.0, 1.6541564796049542E9, 0.0, 2022-06-02 09:54:39.604
102.0, 22424.81230793146, 1039.0655444938595, -75968.66201980854, -54108.61123902932, -39494.7724932161, -39044.72011860849, -7481.553552335925, -46175.060710318176, 0.012, 0.76, 0.672, 192.0, 0.0, 0.0, 0.0, 0.0, 0.0, 0.0, 0.0, 0.0, 0.0, 1.6541564796049595E9, 0.0, 2022-06-02 09:54:39.604
103.0, 22424.96877014265, 1039.6690415941528, -75961.44240634948, -54101.235163359066, -39495.89008043886, -39033.76776382539, -7504.933477036176, -46129.15022720698, 0.012, 0.76, 0.672, 192.0, 0.0, 0.0, 0.0, 0.0, 0.0, 0.0, 0.0, 0.0, 0.0, 1.6541564796049647E9, 0.0, 2022-06-02 09:54:39.604
104.0, 22428.500345766588, 1053.013033033971, -75940.43176656148, -54084.20313408413, -39471.77254817159, -39012.91358624859, -7477.172610422685, -46103.80334899466, 0.012, 0.76, 0.672, 192.0, 0.0, 0.0, 0.0, 0.0, 0.0, 0.0, 0.0, 0.0, 0.0, 1.6541564796049705E9, 0.0, 2022-06-02 09:54:39.604
105.0, 22439.273886594045, 1074.3813007332446, -75925.1208216096, -54071.82026765589, -39447.07387054848, -38993.89225171712, -7469.751831263523, -46098.84126172558, 0.012, 0.76, 0.672, 192.0, 0.0, 0.0, 0.0, 0.0, 0.0, 0.0, 0.0, 0.0, 0.0, 1.654156479604976E9, 0.0, 2022-06-02 09:54:39.604
106.0, 22441.330247083934, 1073.978969333049, -75939.40358631655, -54087.690006219156, -39454.98638808565, -38998.89904247511, -7474.445697599137, -46105.435026339896, 0.006, 0.76, 0.672, 192.0, 0.0, 48.0, 23.0, 192.0, 21.0, 0.0, 0.0, 0.0, 0.0, 1.6541564796049812E9, 0.0, 2022-06-02 09:54:39.604
107.0, 22446.940534942216, 1065.8652860957725, -75966.71741804092, -54111.94164895316, -39484.51304251111, -39017.67450781757, -7512.018980028508, -46141.19781746838, 0.006, 0.76, 0.672, 192.0, 0.0, 0.0, 0.0, 0.0, 0.0, 0.0, 0.0, 0.0, 0.0, 1.6541564796049898E9, 0.0, 2022-06-02 09:54:39.604
108.0, 22448.661619265273, 1061.5513994158982, -75961.3306476272, -54112.701608264644, -39483.551917499535, -39020.71434506349, -7500.708997334123, -46138.493256389294, 0.006, 0.76, 0.672, 192.0, 0.0, 0.0, 0.0, 0.0, 0.0, 0.0, 0.0, 0.0, 0.0, 1.6541564796049953E9, 0.0, 2022-06-02 09:54:39.604
109.0, 22450.67327626625, 1067.8769430967502, -75948.63485677658, -54097.725939479584, -39478.99216163065, -39007.593871068224, -7496.037482742964, -46130.42427664093, 0.006, 0.76, 0.672, 192.0, 0.0, 0.0, 0.0, 0.0, 0.0, 0.0, 0.0, 0.0, 0.0, 1.6541564796050005E9, 0.0, 2022-06-02 09:54:39.605
110.0, 22454.2495553791, 1081.913838614683, -75943.56101078523, -54081.81149742741, -39476.488766251656, -38993.91460346158, -7506.207526470128, -46129.91018651846, 0.006, 0.76, 0.672, 192.0, 0.0, 0.0, 0.0, 0.0, 0.0, 0.0, 0.0, 0.0, 0.0, 1.654156479605006E9, 0.0, 2022-06-02 09:54:39.605
111.0, 22462.49734908311, 1090.563963718887, -75955.34038011318, -54082.146773594235, -39481.98729538766, -38991.7017807605, -7526.547613924457, -46158.56512291016, 0.006, 0.76, 0.672, 192.0, 0.0, 0.0, 0.0, 0.0, 0.0, 0.0, 0.0, 0.0, 0.0, 1.6541564796050112E9, 0.0, 2022-06-02 09:54:39.605
112.0, 22458.67520078125, 1071.0061873204932, -75995.05943001025, -54112.343980353355, -39521.371069117915, -39024.49178987644, -7562.086887608396, -46197.010123373286, 0.006, 0.76, 0.672, 192.0, 0.0, 0.0, 0.0, 0.0, 0.0, 0.0, 0.0, 0.0, 0.0, 1.6541564796050167E9, 0.0, 2022-06-02 09:54:39.605
113.0, 22469.96283173118, 1083.232591537546, -75982.02836299282, -54095.311951078416, -39515.224339392706, -39011.55012983682, -7547.11121882334, -46154.5418089082, 0.006, 0.76, 0.672, 192.0, 0.0, 0.0, 0.0, 0.0, 0.0, 0.0, 0.0, 0.0, 0.0, 1.654156479605022E9, 0.0, 2022-06-02 09:54:39.605
114.0, 22471.706267798694, 1098.9458678896272, -75953.10520566764, -54072.3120060339, -39496.78415021708, -38995.32276336227, -7534.01309657253, -46137.66624184445, 0.006, 0.76, 0.672, 192.0, 0.0, 0.0, 0.0, 0.0, 0.0, 0.0, 0.0, 0.0, 0.0, 1.6541564796050274E9, 0.0, 2022-06-02 09:54:39.605
115.0, 22469.761666031085, 1108.847690683328, -75943.18103112948, -54059.10212506082, -39476.95815288522, -38983.47633880095, -7492.572962352391, -46109.54774731967, 0.006, 0.76, 0.672, 192.0, 0.0, 0.0, 0.0, 0.0, 0.0, 0.0, 0.0, 0.0, 0.0, 1.6541564796050332E9, 0.0, 2022-06-02 09:54:39.605
116.0, 22473.516759099577, 1098.878812656261, -75965.46572035144, -54074.4130700127, -39489.85510943593, -38994.98748719543, -7497.199773454639, -46128.05499172866, 0.01, 0.758, 0.664, 192.0, 0.0, 80.0, 23.0, 176.0, 20.0, 192.0, 0.0, 0.0, 0.0, 1.6541564796050384E9, 0.0, 2022-06-02 09:54:39.605
117.0, 22476.847169023415, 1091.6815509416522, -75985.80580780577, -54100.385797069765, -39515.850188237455, -39018.926205507065, -7529.229823259095, -46168.51164919277, 0.01, 0.758, 0.664, 192.0, 0.0, 0.0, 0.0, 0.0, 0.0, 0.0, 0.0, 0.0, 0.0, 1.654156479605044E9, 0.0, 2022-06-02 09:54:39.605
118.0, 22482.680974326253, 1102.1868708356465, -75966.91858374102, -54087.33237830787, -39500.51689154111, -39009.67258330257, -7505.0005322695415, -46146.98691928231, 0.01, 0.758, 0.664, 192.0, 0.0, 0.0, 0.0, 0.0, 0.0, 0.0, 0.0, 0.0, 0.0, 1.6541564796050494E9, 0.0, 2022-06-02 09:54:39.605
119.0, 22480.758724303094, 1107.2160133380908, -75951.16060390003, -54075.642415957744, -39486.05531287853, -38999.77076050887, -7491.544782107447, -46136.74982032178, 0.01, 0.758, 0.664, 192.0, 0.0, 0.0, 0.0, 0.0, 0.0, 0.0, 0.0, 0.0, 0.0, 1.6541564796050549E9, 0.0, 2022-06-02 09:54:39.605
120.0, 22474.522587600066, 1108.0877313718477, -75951.07119692222, -54079.57632298188, -39485.11653961141, -39004.21875765547, -7481.799421524933, -46147.165733237955, 0.01, 0.758, 0.664, 192.0, 0.0, 0.0, 0.0, 0.0, 0.0, 0.0, 0.0, 0.0, 0.0, 1.65415647960506E9, 0.0, 2022-06-02 09:54:39.605
121.0, 22476.713058556685, 1112.6474872407302, -75957.28498188079, -54086.684177718664, -39478.74629244165, -38999.927222720056, -7487.7673372945, -46125.79746553868, 0.01, 0.758, 0.664, 192.0, 0.0, 0.0, 0.0, 0.0, 0.0, 0.0, 0.0, 0.0, 0.0, 1.6541564800842967E9, 0.0, 2022-06-02 09:54:40.084
122.0, 22485.78786680554, 1111.6416587402414, -75971.36658088762, -54102.79978547094, -39486.16707160081, -39016.17694093906, -7478.021976711986, -46130.82660804113, 0.01, 0.758, 0.664, 192.0, 0.0, 0.0, 0.0, 0.0, 0.0, 0.0, 0.0, 0.0, 0.0, 1.6541564800845385E9, 0.0, 2022-06-02 09:54:40.084
123.0, 22489.520608129576, 1103.88560341425, -75959.49780458186, -54104.43146281618, -39488.75987395762, -39032.60547311371, -7480.771241279989, -46133.039430742196, 0.01, 0.758, 0.664, 192.0, 0.0, 0.0, 0.0, 0.0, 0.0, 0.0, 0.0, 0.0, 0.0, 1.654156480084545E9, 0.0, 2022-06-02 09:54:40.084
124.0, 22503.91513155879, 1120.560004777909, -75925.99253964335, -54075.731822935566, -39463.50240272313, -39011.036039714345, -7462.487514315548, -46118.35433463506, 0.01, 0.758, 0.664, 192.0, 0.0, 0.0, 0.0, 0.0, 0.0, 0.0, 0.0, 0.0, 0.0, 1.6541564800845544E9, 0.0, 2022-06-02 09:54:40.084
125.0, 22494.862675054395, 1121.4764263005766, -75921.99157738585, -54068.109878076306, -39461.35663525541, -39004.24110939993, -7459.71589800309, -46119.27075615773, 0.01, 0.758, 0.664, 192.0, 0.0, 0.0, 0.0, 0.0, 0.0, 0.0, 0.0, 0.0, 0.0, 1.654156480084561E9, 0.0, 2022-06-02 09:54:40.084
126.0, 22498.4613059117, 1121.3646675783, -75935.06734789221, -54075.9106368912, -39473.9183156393, -39003.48115008845, -7474.691566788146, -46122.69057305939, 0.01, 0.766, 0.666, 192.0, 0.0, 80.0, 23.0, 240.0, 20.0, 208.0, 0.0, 0.0, 0.0, 1.6541564800845726E9, 0.0, 2022-06-02 09:54:40.084
127.0, 22504.18335249226, 1113.206280852113, -75960.86126099364, -54100.49755579204, -39499.66752525181, -39026.10111547722, -7517.025770786497, -46165.628274158036, 0.01, 0.766, 0.666, 192.0, 0.0, 0.0, 0.0, 0.0, 0.0, 0.0, 0.0, 0.0, 0.0, 1.654156480084579E9, 0.0, 2022-06-02 09:54:40.084
128.0, 22524.903419602328, 1127.0643624144034, -75939.78356597228, -54078.34697703683, -39483.93189715528, -39014.96994673848, -7494.875192031288, -46146.07049775964, 0.01, 0.766, 0.666, 192.0, 0.0, 0.0, 0.0, 0.0, 0.0, 0.0, 0.0, 0.0, 0.0, 1.6541564800846088E9, 0.0, 2022-06-02 09:54:40.084
129.0, 22524.83636436896, 1139.916615476205, -75919.89051340705, -54058.14100004924, -39472.018417360596, -38995.61333604018, -7487.253247172028, -46125.70805856086, 0.01, 0.766, 0.666, 192.0, 0.0, 0.0, 0.0, 0.0, 0.0, 0.0, 0.0, 0.0, 0.0, 1.6541564800846152E9, 0.0, 2022-06-02 09:54:40.084
130.0, 22508.966625805693, 1141.1906649101575, -75915.06253660472, -54048.865026100284, -39468.50919348111, -38976.25672534189, -7487.655578572224, -46116.23091891181, 0.01, 0.766, 0.666, 192.0, 0.0, 0.0, 0.0, 0.0, 0.0, 0.0, 0.0, 0.0, 0.0, 1.6541564800846207E9, 0.0, 2022-06-02 09:54:40.084
131.0, 22497.880160555862, 1126.9526036921268, -75938.10718513813, -54063.8630466298, -39486.837623934465, -38977.7989957093, -7500.016093256008, -46113.36989562153, 0.01, 0.766, 0.666, 192.0, 0.0, 0.0, 0.0, 0.0, 0.0, 0.0, 0.0, 0.0, 0.0, 1.6541564800846272E9, 0.0, 2022-06-02 09:54:40.084
132.0, 22510.35243396192, 1125.4773885580764, -75955.04980743525, -54077.49761074753, -39501.88034795289, -38990.070103415266, -7526.212337757628, -46134.9393290209, 0.01, 0.766, 0.666, 192.0, 0.0, 0.0, 0.0, 0.0, 0.0, 0.0, 0.0, 0.0, 0.0, 1.654156480084633E9, 0.0, 2022-06-02 09:54:40.084
133.0, 22516.186239264756, 1131.3782490942776, -75945.17033638601, -54071.4626397446, -39493.833719948976, -38991.031228426844, -7516.824605086399, -46131.51951211924, 0.01, 0.766, 0.666, 192.0, 0.0, 0.0, 0.0, 0.0, 0.0, 0.0, 0.0, 0.0, 0.0, 1.6541564800846388E9, 0.0, 2022-06-02 09:54:40.084
134.0, 22513.191105507747, 1136.1615224077134, -75927.33364431068, -54060.01854658348, -39471.21375456021, -38974.75915846338, -7485.308645404416, -46099.95884894834, 0.01, 0.766, 0.666, 192.0, 0.0, 0.0, 0.0, 0.0, 0.0, 0.0, 0.0, 0.0, 0.0, 1.654156480084644E9, 0.0, 2022-06-02 09:54:40.084
135.0, 22501.054108268512, 1128.2713566149898, -75928.04890013325, -54061.85138962882, -39477.248725563135, -38981.263516099876, -7505.20169796964, -46128.144398706485, 0.01, 0.766, 0.666, 192.0, 0.0, 0.0, 0.0, 0.0, 0.0, 0.0, 0.0, 0.0, 0.0, 1.6541564800846496E9, 0.0, 2022-06-02 09:54:40.084
136.0, 22502.73048910266, 1123.1528071347245, -75948.59015328767, -54076.491782247045, -39495.510100783125, -38996.19448139602, -7530.68268664869, -46168.913980592966, 0.014, 0.768, 0.662, 192.0, 0.0, 112.0, 24.0, 0.0, 20.0, 176.0, 0.0, 0.0, 0.0, 1.654156480084655E9, 0.0, 2022-06-02 09:54:40.084
137.0, 22516.49916368713, 1120.492949544543, -75968.43850236399, -54092.987369655064, -39506.19423463276, -39009.89610074712, -7521.741988866567, -46167.28230324773, 0.014, 0.768, 0.662, 192.0, 0.0, 0.0, 0.0, 0.0, 0.0, 0.0, 0.0, 0.0, 0.0, 1.6541564800846608E9, 0.0, 2022-06-02 09:54:40.084
138.0, 22516.476811942677, 1120.2247286110794, -75959.31899062623, -54084.27018931749, -39501.25449910814, -39003.838777999736, -7511.124910250296, -46125.37278239403, 0.014, 0.768, 0.662, 192.0, 0.0, 0.0, 0.0, 0.0, 0.0, 0.0, 0.0, 0.0, 0.0, 1.654156480084666E9, 0.0, 2022-06-02 09:54:40.084
139.0, 22510.195971750734, 1128.338411848356, -75937.23546710437, -54066.008814097506, -39481.383798287374, -38995.88155697365, -7476.546761577936, -46112.52052933223, 0.014, 0.768, 0.662, 192.0, 0.0, 0.0, 0.0, 0.0, 0.0, 0.0, 0.0, 0.0, 0.0, 1.6541564800846715E9, 0.0, 2022-06-02 09:54:40.084
140.0, 22512.922884574284, 1131.9593944501155, -75926.01489138781, -54049.915558089684, -39469.13504232586, -38986.694990002514, -7461.280520114961, -46104.29508737267, 0.014, 0.768, 0.662, 192.0, 0.0, 0.0, 0.0, 0.0, 0.0, 0.0, 0.0, 0.0, 0.0, 1.6541564800846772E9, 0.0, 2022-06-02 09:54:40.084
141.0, 22512.07351828498, 1128.8748537152833, -75943.29278985177, -54059.8620843723, -39484.893022166856, -38995.658039529095, -7492.4388518856595, -46129.84313128509, 0.014, 0.768, 0.662, 192.0, 0.0, 0.0, 0.0, 0.0, 0.0, 0.0, 0.0, 0.0, 0.0, 1.6541564800846837E9, 0.0, 2022-06-02 09:54:40.084
142.0, 22522.422375967788, 1134.3733828512886, -75957.3743888586, -54071.864971144794, -39495.89008043886, -39014.43350487155, -7514.991762041064, -46159.526247921734, 0.014, 0.768, 0.662, 192.0, 0.0, 0.0, 0.0, 0.0, 0.0, 0.0, 0.0, 0.0, 0.0, 1.6541564800846891E9, 0.0, 2022-06-02 09:54:40.084
143.0, 22528.45734697072, 1144.7669440230065, -75945.23739161938, -54064.19832279663, -39481.69672270974, -39017.67450781757, -7468.120153918285, -46154.854733330576, 0.014, 0.768, 0.662, 192.0, 0.0, 0.0, 0.0, 0.0, 0.0, 0.0, 0.0, 0.0, 0.0, 1.654156480084695E9, 0.0, 2022-06-02 09:54:40.084
144.0, 22526.98213183667, 1147.493856846554, -75917.00713837233, -54051.54723543492, -39462.87655387838, -39006.74450477892, -7466.354366106316, -46135.9898610103, 0.014, 0.768, 0.662, 192.0, 0.0, 0.0, 0.0, 0.0, 0.0, 0.0, 0.0, 0.0, 0.0, 1.6541564800847013E9, 0.0, 2022-06-02 09:54:40.084
145.0, 22525.596323680442, 1150.041955714459, -75906.39005975606, -54045.579319665354, -39455.96986484169, -38993.981658694946, -7480.704186046623, -46128.569081851136, 0.014, 0.768, 0.662, 192.0, 0.0, 0.0, 0.0, 0.0, 0.0, 0.0, 0.0, 0.0, 0.0, 1.6541564800847065E9, 0.0, 2022-06-02 09:54:40.084
146.0, 22529.64198942685, 1152.433592371177, -75918.86233316212, -54056.73284014855, -39466.13990856885, -38997.17795815205, -7491.388319896259, -46152.10546876257, 0.018000000000000002, 0.772, 0.66, 192.0, 0.0, 144.0, 24.0, 32.0, 20.0, 160.0, 0.0, 0.0, 0.0, 1.654156480084712E9, 0.0, 2022-06-02 09:54:40.084
147.0, 22525.149288791334, 1132.6746502726853, -75951.0264934333, -54089.5675527534, -39491.75500771463, -39030.97379576848, -7524.468901690114, -46202.262783320286, 0.018000000000000002, 0.772, 0.66, 192.0, 0.0, 0.0, 0.0, 0.0, 0.0, 0.0, 0.0, 0.0, 0.0, 1.6541564800847178E9, 0.0, 2022-06-02 09:54:40.084
148.0, 22528.479698715175, 1128.4278188261771, -75945.52796429729, -54086.483012018565, -39497.074722895, -39027.889255033646, -7535.085980306385, -46175.32893125164, 0.018000000000000002, 0.772, 0.66, 192.0, 0.0, 0.0, 0.0, 0.0, 0.0, 0.0, 0.0, 0.0, 0.0, 1.6541564800847232E9, 0.0, 2022-06-02 09:54:40.084
149.0, 22517.281474743068, 1123.2198623680906, -75932.80982170222, -54079.68808170415, -39488.312839068516, -39006.52098733437, -7506.967485781609, -46128.70319231787, 0.018000000000000002, 0.772, 0.66, 192.0, 0.0, 0.0, 0.0, 0.0, 0.0, 0.0, 0.0, 0.0, 0.0, 1.6541564800847287E9, 0.0, 2022-06-02 09:54:40.084
150.0, 22529.686692915762, 1142.5541213219312, -75904.24429228835, -54049.3567644783, -39456.43925147525, -38974.22271659645, -7466.443773084137, -46101.90345071596, 0.018000000000000002, 0.772, 0.66, 192.0, 0.0, 0.0, 0.0, 0.0, 0.0, 0.0, 0.0, 0.0, 0.0, 1.654156480084738E9, 0.0, 2022-06-02 09:54:40.084
151.0, 22536.906306374825, 1143.7611155225177, -75919.08585060667, -54055.727011648065, -39466.13990856885, -38978.4024928096, -7492.975293752586, -46143.9917855253, 0.018000000000000002, 0.772, 0.66, 192.0, 0.0, 0.0, 0.0, 0.0, 0.0, 0.0, 0.0, 0.0, 0.0, 1.6541564800847435E9, 0.0, 2022-06-02 09:54:40.084
152.0, 22529.440823726753, 1124.5386152909537, -75950.98178994439, -54084.20313408413, -39507.110656155426, -39012.42184787057, -7543.892567621776, -46183.442614488915, 0.018000000000000002, 0.772, 0.66, 192.0, 0.0, 0.0, 0.0, 0.0, 0.0, 0.0, 0.0, 0.0, 0.0, 1.6541564800847485E9, 0.0, 2022-06-02 09:54:40.084
153.0, 22533.777062151083, 1131.8252839833838, -75937.45898454892, -54069.67450018818, -39496.001839161145, -38999.86016748669, -7501.62541885679, -46135.74399182129, 0.018000000000000002, 0.772, 0.66, 192.0, 0.0, 0.0, 0.0, 0.0, 0.0, 0.0, 0.0, 0.0, 0.0, 1.6541564800847545E9, 0.0, 2022-06-02 09:54:40.084
154.0, 22530.580762693975, 1131.3558973498223, -75917.27535930579, -54053.201264524614, -39486.18942334526, -38983.498690545406, -7492.885886774766, -46118.019058468235, 0.018000000000000002, 0.772, 0.66, 192.0, 0.0, 0.0, 0.0, 0.0, 0.0, 0.0, 0.0, 0.0, 0.0, 1.65415648008476E9, 0.0, 2022-06-02 09:54:40.084
155.0, 22531.966570850203, 1144.3422608783558, -75896.33177475116, -54032.861177070285, -39468.598600458936, -38968.43361478253, -7482.089994202852, -46119.896605002476, 0.018000000000000002, 0.772, 0.66, 192.0, 0.0, 0.0, 0.0, 0.0, 0.0, 0.0, 0.0, 0.0, 0.0, 1.6541564800847664E9, 0.0, 2022-06-02 09:54:40.084
156.0, 22538.09094883096, 1154.6017115833417, -75907.75351616782, -54039.52199691797, -39472.53250748307, -38973.82038519626, -7489.756642551022, -46145.93638729291, 0.02, 0.77, 0.658, 192.0, 0.0, 160.0, 24.0, 16.0, 20.0, 144.0, 0.0, 0.0, 0.0, 1.654156480084772E9, 0.0, 2022-06-02 09:54:40.084
157.0, 22527.943256848248, 1138.5978625533419, -75945.95264744194, -54072.37906126727, -39509.09996141195, -39001.20127215401, -7542.327945509905, -46169.897457349, 0.02, 0.77, 0.658, 192.0, 0.0, 0.0, 0.0, 0.0, 0.0, 0.0, 0.0, 0.0, 0.0, 1.654156480084777E9, 0.0, 2022-06-02 09:54:40.084
158.0, 22533.195916795245, 1139.1343044202692, -75936.7213769819, -54066.58995945334, -39499.064028151515, -39001.91652797658, -7532.180253527195, -46143.07536400263, 0.02, 0.77, 0.658, 192.0, 0.0, 0.0, 0.0, 0.0, 0.0, 0.0, 0.0, 0.0, 0.0, 1.6541564800847828E9, 0.0, 2022-06-02 09:54:40.084
159.0, 22543.61182971142, 1156.8592377733275, -75907.0159086008, -54042.18185450815, -39460.59667594393, -38982.38110332264, -7483.118174447796, -46114.33102063311, 0.02, 0.77, 0.658, 192.0, 0.0, 0.0, 0.0, 0.0, 0.0, 0.0, 0.0, 0.0, 0.0, 1.6541564800847883E9, 0.0, 2022-06-02 09:54:40.084
160.0, 22529.932562104772, 1148.9243684916937, -75915.91190289402, -54051.390773223735, -39468.91152488131, -38989.89128945962, -7503.480613646581, -46135.475770887824, 0.02, 0.77, 0.658, 192.0, 0.0, 0.0, 0.0, 0.0, 0.0, 0.0, 0.0, 0.0, 0.0, 1.6541564800847952E9, 0.0, 2022-06-02 09:54:40.084
161.0, 22520.768346878096, 1133.6357752842637, -75945.55031604176, -54073.764869423496, -39488.089321623964, -39008.28677514634, -7488.996683239542, -46158.05103278769, 0.02, 0.77, 0.658, 192.0, 0.0, 0.0, 0.0, 0.0, 0.0, 0.0, 0.0, 0.0, 0.0, 1.654156480084801E9, 0.0, 2022-06-02 09:54:40.084
162.0, 22524.25521901312, 1126.1479408917357, -75969.7796070313, -54100.56461102541, -39507.53533930008, -39031.89021729115, -7511.281372461483, -46186.90713487949, 0.02, 0.77, 0.658, 192.0, 0.0, 0.0, 0.0, 0.0, 0.0, 0.0, 0.0, 0.0, 0.0, 1.654156480084808E9, 0.0, 2022-06-02 09:54:40.084
163.0, 22540.728454676682, 1140.3189468764003, -75946.82436547571, -54083.08554686136, -39496.6723914948, -39020.17790319656, -7535.1083320508405, -46158.341605465605, 0.02, 0.77, 0.658, 192.0, 0.0, 0.0, 0.0, 0.0, 0.0, 0.0, 0.0, 0.0, 0.0, 1.6541564800848136E9, 0.0, 2022-06-02 09:54:40.084
164.0, 22536.056940085524, 1144.4987230895429, -75924.96435939841, -54065.94175886414, -39482.233164576675, -39008.175016424066, -7505.268753203006, -46143.05301225818, 0.02, 0.77, 0.658, 192.0, 0.0, 0.0, 0.0, 0.0, 0.0, 0.0, 0.0, 0.0, 0.0, 1.6541564800848196E9, 0.0, 2022-06-02 09:54:40.084
165.0, 22522.93646609026, 1137.010888697015, -75924.38321404258, -54059.48210471655, -39475.95232438473, -39000.418961098076, -7489.376662895283, -46129.4407998849, 0.02, 0.77, 0.658, 192.0, 0.0, 0.0, 0.0, 0.0, 0.0, 0.0, 0.0, 0.0, 0.0, 1.6541564800848253E9, 0.0, 2022-06-02 09:54:40.084
166.0, 22531.318370261, 1140.9224439766938, -75927.6242169886, -54058.252758771516, -39469.42561500378, -38994.76396975088, -7471.875246986777, -46131.720677819336, 0.02, 0.768, 0.664, 192.0, 0.0, 160.0, 24.0, 0.0, 20.0, 192.0, 0.0, 0.0, 0.0, 1.6541564800848312E9, 0.0, 2022-06-02 09:54:40.084
167.0, 22540.12495757639, 1135.9603567076156, -75949.59598178817, -54071.28382578896, -39485.04948437804, -38991.63472552714, -7476.122078433285, -46120.1871776804, 0.02, 0.768, 0.664, 192.0, 0.0, 0.0, 0.0, 0.0, 0.0, 0.0, 0.0, 0.0, 0.0, 1.6541564800848365E9, 0.0, 2022-06-02 09:54:40.084
168.0, 22540.79550991005, 1135.5356735629648, -75948.70191200994, -54065.94175886414, -39493.99018216017, -38989.57836503725, -7499.077319988885, -46109.12306417502, 0.02, 0.768, 0.664, 192.0, 0.0, 0.0, 0.0, 0.0, 0.0, 0.0, 0.0, 0.0, 0.0, 1.6541564800848444E9, 0.0, 2022-06-02 09:54:40.084
169.0, 22542.024855855092, 1145.817476012406, -75930.68640597897, -54047.479217944056, -39484.445987277744, -38982.649324256105, -7518.143358009263, -46117.661430556946, 0.02, 0.768, 0.664, 192.0, 0.0, 0.0, 0.0, 0.0, 0.0, 0.0, 0.0, 0.0, 0.0, 1.6541564800848508E9, 0.0, 2022-06-02 09:54:40.084
170.0, 22553.2230798272, 1168.4150896567214, -75903.70785042142, -54020.008924008485, -39445.39748971433, -38953.83792565321, -7461.392278837237, -46081.04927313916, 0.02, 0.768, 0.664, 192.0, 0.0, 0.0, 0.0, 0.0, 0.0, 0.0, 0.0, 0.0, 0.0, 1.654156480084856E9, 0.0, 2022-06-02 09:54:40.084
171.0, 22544.975286123194, 1158.8932465187606, -75921.27632156329, -54033.17410149266, -39457.46743172019, -38958.28592279982, -7449.635261253747, -46088.96179067633, 0.02, 0.768, 0.664, 192.0, 0.0, 0.0, 0.0, 0.0, 0.0, 0.0, 0.0, 0.0, 0.0, 1.654156480084865E9, 0.0, 2022-06-02 09:54:40.084
172.0, 22536.83925114146, 1134.9992316960374, -75962.00119996085, -54075.508305491014, -39498.661696751326, -39000.37425760916, -7499.725520578089, -46159.23567524382, 0.02, 0.768, 0.664, 192.0, 0.0, 0.0, 0.0, 0.0, 0.0, 0.0, 0.0, 0.0, 0.0, 1.6541564800848725E9, 0.0, 2022-06-02 09:54:40.084
173.0, 22555.882937417384, 1145.4151446122105, -75943.49395555186, -54065.852351886315, -39490.30214432504, -39001.84947274321, -7508.174479982195, -46153.91596006346, 0.02, 0.768, 0.664, 192.0, 0.0, 0.0, 0.0, 0.0, 0.0, 0.0, 0.0, 0.0, 0.0, 1.6541564800848777E9, 0.0, 2022-06-02 09:54:40.084
174.0, 22549.80326292554, 1142.7105835331183, -75932.38513855757, -54057.85042737132, -39480.80265293153, -38991.18769063803, -7490.538953606958, -46107.20081415187, 0.02, 0.768, 0.664, 192.0, 0.0, 0.0, 0.0, 0.0, 0.0, 0.0, 0.0, 0.0, 0.0, 1.6541564800848856E9, 0.0, 2022-06-02 09:54:40.084
175.0, 22547.210460568724, 1149.393755125255, -75919.95756864043, -54047.970956322075, -39468.08451033646, -38976.90492593109, -7475.809154010911, -46091.711055244334, 0.02, 0.768, 0.664, 192.0, 0.0, 0.0, 0.0, 0.0, 0.0, 0.0, 0.0, 0.0, 0.0, 1.6541564800848937E9, 0.0, 2022-06-02 09:54:40.084
176.0, 22549.75855943663, 1159.6085023413304, -75921.7680599413, -54051.27901450146, -39455.90280960832, -38973.75332996289, -7468.366023107294, -46109.79361650868, 0.018000000000000002, 0.77, 0.66, 192.0, 0.0, 144.0, 24.0, 16.0, 20.0, 160.0, 0.0, 0.0, 0.0, 1.654156480084901E9, 0.0, 2022-06-02 09:54:40.084
177.0, 22534.402910995832, 1138.6649177867077, -75972.35005764366, -54095.311951078416, -39510.21754863472, -39015.2605194164, -7538.34933499686, -46174.792489384716, 0.018000000000000002, 0.77, 0.66, 192.0, 0.0, 0.0, 0.0, 0.0, 0.0, 0.0, 0.0, 0.0, 0.0, 1.6541564800849075E9, 0.0, 2022-06-02 09:54:40.084
178.0, 22531.541887705553, 1122.7728274789845, -75982.34128741518, -54105.39258782776, -39526.02023196462, -39026.63755734415, -7552.341527025882, -46170.54565793821, 0.018000000000000002, 0.77, 0.66, 192.0, 0.0, 0.0, 0.0, 0.0, 0.0, 0.0, 0.0, 0.0, 0.0, 1.654156480084918E9, 0.0, 2022-06-02 09:54:40.084
179.0, 22533.151213306333, 1128.137246148258, -75963.00702846135, -54084.09137536185, -39502.86382470892, -39004.64344080013, -7514.969410296609, -46135.52047437674, 0.018000000000000002, 0.77, 0.66, 192.0, 0.0, 0.0, 0.0, 0.0, 0.0, 0.0, 0.0, 0.0, 0.0, 1.654156480084926E9, 0.0, 2022-06-02 09:54:40.084
180.0, 22539.45440524273, 1135.55802530742, -75941.25878110633, -54064.60065419682, -39486.47999602318, -38982.49286204491, -7472.255226642517, -46112.96756422133, 0.018000000000000002, 0.77, 0.66, 192.0, 0.0, 0.0, 0.0, 0.0, 0.0, 0.0, 0.0, 0.0, 0.0, 1.654156480084934E9, 0.0, 2022-06-02 09:54:40.084
181.0, 22532.100681316937, 1126.6396792697526, -75958.6260865481, -54078.52579099248, -39494.43721704927, -38995.300411617805, -7466.086145172852, -46132.95002376438, 0.018000000000000002, 0.77, 0.66, 192.0, 0.0, 0.0, 0.0, 0.0, 0.0, 0.0, 0.0, 0.0, 0.0, 1.6541564800849464E9, 0.0, 2022-06-02 09:54:40.084
182.0, 22519.874277099883, 1108.333600560856, -75994.34417418769, -54106.24195411706, -39528.21070292124, -39033.901874292125, -7554.464942749137, -46189.119957580566, 0.018000000000000002, 0.77, 0.66, 192.0, 0.0, 0.0, 0.0, 0.0, 0.0, 0.0, 0.0, 0.0, 0.0, 1.6541564800849543E9, 0.0, 2022-06-02 09:54:40.084
183.0, 22527.429166725775, 1120.9176326891939, -75977.51331061283, -54092.026244643486, -39516.56544406003, -39034.57242662578, -7540.58450944239, -46178.3017132642, 0.018000000000000002, 0.77, 0.66, 192.0, 0.0, 0.0, 0.0, 0.0, 0.0, 0.0, 0.0, 0.0, 0.0, 1.6541564800849595E9, 0.0, 2022-06-02 09:54:40.084
184.0, 22540.639047698864, 1140.363650365311, -75940.90115319505, -54062.25372102901, -39486.63645823437, -39010.2090251695, -7512.756587595533, -46151.569026895646, 0.018000000000000002, 0.77, 0.66, 192.0, 0.0, 0.0, 0.0, 0.0, 0.0, 0.0, 0.0, 0.0, 0.0, 1.6541564800849693E9, 0.0, 2022-06-02 09:54:40.084
185.0, 22557.022876384603, 1162.491877376065, -75912.38032727008, -54034.73872360453, -39462.161298055806, -38980.078873643746, -7494.986950753564, -46122.37764863702, 0.018000000000000002, 0.77, 0.666, 192.0, 0.0, 144.0, 24.0, 16.0, 20.0, 208.0, 0.0, 0.0, 0.0, 1.6541564800849771E9, 0.0, 2022-06-02 09:54:40.084
186.0, 22559.436864785777, 1163.6318163432857, -75917.63298721708, -54037.15271200571, -39460.30610326602, -38968.18774559352, -7456.988985179542, -46092.850994211556, 0.018000000000000002, 0.77, 0.666, 192.0, 0.0, 0.0, 0.0, 0.0, 0.0, 0.0, 0.0, 0.0, 0.0, 1.6541564800849843E9, 0.0, 2022-06-02 09:54:40.084
187.0, 22543.924754133794, 1140.2965951319452, -75950.80297598874, -54067.10404957581, -39484.33422855547, -38987.16437663608, -7445.388429807238, -46096.24845936876, 0.018000000000000002, 0.77, 0.666, 192.0, 0.0, 0.0, 0.0, 0.0, 0.0, 0.0, 0.0, 0.0, 0.0, 1.6541564800849917E9, 0.0, 2022-06-02 09:54:40.084
188.0, 22546.674018701797, 1136.720316019096, -75949.93125795499, -54068.378099009766, -39492.090283881465, -38999.569594808774, -7488.236723928061, -46125.8868725165, 0.018000000000000002, 0.77, 0.666, 192.0, 0.0, 0.0, 0.0, 0.0, 0.0, 0.0, 0.0, 0.0, 0.0, 1.6541564800849996E9, 0.0, 2022-06-02 09:54:40.084
189.0, 22539.49910873164, 1136.005060196526, -75940.25295260585, -54062.90192161822, -39482.657847721326, -38999.636650042135, -7480.6371308132575, -46127.94323300639, 0.018000000000000002, 0.77, 0.666, 192.0, 0.0, 0.0, 0.0, 0.0, 0.0, 0.0, 0.0, 0.0, 0.0, 1.6541564800850055E9, 0.0, 2022-06-02 09:54:40.085
190.0, 22535.78871915206, 1139.2907666314563, -75931.51342052381, -54052.709526146595, -39464.77645215708, -38980.03417015483, -7445.433133296148, -46092.44866281136, 0.018000000000000002, 0.77, 0.666, 192.0, 0.0, 0.0, 0.0, 0.0, 0.0, 0.0, 0.0, 0.0, 0.0, 1.6541564800850136E9, 0.0, 2022-06-02 09:54:40.085
191.0, 22552.64193447136, 1147.4491533576434, -75932.7204147244, -54055.70465990361, -39465.04467309054, -38972.9486671625, -7457.1007439018185, -46113.92868923291, 0.018000000000000002, 0.77, 0.666, 192.0, 0.0, 0.0, 0.0, 0.0, 0.0, 0.0, 0.0, 0.0, 0.0, 1.6541564800850248E9, 0.0, 2022-06-02 09:54:40.085
192.0, 22540.147309320844, 1122.5046065455206, -75980.10611296966, -54097.7706429685, -39513.30208936955, -39012.086571703745, -7520.6691051327125, -46171.30561724969, 0.018000000000000002, 0.77, 0.666, 192.0, 0.0, 0.0, 0.0, 0.0, 0.0, 0.0, 0.0, 0.0, 0.0, 1.6541564800850475E9, 0.0, 2022-06-02 09:54:40.085
193.0, 22535.051111585035, 1119.688286744152, -75974.85345302266, -54092.5179830215, -39511.60335679095, -39017.875673517665, -7512.913049806721, -46142.22599771333, 0.018000000000000002, 0.77, 0.666, 192.0, 0.0, 0.0, 0.0, 0.0, 0.0, 0.0, 0.0, 0.0, 0.0, 1.6541564800853837E9, 0.0, 2022-06-02 09:54:40.085
194.0, 22538.381521508876, 1135.625080540786, -75949.46187132143, -54074.390718268245, -39485.45181577824, -38996.99914419641, -7471.875246986777, -46103.22220363882, 0.018000000000000002, 0.77, 0.666, 192.0, 0.0, 0.0, 0.0, 0.0, 0.0, 0.0, 0.0, 0.0, 0.0, 1.6541564800854027E9, 0.0, 2022-06-02 09:54:40.085
195.0, 22537.196879052746, 1144.3199091339004, -75937.74955722685, -54063.192494296134, -39475.4158825178, -38983.00695216739, -7475.518581332992, -46112.565232821136, 0.014, 0.77, 0.668, 192.0, 0.0, 112.0, 24.0, 16.0, 20.0, 224.0, 0.0, 0.0, 0.0, 1.654156480085411E9, 0.0, 2022-06-02 09:54:40.085
196.0, 22536.07929182998, 1145.5045515900317, -75944.09745265216, -54067.12640132027, -39476.77933892958, -38985.26447835738, -7480.257151157517, -46133.01707899774, 0.014, 0.77, 0.668, 192.0, 0.0, 0.0, 0.0, 0.0, 0.0, 0.0, 0.0, 0.0, 0.0, 1.6541564800854175E9, 0.0, 2022-06-02 09:54:40.085
197.0, 22546.2716873016, 1143.3587841223223, -75961.71062728294, -54081.43151777167, -39497.23118510618, -38994.316934861774, -7483.229933170072, -46126.535073105704, 0.014, 0.77, 0.668, 192.0, 0.0, 0.0, 0.0, 0.0, 0.0, 0.0, 0.0, 0.0, 0.0, 1.654156480085425E9, 0.0, 2022-06-02 09:54:40.085
198.0, 22559.70508571924, 1148.0973539468473, -75952.99344694537, -54073.42959325667, -39494.928955427284, -38994.607507539695, -7485.621569826791, -46117.19204392339, 0.014, 0.77, 0.668, 192.0, 0.0, 0.0, 0.0, 0.0, 0.0, 0.0, 0.0, 0.0, 0.0, 1.6541564800854325E9, 0.0, 2022-06-02 09:54:40.085
199.0, 22557.648725229352, 1157.9544732516376, -75932.22867634639, -54054.43061046966, -39479.88623140886, -38982.314048089276, -7494.1375844642625, -46120.74597129178, 0.014, 0.77, 0.668, 192.0, 0.0, 0.0, 0.0, 0.0, 0.0, 0.0, 0.0, 0.0, 0.0, 1.6541564800854385E9, 0.0, 2022-06-02 09:54:40.085
200.0, 22532.3689022504, 1146.0633452014142, -75940.4764700504, -54060.756154150506, -39484.043655877555, -38989.39955108161, -7500.172555467196, -46132.10065747508, 0.014, 0.77, 0.668, 192.0, 0.0, 0.0, 0.0, 0.0, 0.0, 0.0, 0.0, 0.0, 0.0, 1.6541564800854445E9, 0.0, 2022-06-02 09:54:40.085
201.0, 22537.666265686308, 1145.5045515900317, -75940.78939447277, -54058.8115523829, -39475.77351042909, -38986.784396980336, -7469.774183007978, -46119.22605266882, 0.014, 0.77, 0.668, 192.0, 0.0, 0.0, 0.0, 0.0, 0.0, 0.0, 0.0, 0.0, 0.0, 1.6541564800854516E9, 0.0, 2022-06-02 09:54:40.085
202.0, 22563.147254365358, 1152.4112406267216, -75951.42882483349, -54062.63370068475, -39484.311876811014, -38982.69402774501, -7482.179401180673, -46129.686669073904, 0.014, 0.77, 0.668, 192.0, 0.0, 0.0, 0.0, 0.0, 0.0, 0.0, 0.0, 0.0, 0.0, 1.654156480085457E9, 0.0, 2022-06-02 09:54:40.085
203.0, 22554.65359147234, 1141.235368399068, -75963.69993253946, -54076.60354096932, -39509.59169978997, -39013.87471126017, -7486.470936116092, -46178.972265597855, 0.014, 0.77, 0.668, 192.0, 0.0, 0.0, 0.0, 0.0, 0.0, 0.0, 0.0, 0.0, 0.0, 1.6541564800854647E9, 0.0, 2022-06-02 09:54:40.085
204.0, 22552.70898970473, 1146.622138812797, -75937.48133629338, -54054.74353489203, -39488.73752221317, -38991.81353948278, -7479.206619168118, -46124.00932598225, 0.014, 0.77, 0.668, 192.0, 0.0, 0.0, 0.0, 0.0, 0.0, 0.0, 0.0, 0.0, 0.0, 1.6541564800854712E9, 0.0, 2022-06-02 09:54:40.085
205.0, 22553.625411227396, 1159.8096680414283, -75916.80597267223, -54032.168272992174, -39465.514059724104, -38958.732957688924, -7462.129886404263, -46070.45454626734, 0.016, 0.764, 0.664, 192.0, 0.0, 128.0, 23.0, 224.0, 20.0, 192.0, 0.0, 0.0, 0.0, 1.6541564800854776E9, 0.0, 2022-06-02 09:54:40.085
206.0, 22552.41841702681, 1157.7086040626293, -75929.63587398957, -54043.99234580903, -39477.539298241056, -38970.53467876133, -7490.382491395771, -46104.76447400624, 0.016, 0.764, 0.664, 192.0, 0.0, 0.0, 0.0, 0.0, 0.0, 0.0, 0.0, 0.0, 0.0, 1.654156480085483E9, 0.0, 2022-06-02 09:54:40.085
207.0, 22540.192012809755, 1129.165426393202, -75968.12557794161, -54082.25853231651, -39505.90366195484, -39002.072990187764, -7500.574886867391, -46128.8373027846, 0.016, 0.764, 0.664, 192.0, 0.0, 0.0, 0.0, 0.0, 0.0, 0.0, 0.0, 0.0, 0.0, 1.6541564800854883E9, 0.0, 2022-06-02 09:54:40.085
208.0, 22549.80326292554, 1131.5123595610094, -75960.70479878245, -54080.85037241583, -39498.46053105123, -39005.89513848962, -7488.281427416972, -46116.32032588963, 0.016, 0.764, 0.664, 192.0, 0.0, 0.0, 0.0, 0.0, 0.0, 0.0, 0.0, 0.0, 0.0, 1.6541564800854945E9, 0.0, 2022-06-02 09:54:40.085
209.0, 22573.2278911147, 1163.4753541320986, -75915.73308893837, -54041.73481961904, -39457.62389393138, -38970.75819620588, -7453.546816533425, -46080.11049987203, 0.016, 0.764, 0.664, 192.0, 0.0, 0.0, 0.0, 0.0, 0.0, 0.0, 0.0, 0.0, 0.0, 1.6541564800855007E9, 0.0, 2022-06-02 09:54:40.085
210.0, 22586.862455232436, 1186.3858921987883, -75885.37941996807, -54015.60563035079, -39429.2595302176, -38943.31025401477, -7437.207691336595, -46067.9735026328, 0.016, 0.764, 0.664, 192.0, 0.0, 0.0, 0.0, 0.0, 0.0, 0.0, 0.0, 0.0, 0.0, 1.6541564800855064E9, 0.0, 2022-06-02 09:54:40.085
211.0, 22562.0743706315, 1161.5754558533974, -75924.2714553203, -54052.03897381294, -39463.65886493431, -38974.91562067457, -7473.037537698453, -46117.28145090121, 0.016, 0.764, 0.664, 192.0, 0.0, 0.0, 0.0, 0.0, 0.0, 0.0, 0.0, 0.0, 0.0, 1.6541564800855117E9, 0.0, 2022-06-02 09:54:40.085
212.0, 22547.545736735552, 1133.5463683064424, -75968.70672329745, -54088.42761378618, -39509.3234788565, -39015.640499072135, -7526.592317413369, -46176.26770451877, 0.016, 0.764, 0.664, 192.0, 0.0, 0.0, 0.0, 0.0, 0.0, 0.0, 0.0, 0.0, 0.0, 1.6541564800855176E9, 0.0, 2022-06-02 09:54:40.085
213.0, 22552.574879237996, 1129.9030339602273, -75966.24803140736, -54089.008759142016, -39506.32834509949, -39028.91743527859, -7510.6331718722795, -46159.90622757748, 0.016, 0.764, 0.664, 192.0, 0.0, 0.0, 0.0, 0.0, 0.0, 0.0, 0.0, 0.0, 0.0, 1.654156480085523E9, 0.0, 2022-06-02 09:54:40.085
214.0, 22571.886786447383, 1154.7581737945288, -75929.3229495672, -54048.44034295563, -39473.42657726128, -38995.88155697365, -7483.833430270366, -46116.476788100816, 0.016, 0.764, 0.664, 192.0, 0.0, 0.0, 0.0, 0.0, 0.0, 0.0, 0.0, 0.0, 0.0, 1.6541564800855477E9, 0.0, 2022-06-02 09:54:40.085
215.0, 22562.387295053875, 1154.3111389054227, -75922.99740588634, -54043.92529057566, -39474.3653505284, -38990.070103415266, -7499.971389767098, -46133.30765167566, 0.024, 0.762, 0.662, 192.0, 0.0, 192.0, 23.0, 208.0, 20.0, 176.0, 0.0, 0.0, 0.0, 1.6541564800855532E9, 0.0, 2022-06-02 09:54:40.085
216.0, 22556.32997230649, 1147.6503190577412, -75940.63293226158, -54057.73866864904, -39486.59175474546, -39000.977754709456, -7492.237686185562, -46147.433954171414, 0.024, 0.762, 0.662, 192.0, 0.0, 0.0, 0.0, 0.0, 0.0, 0.0, 0.0, 0.0, 0.0, 1.6541564800855587E9, 0.0, 2022-06-02 09:54:40.085
217.0, 22553.960687394225, 1133.7028305176295, -75973.11001695515, -54085.5665904959, -39515.47020858171, -39025.69878407702, -7520.8479190883545, -46176.55827719668, 0.024, 0.762, 0.662, 192.0, 0.0, 0.0, 0.0, 0.0, 0.0, 0.0, 0.0, 0.0, 0.0, 1.6541564800855644E9, 0.0, 2022-06-02 09:54:40.085
218.0, 22544.751768678638, 1127.623156025786, -75973.89232801108, -54092.205058599124, -39521.43812435128, -39042.06026101831, -7527.48638719158, -46190.66222794798, 0.024, 0.762, 0.662, 192.0, 0.0, 0.0, 0.0, 0.0, 0.0, 0.0, 0.0, 0.0, 0.0, 1.6541564800855706E9, 0.0, 2022-06-02 09:54:40.085
219.0, 22552.88780366037, 1145.0575167009256, -75943.04692066276, -54065.51707571949, -39493.7219612267, -39005.06812394478, -7489.980159995575, -46127.04916322818, 0.024, 0.762, 0.662, 192.0, 0.0, 0.0, 0.0, 0.0, 0.0, 0.0, 0.0, 0.0, 0.0, 1.6541564800855772E9, 0.0, 2022-06-02 09:54:40.085
220.0, 22562.543757265063, 1160.5696273529086, -75918.79527792874, -54042.13715101924, -39470.36438827091, -38977.24020209792, -7476.747927278034, -46095.26498261273, 0.024, 0.762, 0.662, 192.0, 0.0, 0.0, 0.0, 0.0, 0.0, 0.0, 0.0, 0.0, 0.0, 1.6541564800855856E9, 0.0, 2022-06-02 09:54:40.085
221.0, 22556.32997230649, 1151.3830603817773, -75935.40262405905, -54051.61429066829, -39476.57817322948, -38985.39858882411, -7475.451526099626, -46113.01226771024, 0.024, 0.762, 0.662, 192.0, 0.0, 0.0, 0.0, 0.0, 0.0, 0.0, 0.0, 0.0, 0.0, 1.6541564800855925E9, 0.0, 2022-06-02 09:54:40.085
222.0, 22547.836309413473, 1123.979821679571, -75980.28492692529, -54091.48980277655, -39517.593624304965, -39025.00587999891, -7537.1646925407285, -46173.92077135095, 0.024, 0.762, 0.662, 192.0, 0.0, 0.0, 0.0, 0.0, 0.0, 0.0, 0.0, 0.0, 0.0, 1.6541564800855987E9, 0.0, 2022-06-02 09:54:40.085
223.0, 22544.617658211908, 1116.9613739206045, -75979.81554029173, -54094.440233044654, -39522.60041506296, -39039.132182494664, -7551.313346780938, -46187.75650116879, 0.024, 0.762, 0.662, 192.0, 0.0, 0.0, 0.0, 0.0, 0.0, 0.0, 0.0, 0.0, 0.0, 1.6541564800856075E9, 0.0, 2022-06-02 09:54:40.085
224.0, 22535.341684262956, 1116.782559964962, -75962.53764182779, -54082.95143639463, -39505.94836544375, -39032.65017660263, -7482.849953514333, -46174.23369577333, 0.024, 0.762, 0.662, 192.0, 0.0, 0.0, 0.0, 0.0, 0.0, 0.0, 0.0, 0.0, 0.0, 1.6541564800856166E9, 0.0, 2022-06-02 09:54:40.085
225.0, 22535.542849963054, 1121.1858536226575, -75951.20530738894, -54071.4626397446, -39497.20883336173, -39014.0088217269, -7481.061813957908, -46144.10354424758, 0.016, 0.766, 0.66, 192.0, 0.0, 128.0, 23.0, 240.0, 20.0, 160.0, 0.0, 0.0, 0.0, 1.6541564800856242E9, 0.0, 2022-06-02 09:54:40.085
226.0, 22542.248373299644, 1126.2820513584675, -75949.68538876598, -54069.22746529907, -39493.20787110423, -38997.44617908552, -7494.249343186539, -46115.493311344784, 0.016, 0.766, 0.66, 192.0, 0.0, 0.0, 0.0, 0.0, 0.0, 0.0, 0.0, 0.0, 0.0, 1.6541564800856311E9, 0.0, 2022-06-02 09:54:40.085
227.0, 22549.75855943663, 1130.819455482895, -75965.3763133736, -54079.8668956598, -39508.18353988928, -39011.460722858996, -7523.328962722893, -46146.31636694865, 0.016, 0.766, 0.66, 192.0, 0.0, 0.0, 0.0, 0.0, 0.0, 0.0, 0.0, 0.0, 0.0, 1.6541564800856402E9, 0.0, 2022-06-02 09:54:40.085
228.0, 22571.1268271359, 1150.4219353701992, -75942.53283054028, -54062.45488672911, -39490.1680338583, -39009.47141760247, -7519.4397591876705, -46147.07632626013, 0.016, 0.766, 0.66, 192.0, 0.0, 0.0, 0.0, 0.0, 0.0, 0.0, 0.0, 0.0, 0.0, 1.654156480085646E9, 0.0, 2022-06-02 09:54:40.085
229.0, 22570.098646890958, 1153.7299935495846, -75923.8691239201, -54048.14977027771, -39474.83473716197, -39000.03898144233, -7496.90920077672, -46137.21920695534, 0.016, 0.766, 0.66, 192.0, 0.0, 0.0, 0.0, 0.0, 0.0, 0.0, 0.0, 0.0, 0.0, 1.654156480085654E9, 0.0, 2022-06-02 09:54:40.085
230.0, 22545.93641113477, 1141.6600515437187, -75927.15483035504, -54052.865988357786, -39473.94066738375, -38999.68135353105, -7475.42917435517, -46122.95879399285, 0.016, 0.766, 0.66, 192.0, 0.0, 0.0, 0.0, 0.0, 0.0, 0.0, 0.0, 0.0, 0.0, 1.6541564800856628E9, 0.0, 2022-06-02 09:54:40.085
231.0, 22537.062768586013, 1136.8320747413725, -75941.83992646217, -54063.57247395188, -39486.345885556446, -39006.05160070081, -7491.835354785366, -46141.019003512745, 0.016, 0.766, 0.66, 192.0, 0.0, 0.0, 0.0, 0.0, 0.0, 0.0, 0.0, 0.0, 0.0, 1.654156480085672E9, 0.0, 2022-06-02 09:54:40.085
232.0, 22540.79550991005, 1132.3617258503111, -75973.9817349889, -54088.24879983054, -39521.795752262566, -39031.59964461323, -7549.9051868802535, -46199.245297818816, 0.016, 0.766, 0.66, 192.0, 0.0, 0.0, 0.0, 0.0, 0.0, 0.0, 0.0, 0.0, 0.0, 1.6541564800856805E9, 0.0, 2022-06-02 09:54:40.085
233.0, 22553.737169949673, 1137.5696823083977, -75963.99050521739, -54079.71043344861, -39518.68885978328, -39026.68226083306, -7549.659317691246, -46179.30754176468, 0.016, 0.766, 0.66, 192.0, 0.0, 0.0, 0.0, 0.0, 0.0, 0.0, 0.0, 0.0, 0.0, 1.6541564800856872E9, 0.0, 2022-06-02 09:54:40.085
234.0, 22574.36783008192, 1158.9826534965819, -75923.422089031, -54042.24890974152, -39479.26038256411, -38986.33736209123, -7482.000587225031, -46106.44085484038, 0.016, 0.766, 0.66, 192.0, 0.0, 0.0, 0.0, 0.0, 0.0, 0.0, 0.0, 0.0, 0.0, 1.654156480085699E9, 0.0, 2022-06-02 09:54:40.085
235.0, 22579.307565606545, 1172.4384036586766, -75901.87500737607, -54021.50649088699, -39454.00291132962, -38966.3996060371, -7437.833540181344, -46073.40497653544, 0.012, 0.768, 0.664, 192.0, 0.0, 96.0, 24.0, 0.0, 20.0, 192.0, 0.0, 0.0, 0.0, 1.6541564800857148E9, 0.0, 2022-06-02 09:54:40.085
236.0, 22558.296925818555, 1153.4170691272104, -75929.85939143412, -54046.18281676565, -39473.560687728015, -38985.82327196876, -7455.781990978956, -46101.34465710457, 0.012, 0.768, 0.664, 192.0, 0.0, 0.0, 0.0, 0.0, 0.0, 0.0, 0.0, 0.0, 0.0, 1.654156480085724E9, 0.0, 2022-06-02 09:54:40.085
237.0, 22568.981059668193, 1151.7630400375176, -75948.21017363193, -54061.1584855507, -39496.560632772525, -38994.98748719543, -7483.766375037, -46130.91601501894, 0.012, 0.768, 0.664, 192.0, 0.0, 0.0, 0.0, 0.0, 0.0, 0.0, 0.0, 0.0, 0.0, 1.6541564800857337E9, 0.0, 2022-06-02 09:54:40.085
238.0, 22573.093780647967, 1148.5667405804088, -75949.41716783252, -54065.11474431929, -39512.51977831361, -39007.54916757932, -7516.511680664025, -46140.12493373453, 0.012, 0.768, 0.664, 192.0, 0.0, 0.0, 0.0, 0.0, 0.0, 0.0, 0.0, 0.0, 0.0, 1.65415648008574E9, 0.0, 2022-06-02 09:54:40.085
239.0, 22581.60979528544, 1162.8718570318053, -75921.49983900784, -54038.76203760649, -39487.4187692903, -38994.69691451752, -7488.102613461329, -46127.16092195045, 0.012, 0.768, 0.664, 192.0, 0.0, 0.0, 0.0, 0.0, 0.0, 0.0, 0.0, 0.0, 0.0, 1.6541564800857472E9, 0.0, 2022-06-02 09:54:40.085
240.0, 22570.031591657593, 1164.5035343770426, -75910.05574584672, -54026.714447345075, -39471.14669932684, -38981.263516099876, -7460.922892203676, -46106.619668796026, 0.012, 0.768, 0.664, 192.0, 0.0, 0.0, 0.0, 0.0, 0.0, 0.0, 0.0, 0.0, 0.0, 1.6541564800857549E9, 0.0, 2022-06-02 09:54:40.085
241.0, 22562.543757265063, 1159.586150596875, -75917.5659319837, -54030.6036508803, -39468.64330394784, -38972.434577040025, -7465.974386450575, -46104.04921818367, 0.012, 0.768, 0.664, 192.0, 0.0, 0.0, 0.0, 0.0, 0.0, 0.0, 0.0, 0.0, 0.0, 1.654156480564184E9, 0.0, 2022-06-02 09:54:40.564
242.0, 22555.234736828177, 1150.8689702593053, -75947.33845559818, -54055.592901181335, -39486.837623934465, -38989.42190282606, -7484.995720982042, -46125.30572716066, 0.012, 0.768, 0.664, 192.0, 0.0, 0.0, 0.0, 0.0, 0.0, 0.0, 0.0, 0.0, 0.0, 1.6541564805644186E9, 0.0, 2022-06-02 09:54:40.564
243.0, 22563.057847387536, 1150.690156303663, -75945.46090906393, -54054.27414825847, -39482.702551210234, -38995.501577317904, -7453.166836877685, -46110.50887233125, 0.012, 0.768, 0.664, 192.0, 0.0, 0.0, 0.0, 0.0, 0.0, 0.0, 0.0, 0.0, 0.0, 1.6541564805644274E9, 0.0, 2022-06-02 09:54:40.564
244.0, 22556.888765917873, 1141.883568988272, -75935.04499614776, -54051.03314531245, -39470.05146384853, -39001.08951343173, -7456.854874712811, -46124.590471338095, 0.012, 0.768, 0.664, 192.0, 0.0, 0.0, 0.0, 0.0, 0.0, 0.0, 0.0, 0.0, 0.0, 1.654156480564434E9, 0.0, 2022-06-02 09:54:40.564
245.0, 22550.22794607019, 1138.8884352312607, -75928.0712518777, -54050.966090079084, -39463.94943761223, -38995.83685348473, -7479.050156956931, -46121.90826200345, 0.012, 0.766, 0.662, 192.0, 0.0, 96.0, 23.0, 240.0, 20.0, 176.0, 0.0, 0.0, 0.0, 1.6541564805644405E9, 0.0, 2022-06-02 09:54:40.564
246.0, 22562.70021947625, 1151.2489499150456, -75923.0197576308, -54036.79508409442, -39462.563629456, -38973.44040554052, -7472.434040598159, -46097.83543322509, 0.012, 0.766, 0.662, 192.0, 0.0, 0.0, 0.0, 0.0, 0.0, 0.0, 0.0, 0.0, 0.0, 1.6541564805644467E9, 0.0, 2022-06-02 09:54:40.564
247.0, 22550.250297814644, 1135.6027287963307, -75956.79324350278, -54069.71920367709, -39493.7219612267, -39000.262498886885, -7496.350407165338, -46130.44662838538, 0.012, 0.766, 0.662, 192.0, 0.0, 0.0, 0.0, 0.0, 0.0, 0.0, 0.0, 0.0, 0.0, 1.6541564805644536E9, 0.0, 2022-06-02 09:54:40.564
248.0, 22557.246393829155, 1142.688231788663, -75945.90794395303, -54066.94758736463, -39485.34005705596, -39005.224586155964, -7479.608950568313, -46116.85676775656, 0.012, 0.766, 0.662, 192.0, 0.0, 0.0, 0.0, 0.0, 0.0, 0.0, 0.0, 0.0, 0.0, 1.6541564805644603E9, 0.0, 2022-06-02 09:54:40.564
249.0, 22561.292059575568, 1149.1255341917913, -75925.9701878989, -54047.88154934425, -39471.70549293822, -38997.06619942978, -7484.012244226008, -46122.95879399285, 0.012, 0.766, 0.662, 192.0, 0.0, 0.0, 0.0, 0.0, 0.0, 0.0, 0.0, 0.0, 0.0, 1.6541564805644662E9, 0.0, 2022-06-02 09:54:40.564
250.0, 22555.100626361447, 1151.9865574820708, -75918.05767036173, -54038.06913352837, -39468.71035918121, -38989.33249584824, -7487.05208147193, -46121.90826200345, 0.012, 0.766, 0.662, 192.0, 0.0, 0.0, 0.0, 0.0, 0.0, 0.0, 0.0, 0.0, 0.0, 1.6541564805644724E9, 0.0, 2022-06-02 09:54:40.564
251.0, 22551.144367592857, 1150.5783975813863, -75934.84383044766, -54048.7085638891, -39483.70837971072, -38983.2528213564, -7492.9082385192205, -46115.44860785587, 0.012, 0.766, 0.662, 192.0, 0.0, 0.0, 0.0, 0.0, 0.0, 0.0, 0.0, 0.0, 0.0, 1.6541564805644782E9, 0.0, 2022-06-02 09:54:40.564
252.0, 22548.30569604703, 1135.1333421627692, -75972.97590648841, -54081.92325614968, -39515.89489172636, -39015.95342349451, -7506.654561359234, -46146.741050093304, 0.012, 0.766, 0.662, 192.0, 0.0, 0.0, 0.0, 0.0, 0.0, 0.0, 0.0, 0.0, 0.0, 1.6541564805644872E9, 0.0, 2022-06-02 09:54:40.564
253.0, 22547.188108824266, 1127.1090659033139, -75969.42197912002, -54082.146773594235, -39513.682069025286, -39030.8620370462, -7515.0364655299745, -46160.28620723322, 0.012, 0.766, 0.662, 192.0, 0.0, 0.0, 0.0, 0.0, 0.0, 0.0, 0.0, 0.0, 0.0, 1.6541564805644937E9, 0.0, 2022-06-02 09:54:40.564
254.0, 22549.445635014254, 1127.4219903256883, -75944.72330149691, -54058.43157272715, -39493.7219612267, -39008.46558910199, -7503.950000280142, -46136.50395113277, 0.012, 0.766, 0.662, 192.0, 0.0, 0.0, 0.0, 0.0, 0.0, 0.0, 0.0, 0.0, 0.0, 1.6541564805644996E9, 0.0, 2022-06-02 09:54:40.564
255.0, 22549.088007102968, 1131.5347113054647, -75930.01585364531, -54045.936947576636, -39485.07183612249, -38989.73482724844, -7480.212447668607, -46105.59148855108, 0.02, 0.76, 0.666, 192.0, 0.0, 160.0, 23.0, 192.0, 20.0, 208.0, 0.0, 0.0, 0.0, 1.6541564805645056E9, 0.0, 2022-06-02 09:54:40.564
0.0, 22553.55835599403, 1134.5969002958418, -75932.63100774659, -54046.495741188024, -39487.329362312485, -38987.72317024746, -7479.653654057223, -46122.757628292755, 0.02, 0.76, 0.666, 192.0, 0.0, 0.0, 0.0, 0.0, 0.0, 0.0, 0.0, 0.0, 0.0, 1.654156480564531E9, 0.0, 2022-06-02 09:54:40.564
1.0, 22555.212385083723, 1132.2499671280345, -75954.35690335714, -54067.01464259799, -39504.54020554307, -39002.0059349544, -7493.735253064067, -46149.199741983386, 0.02, 0.76, 0.666, 192.0, 0.0, 0.0, 0.0, 0.0, 0.0, 0.0, 0.0, 0.0, 0.0, 1.6541564805645373E9, 0.0, 2022-06-02 09:54:40.564
2.0, 22543.142443077857, 1117.1625396207023, -75968.30439189725, -54084.89603816224, -39524.6791272973, -39023.01657474239, -7515.863480074821, -46156.21818974235, 0.02, 0.76, 0.666, 192.0, 0.0, 0.0, 0.0, 0.0, 0.0, 0.0, 0.0, 0.0, 0.0, 1.6541564805645432E9, 0.0, 2022-06-02 09:54:40.564
3.0, 22555.458254272733, 1137.0779439303808, -75935.69319673696, -54052.083677301845, -39491.84441469245, -38993.51227206138, -7490.114270462307, -46113.59341306608, 0.02, 0.76, 0.666, 192.0, 0.0, 0.0, 0.0, 0.0, 0.0, 0.0, 0.0, 0.0, 0.0, 1.6541564805645492E9, 0.0, 2022-06-02 09:54:40.564
4.0, 22539.387350009365, 1133.0546299284256, -75933.30156008025, -54051.92721509066, -39484.893022166856, -38989.95834469299, -7484.5710378373915, -46106.21733739583, 0.02, 0.76, 0.666, 192.0, 0.0, 0.0, 0.0, 0.0, 0.0, 0.0, 0.0, 0.0, 0.0, 1.6541564805645552E9, 0.0, 2022-06-02 09:54:40.564
5.0, 22544.550602978543, 1141.9729759660931, -75929.63587398957, -54049.5579301784, -39476.89109765185, -38984.83979521273, -7465.57205505038, -46106.86553798503, 0.02, 0.76, 0.666, 192.0, 0.0, 0.0, 0.0, 0.0, 0.0, 0.0, 0.0, 0.0, 0.0, 1.6541564805645614E9, 0.0, 2022-06-02 09:54:40.564
6.0, 22539.901440131838, 1119.1294931327693, -75960.30246738225, -54072.13319207826, -39498.68404849578, -39005.023420455866, -7474.222180154584, -46129.10552371806, 0.02, 0.76, 0.666, 192.0, 0.0, 0.0, 0.0, 0.0, 0.0, 0.0, 0.0, 0.0, 0.0, 1.654156480564567E9, 0.0, 2022-06-02 09:54:40.564
7.0, 22541.84604189945, 1104.6455627257303, -75971.41128437655, -54083.756099195016, -39518.10771442744, -39023.48596137595, -7469.707127774612, -46143.27652970273, 0.02, 0.76, 0.666, 192.0, 0.0, 0.0, 0.0, 0.0, 0.0, 0.0, 0.0, 0.0, 0.0, 1.6541564805645747E9, 0.0, 2022-06-02 09:54:40.564
8.0, 22541.93544887727, 1109.7194087170851, -75953.03815043428, -54071.19441881114, -39504.20492937624, -39013.561786837796, -7470.444735341637, -46125.86452077205, 0.02, 0.76, 0.666, 192.0, 0.0, 0.0, 0.0, 0.0, 0.0, 0.0, 0.0, 0.0, 0.0, 1.654156480564582E9, 0.0, 2022-06-02 09:54:40.564
9.0, 22532.815937139505, 1119.8000454664286, -75931.80399320174, -54056.509322704, -39485.69768496724, -38998.29554537482, -7492.058872229919, -46112.073494443124, 0.018000000000000002, 0.764, 0.668, 192.0, 0.0, 144.0, 23.0, 224.0, 20.0, 224.0, 0.0, 0.0, 0.0, 1.654156480564588E9, 0.0, 2022-06-02 09:54:40.564
10.0, 22530.64781792734, 1124.136283890758, -75939.425938061, -54068.80278215442, -39488.89398442435, -39010.49959784742, -7482.559380836414, -46142.270701202244, 0.018000000000000002, 0.764, 0.668, 192.0, 0.0, 0.0, 0.0, 0.0, 0.0, 0.0, 0.0, 0.0, 0.0, 1.6541564805645952E9, 0.0, 2022-06-02 09:54:40.564
11.0, 22530.22313478269, 1103.751492947518, -75975.16637744503, -54104.27500060499, -39517.90654872734, -39041.501467406924, -7522.971334811608, -46192.02568435975, 0.018000000000000002, 0.764, 0.668, 192.0, 0.0, 0.0, 0.0, 0.0, 0.0, 0.0, 0.0, 0.0, 0.0, 1.654156480564601E9, 0.0, 2022-06-02 09:54:40.564
12.0, 22551.099664103946, 1108.1324348607582, -75962.7835110168, -54093.09912837734, -39514.68789752578, -39032.493714391436, -7514.500023663048, -46163.1472305235, 0.018000000000000002, 0.764, 0.668, 192.0, 0.0, 0.0, 0.0, 0.0, 0.0, 0.0, 0.0, 0.0, 0.0, 1.654156480564607E9, 0.0, 2022-06-02 09:54:40.564
13.0, 22553.245431571657, 1115.106179130814, -75944.16450788552, -54079.95630263762, -39502.81912122001, -39023.50831312041, -7507.034541014975, -46152.820724585144, 0.018000000000000002, 0.764, 0.668, 192.0, 0.0, 0.0, 0.0, 0.0, 0.0, 0.0, 0.0, 0.0, 0.0, 1.6541564805646129E9, 0.0, 2022-06-02 09:54:40.564
14.0, 22535.587553451962, 1119.17419662168, -75931.64753099055, -54067.30521527591, -39484.98242914467, -39002.31885937678, -7470.176514408174, -46112.67699154341, 0.018000000000000002, 0.764, 0.668, 192.0, 0.0, 0.0, 0.0, 0.0, 0.0, 0.0, 0.0, 0.0, 0.0, 1.654156480564619E9, 0.0, 2022-06-02 09:54:40.564
15.0, 22534.112338317915, 1124.6280222687749, -75940.38706307257, -54069.562741465896, -39488.804577446535, -38995.99331569592, -7474.892732488243, -46128.65848882896, 0.018000000000000002, 0.764, 0.668, 192.0, 0.0, 0.0, 0.0, 0.0, 0.0, 0.0, 0.0, 0.0, 0.0, 1.654156480564625E9, 0.0, 2022-06-02 09:54:40.564
16.0, 22539.432053498276, 1119.107141388314, -75967.29856339676, -54092.361520810315, -39521.16990341782, -39019.48499911845, -7524.446549945659, -46178.16760279746, 0.018000000000000002, 0.764, 0.668, 192.0, 0.0, 0.0, 0.0, 0.0, 0.0, 0.0, 0.0, 0.0, 0.0, 1.654156480564631E9, 0.0, 2022-06-02 09:54:40.564
17.0, 22550.540870492565, 1123.7786559794731, -75963.49876683936, -54084.739575951055, -39521.95221447375, -39021.943691008535, -7516.086997519375, -46163.393099712506, 0.018000000000000002, 0.764, 0.668, 192.0, 0.0, 0.0, 0.0, 0.0, 0.0, 0.0, 0.0, 0.0, 0.0, 1.6541564805646372E9, 0.0, 2022-06-02 09:54:40.564
18.0, 22549.020951869603, 1131.9370427056604, -75945.39385383057, -54063.52777046297, -39505.434275321284, -39008.84556875772, -7488.661407072713, -46136.682765088415, 0.018000000000000002, 0.762, 0.662, 192.0, 0.0, 144.0, 23.0, 208.0, 20.0, 176.0, 0.0, 0.0, 0.0, 1.6541564805646448E9, 0.0, 2022-06-02 09:54:40.564
19.0, 22554.94416415026, 1144.4093161117216, -75922.68448146398, -54039.38788645124, -39485.63062973388, -38989.31014410379, -7484.615741326302, -46123.91991900443, 0.018000000000000002, 0.762, 0.662, 192.0, 0.0, 0.0, 0.0, 0.0, 0.0, 0.0, 0.0, 0.0, 0.0, 1.6541564805646508E9, 0.0, 2022-06-02 09:54:40.564
20.0, 22557.35815255143, 1144.811647511917, -75919.95756864043, -54034.58226139334, -39472.48780399416, -38984.21394636798, -7466.734345762056, -46138.3367941781, 0.018000000000000002, 0.762, 0.662, 192.0, 0.0, 0.0, 0.0, 0.0, 0.0, 0.0, 0.0, 0.0, 0.0, 1.6541564805646565E9, 0.0, 2022-06-02 09:54:40.564
21.0, 22546.718722190708, 1122.817530967895, -75958.424920848, -54066.09822107533, -39510.35165910145, -39004.82225475577, -7504.799366569444, -46165.00242531329, 0.018000000000000002, 0.762, 0.662, 192.0, 0.0, 0.0, 0.0, 0.0, 0.0, 0.0, 0.0, 0.0, 0.0, 1.6541564805646625E9, 0.0, 2022-06-02 09:54:40.564
22.0, 22538.962666864714, 1109.4064842947107, -75973.28883091078, -54078.74930843703, -39531.4293541228, -39021.787228797344, -7532.739047138578, -46161.40379445598, 0.018000000000000002, 0.762, 0.662, 192.0, 0.0, 0.0, 0.0, 0.0, 0.0, 0.0, 0.0, 0.0, 0.0, 1.6541564805646715E9, 0.0, 2022-06-02 09:54:40.564
23.0, 22544.260030300622, 1124.3374495908558, -75944.20921137443, -54056.55402619291, -39505.05429566554, -39005.33634487824, -7500.574886867391, -46144.304709947675, 0.018000000000000002, 0.762, 0.662, 192.0, 0.0, 0.0, 0.0, 0.0, 0.0, 0.0, 0.0, 0.0, 0.0, 1.6541564805646777E9, 0.0, 2022-06-02 09:54:40.564
24.0, 22545.17645182329, 1130.7300485050737, -75924.22675183139, -54044.64054639823, -39481.7190744542, -38985.935030691035, -7453.211540366596, -46107.60314555206, 0.018000000000000002, 0.762, 0.662, 192.0, 0.0, 0.0, 0.0, 0.0, 0.0, 0.0, 0.0, 0.0, 0.0, 1.6541564805646832E9, 0.0, 2022-06-02 09:54:40.564
25.0, 22552.66428621582, 1143.0458596999479, -75923.60090298664, -54041.108970774294, -39466.363426013406, -38968.18774559352, -7420.488586484026, -46070.968636389814, 0.018000000000000002, 0.762, 0.662, 192.0, 0.0, 0.0, 0.0, 0.0, 0.0, 0.0, 0.0, 0.0, 0.0, 1.654156480564689E9, 0.0, 2022-06-02 09:54:40.564
26.0, 22549.535041992076, 1126.0361821694592, -75958.93901097048, -54074.100145590324, -39503.333211342484, -38996.86503372968, -7466.8461044843325, -46117.14734043447, 0.018000000000000002, 0.762, 0.662, 192.0, 0.0, 0.0, 0.0, 0.0, 0.0, 0.0, 0.0, 0.0, 0.0, 1.654156480564695E9, 0.0, 2022-06-02 09:54:40.564
27.0, 22551.501995504143, 1121.0964466448363, -75960.928316227, -54077.72112819208, -39514.91141497033, -39011.103094947706, -7490.114270462307, -46131.63127084151, 0.018000000000000002, 0.762, 0.662, 192.0, 0.0, 0.0, 0.0, 0.0, 0.0, 0.0, 0.0, 0.0, 0.0, 1.6541564805647008E9, 0.0, 2022-06-02 09:54:40.564
28.0, 22554.452425772244, 1126.4385135696548, -75936.98959791537, -54060.64439542823, -39496.96296417272, -39002.162397165586, -7484.392223881749, -46121.0365439697, 0.016, 0.77, 0.664, 192.0, 0.0, 128.0, 24.0, 16.0, 20.0, 192.0, 0.0, 0.0, 0.0, 1.6541564805647063E9, 0.0, 2022-06-02 09:54:40.564
29.0, 22559.3251060635, 1140.8553887433277, -75907.77586791228, -54036.10218001631, -39466.698702180234, -38980.481205043936, -7442.9520896616095, -46089.92291568791, 0.016, 0.77, 0.664, 192.0, 0.0, 0.0, 0.0, 0.0, 0.0, 0.0, 0.0, 0.0, 0.0, 1.654156480564713E9, 0.0, 2022-06-02 09:54:40.564
30.0, 22557.067579873514, 1141.0565544434255, -75915.8671994051, -54042.651241141706, -39472.97954237217, -38986.60558302469, -7465.013261438998, -46119.7848462802, 0.016, 0.77, 0.664, 192.0, 0.0, 0.0, 0.0, 0.0, 0.0, 0.0, 0.0, 0.0, 0.0, 1.6541564805647187E9, 0.0, 2022-06-02 09:54:40.564
31.0, 22556.218213584212, 1131.4229525831881, -75945.81853697522, -54071.21677055559, -39496.62768800589, -39013.22651067097, -7459.022993924975, -46159.950931066385, 0.016, 0.77, 0.664, 192.0, 0.0, 0.0, 0.0, 0.0, 0.0, 0.0, 0.0, 0.0, 0.0, 1.6541564805647247E9, 0.0, 2022-06-02 09:54:40.564
32.0, 22561.761446209126, 1133.009926439515, -75947.22669687589, -54075.68711944665, -39503.06499040902, -39023.15068520912, -7484.191058181651, -46157.17931475393, 0.016, 0.77, 0.664, 192.0, 0.0, 0.0, 0.0, 0.0, 0.0, 0.0, 0.0, 0.0, 0.0, 1.6541564805647311E9, 0.0, 2022-06-02 09:54:40.564
33.0, 22563.393123554364, 1136.3850398522663, -75919.73405119588, -54052.24013951304, -39479.19332733075, -39001.40243785411, -7472.501095831525, -46116.45443635636, 0.016, 0.77, 0.664, 192.0, 0.0, 0.0, 0.0, 0.0, 0.0, 0.0, 0.0, 0.0, 0.0, 1.6541564805647378E9, 0.0, 2022-06-02 09:54:40.564
34.0, 22561.26970783111, 1142.621176555297, -75899.23750153036, -54030.69305785812, -39454.78522238555, -38978.26838234287, -7427.462330754081, -46089.6770464989, 0.016, 0.77, 0.664, 192.0, 0.0, 0.0, 0.0, 0.0, 0.0, 0.0, 0.0, 0.0, 0.0, 1.6541564805647435E9, 0.0, 2022-06-02 09:54:40.564
35.0, 22554.340667049964, 1139.9613189651154, -75913.09558309264, -54038.091485272824, -39468.97858011467, -38981.01764691086, -7453.122133388774, -46110.79944500917, 0.016, 0.77, 0.664, 192.0, 0.0, 0.0, 0.0, 0.0, 0.0, 0.0, 0.0, 0.0, 0.0, 1.6541564805647497E9, 0.0, 2022-06-02 09:54:40.564
36.0, 22559.928603163793, 1134.5521968069313, -75939.09066189417, -54060.689098917144, -39495.018362405106, -38996.37329535166, -7488.281427416972, -46128.27850917322, 0.016, 0.77, 0.664, 192.0, 0.0, 0.0, 0.0, 0.0, 0.0, 0.0, 0.0, 0.0, 0.0, 1.6541564805647552E9, 0.0, 2022-06-02 09:54:40.564
37.0, 22550.876146659393, 1117.587222765353, -75958.64843829256, -54081.29740730493, -39521.63929005138, -39025.94465326604, -7518.433930687182, -46153.55833215217, 0.016, 0.77, 0.664, 192.0, 0.0, 0.0, 0.0, 0.0, 0.0, 0.0, 0.0, 0.0, 0.0, 1.6541564805647612E9, 0.0, 2022-06-02 09:54:40.564
38.0, 22567.483492789688, 1138.7319730200736, -75924.76319369831, -54048.77561912246, -39483.99895238864, -39000.48601633144, -7479.653654057223, -46131.38540165251, 0.016, 0.77, 0.668, 192.0, 0.0, 128.0, 24.0, 16.0, 20.0, 224.0, 0.0, 0.0, 0.0, 1.6541564805647688E9, 0.0, 2022-06-02 09:54:40.564
39.0, 22555.346495550453, 1133.076981672881, -75922.93035065298, -54049.13324703375, -39479.95328664223, -38998.943745964025, -7482.648787814234, -46137.95681452237, 0.016, 0.77, 0.668, 192.0, 0.0, 0.0, 0.0, 0.0, 0.0, 0.0, 0.0, 0.0, 0.0, 1.6541564805647748E9, 0.0, 2022-06-02 09:54:40.564
40.0, 22565.65064974435, 1142.5317695774759, -75919.0187953733, -54049.781447622954, -39484.35658029993, -38996.90973721859, -7489.041386728452, -46141.53309363522, 0.016, 0.77, 0.668, 192.0, 0.0, 0.0, 0.0, 0.0, 0.0, 0.0, 0.0, 0.0, 0.0, 1.6541564805647807E9, 0.0, 2022-06-02 09:54:40.564
41.0, 22575.954803938246, 1146.8456562573501, -75937.57074327121, -54060.24206402803, -39494.25840309363, -38989.39955108161, -7495.188116453662, -46118.46609335734, 0.016, 0.77, 0.668, 192.0, 0.0, 0.0, 0.0, 0.0, 0.0, 0.0, 0.0, 0.0, 0.0, 1.6541564805647867E9, 0.0, 2022-06-02 09:54:40.564
42.0, 22577.13944639438, 1141.0789061878809, -75940.09649039466, -54064.93593036365, -39494.70543798273, -38994.02636218385, -7465.706165517112, -46090.99579942177, 0.016, 0.77, 0.668, 192.0, 0.0, 0.0, 0.0, 0.0, 0.0, 0.0, 0.0, 0.0, 0.0, 1.6541564805647924E9, 0.0, 2022-06-02 09:54:40.564
43.0, 22593.56797856903, 1157.5744935958974, -75910.54748422473, -54040.81839809637, -39476.8687459074, -38982.38110332264, -7455.71493574559, -46091.39813082196, 0.016, 0.77, 0.668, 192.0, 0.0, 0.0, 0.0, 0.0, 0.0, 0.0, 0.0, 0.0, 0.0, 1.6541564805648034E9, 0.0, 2022-06-02 09:54:40.564
44.0, 22595.646690803373, 1164.816458799417, -75893.09077180515, -54025.77567407795, -39460.59667594393, -38969.81942293876, -7449.389392064738, -46087.21835460882, 0.016, 0.77, 0.668, 192.0, 0.0, 0.0, 0.0, 0.0, 0.0, 0.0, 0.0, 0.0, 0.0, 1.65415648056481E9, 0.0, 2022-06-02 09:54:40.564
45.0, 22577.407667327843, 1153.3500138938443, -75905.78656265576, -54038.22559573956, -39463.59180970095, -38975.00502765239, -7443.868511184277, -46081.11632837252, 0.016, 0.77, 0.668, 192.0, 0.0, 0.0, 0.0, 0.0, 0.0, 0.0, 0.0, 0.0, 0.0, 1.6541564805648184E9, 0.0, 2022-06-02 09:54:40.564
46.0, 22573.697277748262, 1139.3578218648222, -75934.1285746251, -54066.56760770889, -39482.38962678786, -38997.58028955225, -7456.743115990534, -46112.65463979896, 0.016, 0.77, 0.668, 192.0, 0.0, 0.0, 0.0, 0.0, 0.0, 0.0, 0.0, 0.0, 0.0, 1.6541564805648265E9, 0.0, 2022-06-02 09:54:40.564
47.0, 22572.22206261421, 1125.3879815802552, -75950.06536842172, -54089.03111088647, -39500.82981596349, -39030.14678122363, -7496.640979843257, -46156.48641067582, 0.016, 0.77, 0.668, 192.0, 0.0, 0.0, 0.0, 0.0, 0.0, 0.0, 0.0, 0.0, 0.0, 1.6541564805648394E9, 0.0, 2022-06-02 09:54:40.564
48.0, 22564.868338688415, 1125.0974089023364, -75938.06248164922, -54075.39654676874, -39491.08445538097, -39023.0612782313, -7489.4437181286485, -46132.52534061973, 0.016, 0.766, 0.662, 192.0, 0.0, 128.0, 23.0, 240.0, 20.0, 176.0, 0.0, 0.0, 0.0, 1.6541564805648491E9, 0.0, 2022-06-02 09:54:40.564
49.0, 22564.063675888025, 1138.1284759197804, -75909.18402781297, -54050.139075534236, -39465.55876321301, -38997.3567721077, -7433.921984901665, -46075.75190970325, 0.016, 0.766, 0.662, 192.0, 0.0, 0.0, 0.0, 0.0, 0.0, 0.0, 0.0, 0.0, 0.0, 1.6541564805648599E9, 0.0, 2022-06-02 09:54:40.564
50.0, 22571.216234113723, 1146.108048690325, -75905.65245218902, -54044.57349116487, -39465.29054227955, -38992.05940867179, -7440.6051564938025, -46091.800462222156, 0.016, 0.766, 0.662, 192.0, 0.0, 0.0, 0.0, 0.0, 0.0, 0.0, 0.0, 0.0, 0.0, 1.6541564805648696E9, 0.0, 2022-06-02 09:54:40.564
51.0, 22564.62246949941, 1121.074094900381, -75948.29958060976, -54085.723052707086, -39509.412885834325, -39034.19244697004, -7518.076302775897, -46176.178297540944, 0.016, 0.766, 0.662, 192.0, 0.0, 0.0, 0.0, 0.0, 0.0, 0.0, 0.0, 0.0, 0.0, 1.65415648056488E9, 0.0, 2022-06-02 09:54:40.564
52.0, 22557.84989092945, 1107.9089174162052, -75956.94970571395, -54098.597657513346, -39524.85794125294, -39051.716214623004, -7526.033523801986, -46178.79345164221, 0.016, 0.766, 0.662, 192.0, 0.0, 0.0, 0.0, 0.0, 0.0, 0.0, 0.0, 0.0, 0.0, 1.6541564805648897E9, 0.0, 2022-06-02 09:54:40.564
53.0, 22565.628297999894, 1124.8068362244173, -75921.74570819685, -54066.500552475525, -39493.87842343788, -39017.71921130648, -7469.148334163229, -46116.208567167356, 0.016, 0.766, 0.662, 192.0, 0.0, 0.0, 0.0, 0.0, 0.0, 0.0, 0.0, 0.0, 0.0, 1.6541564805649023E9, 0.0, 2022-06-02 09:54:40.564
54.0, 22567.88582418988, 1134.3286793623781, -75905.22776904437, -54055.03410756995, -39482.657847721326, -39009.53847283584, -7479.184267423662, -46136.48159938832, 0.016, 0.766, 0.662, 192.0, 0.0, 0.0, 0.0, 0.0, 0.0, 0.0, 0.0, 0.0, 0.0, 1.65415648056491E9, 0.0, 2022-06-02 09:54:40.564
55.0, 22568.51167303463, 1130.9535659496269, -75911.17333306948, -54059.34799424982, -39478.25455406363, -39005.11282743369, -7477.57494182288, -46128.88200627351, 0.016, 0.766, 0.662, 192.0, 0.0, 0.0, 0.0, 0.0, 0.0, 0.0, 0.0, 0.0, 0.0, 1.6541564805649178E9, 0.0, 2022-06-02 09:54:40.564
56.0, 22568.601080012453, 1122.4822548010654, -75936.58726651517, -54080.73861369355, -39501.098036896954, -39009.985507724945, -7494.33875016436, -46131.787733052704, 0.016, 0.766, 0.662, 192.0, 0.0, 0.0, 0.0, 0.0, 0.0, 0.0, 0.0, 0.0, 0.0, 1.6541564805649252E9, 0.0, 2022-06-02 09:54:40.564
57.0, 22564.533062521587, 1114.2791645859677, -75944.25391486334, -54092.24976208804, -39507.02124917761, -39028.40334515612, -7443.153255361707, -46135.900454032475, 0.016, 0.766, 0.662, 192.0, 0.0, 0.0, 0.0, 0.0, 0.0, 0.0, 0.0, 0.0, 0.0, 1.6541564805649328E9, 0.0, 2022-06-02 09:54:40.564
58.0, 22565.158911366336, 1121.007039667015, -75928.29476932225, -54078.36932878129, -39497.030019406084, -39024.044754987335, -7480.190095924151, -46125.59629983858, 0.016, 0.77, 0.658, 192.0, 0.0, 128.0, 24.0, 16.0, 20.0, 144.0, 0.0, 0.0, 0.0, 1.6541564805649412E9, 0.0, 2022-06-02 09:54:40.564
59.0, 22551.74786469315, 1124.0245251684817, -75920.18108608498, -54068.80278215442, -39497.00766766163, -39010.745467036424, -7487.588523338858, -46107.71490427433, 0.016, 0.77, 0.658, 192.0, 0.0, 0.0, 0.0, 0.0, 0.0, 0.0, 0.0, 0.0, 0.0, 1.654156480564952E9, 0.0, 2022-06-02 09:54:40.564
60.0, 22550.65262921484, 1127.7572664925178, -75925.27728382079, -54063.974805352074, -39496.001839161145, -38999.994277953425, -7486.8062122829215, -46105.21150889534, 0.016, 0.77, 0.658, 192.0, 0.0, 0.0, 0.0, 0.0, 0.0, 0.0, 0.0, 0.0, 0.0, 1.6541564805649576E9, 0.0, 2022-06-02 09:54:40.564
61.0, 22536.146347063346, 1099.5493649899204, -75973.46764486642, -54108.030093673486, -39538.87248502642, -39043.82604883028, -7532.582584927391, -46172.110280050074, 0.016, 0.77, 0.658, 192.0, 0.0, 0.0, 0.0, 0.0, 0.0, 0.0, 0.0, 0.0, 0.0, 1.654156480564963E9, 0.0, 2022-06-02 09:54:40.564
62.0, 22533.710006917718, 1090.4969084855209, -75982.81067404874, -54121.150567668745, -39553.89285730039, -39067.094214808254, -7547.82647464591, -46187.24241104632, 0.016, 0.77, 0.658, 192.0, 0.0, 0.0, 0.0, 0.0, 0.0, 0.0, 0.0, 0.0, 0.0, 1.6541564805649688E9, 0.0, 2022-06-02 09:54:40.564
63.0, 22549.825614669993, 1112.0886936293475, -75947.47256606491, -54090.79689869844, -39524.74618253067, -39041.032080773366, -7528.939250581176, -46150.33968095061, 0.016, 0.77, 0.658, 192.0, 0.0, 0.0, 0.0, 0.0, 0.0, 0.0, 0.0, 0.0, 0.0, 1.6541564805649767E9, 0.0, 2022-06-02 09:54:40.564
64.0, 22554.430074027787, 1124.8068362244173, -75927.60186524414, -54073.22842755657, -39512.005688191144, -39025.29645267683, -7508.822680571399, -46137.889759289, 0.016, 0.77, 0.658, 192.0, 0.0, 0.0, 0.0, 0.0, 0.0, 0.0, 0.0, 0.0, 0.0, 1.6541564805649931E9, 0.0, 2022-06-02 09:54:40.564
65.0, 22551.479643759685, 1131.4453043276435, -75931.4687170349, -54072.08848858935, -39514.21851089221, -39024.06710673179, -7501.670122345701, -46147.724526849335, 0.016, 0.77, 0.658, 192.0, 0.0, 0.0, 0.0, 0.0, 0.0, 0.0, 0.0, 0.0, 0.0, 1.654156480565004E9, 0.0, 2022-06-02 09:54:40.565
66.0, 22558.56514675202, 1130.6406415272525, -75954.1780894015, -54088.85229693083, -39525.707307542245, -39032.04667950233, -7509.426177671693, -46164.04130030171, 0.016, 0.77, 0.658, 192.0, 0.0, 0.0, 0.0, 0.0, 0.0, 0.0, 0.0, 0.0, 0.0, 1.6541564805650096E9, 0.0, 2022-06-02 09:54:40.565
67.0, 22556.709951962228, 1123.4210280681882, -75967.1868046745, -54103.38093082678, -39539.92301701582, -39050.84449658925, -7528.782788369988, -46172.24439051681, 0.016, 0.77, 0.658, 192.0, 0.0, 0.0, 0.0, 0.0, 0.0, 0.0, 0.0, 0.0, 0.0, 1.654156480565015E9, 0.0, 2022-06-02 09:54:40.565
68.0, 22565.740056722174, 1138.8660834868056, -75936.20728685943, -54071.261474044506, -39510.21754863472, -39030.54911262383, -7492.237686185562, -46141.93542503541, 0.012, 0.778, 0.66, 192.0, 0.0, 96.0, 24.0, 80.0, 20.0, 160.0, 0.0, 0.0, 0.0, 1.6541564805650203E9, 0.0, 2022-06-02 09:54:40.565
69.0, 22568.33285907899, 1143.8058190114284, -75916.60480697213, -54055.727011648065, -39490.5703652585, -39017.02630722836, -7474.982139466065, -46132.30182317518, 0.012, 0.778, 0.66, 192.0, 0.0, 0.0, 0.0, 0.0, 0.0, 0.0, 0.0, 0.0, 0.0, 1.6541564805650291E9, 0.0, 2022-06-02 09:54:40.565
70.0, 22573.47376030371, 1148.5667405804088, -75916.47069650539, -54051.256662757005, -39487.888155923865, -39012.086571703745, -7495.635151342768, -46146.02579427073, 0.012, 0.778, 0.66, 192.0, 0.0, 0.0, 0.0, 0.0, 0.0, 0.0, 0.0, 0.0, 0.0, 1.6541564805650356E9, 0.0, 2022-06-02 09:54:40.565
71.0, 22574.2784231041, 1141.0789061878809, -75931.20049610145, -54064.15361930771, -39488.648115235344, -39017.450990373014, -7472.568151064891, -46140.728430834824, 0.012, 0.778, 0.66, 192.0, 0.0, 0.0, 0.0, 0.0, 0.0, 0.0, 0.0, 0.0, 0.0, 1.6541564805650418E9, 0.0, 2022-06-02 09:54:40.565
72.0, 22561.56028050903, 1122.2810891009676, -75948.72426375441, -54081.7667939385, -39508.63057477839, -39031.55494112432, -7480.726537791078, -46130.33486966311, 0.012, 0.778, 0.66, 192.0, 0.0, 0.0, 0.0, 0.0, 0.0, 0.0, 0.0, 0.0, 0.0, 1.6541564805650527E9, 0.0, 2022-06-02 09:54:40.565
73.0, 22569.249280601656, 1137.2120543971128, -75923.71266170891, -54058.76684889399, -39496.203004861236, -39009.67258330257, -7475.406822610716, -46104.89858447297, 0.012, 0.778, 0.66, 192.0, 0.0, 0.0, 0.0, 0.0, 0.0, 0.0, 0.0, 0.0, 0.0, 1.6541564805650609E9, 0.0, 2022-06-02 09:54:40.565
74.0, 22557.291097318066, 1127.7572664925178, -75919.91286515152, -54058.11864830478, -39495.845376949954, -39011.08074320325, -7483.520505847991, -46132.74885806428, 0.012, 0.778, 0.66, 192.0, 0.0, 0.0, 0.0, 0.0, 0.0, 0.0, 0.0, 0.0, 0.0, 1.6541564805650692E9, 0.0, 2022-06-02 09:54:40.565
75.0, 22565.516539277618, 1137.1226474192915, -75911.82153365869, -54050.65316565671, -39490.413903047316, -39001.447141343015, -7470.310624874905, -46127.384439395006, 0.012, 0.778, 0.66, 192.0, 0.0, 0.0, 0.0, 0.0, 0.0, 0.0, 0.0, 0.0, 0.0, 1.6541564805650773E9, 0.0, 2022-06-02 09:54:40.565
76.0, 22574.948975437757, 1144.6104818118195, -75924.53967625376, -54055.50349420351, -39495.219528105205, -38996.46270232948, -7464.901502716721, -46131.51951211924, 0.012, 0.778, 0.66, 192.0, 0.0, 0.0, 0.0, 0.0, 0.0, 0.0, 0.0, 0.0, 0.0, 1.6541564805650873E9, 0.0, 2022-06-02 09:54:40.565
77.0, 22571.99854516966, 1131.8699874722943, -75939.18006887198, -54068.78043040996, -39510.19519689026, -39017.00395548391, -7481.95588373612, -46155.3911751975, 0.012, 0.778, 0.66, 192.0, 0.0, 0.0, 0.0, 0.0, 0.0, 0.0, 0.0, 0.0, 0.0, 1.6541564805651016E9, 0.0, 2022-06-02 09:54:40.565
78.0, 22573.205539370247, 1139.2907666314563, -75923.6232547311, -54052.97774708006, -39498.862862451424, -38995.56863255127, -7432.670287212168, -46108.94425021938, 0.012, 0.78, 0.66, 192.0, 0.0, 96.0, 24.0, 96.0, 20.0, 160.0, 0.0, 0.0, 0.0, 1.654156480565107E9, 0.0, 2022-06-02 09:54:40.565
79.0, 22574.680754504294, 1150.3548801368333, -75901.24915853133, -54034.00111603751, -39475.237068562164, -38968.746539204905, -7443.265014083983, -46070.23102882279, 0.012, 0.78, 0.66, 192.0, 0.0, 0.0, 0.0, 0.0, 0.0, 0.0, 0.0, 0.0, 0.0, 1.6541564805651126E9, 0.0, 2022-06-02 09:54:40.565
80.0, 22578.391144083875, 1149.6396243142635, -75903.55138821022, -54033.08469451484, -39474.65592320632, -38966.086681614725, -7451.557511276903, -46076.198944592354, 0.012, 0.78, 0.66, 192.0, 0.0, 0.0, 0.0, 0.0, 0.0, 0.0, 0.0, 0.0, 0.0, 1.654156480565118E9, 0.0, 2022-06-02 09:54:40.565
81.0, 22576.021859171615, 1141.525941076987, -75938.04012990477, -54057.44809597112, -39501.83564446398, -38984.03513241233, -7487.119136705296, -46109.59245080858, 0.012, 0.78, 0.66, 192.0, 0.0, 0.0, 0.0, 0.0, 0.0, 0.0, 0.0, 0.0, 0.0, 1.6541564805651236E9, 0.0, 2022-06-02 09:54:40.565
82.0, 22565.36007706643, 1126.7737897364843, -75957.75436851435, -54080.269227059995, -39525.39438311987, -39013.204158926506, -7506.811023570422, -46132.212416197355, 0.012, 0.78, 0.66, 192.0, 0.0, 0.0, 0.0, 0.0, 0.0, 0.0, 0.0, 0.0, 0.0, 1.6541564805651295E9, 0.0, 2022-06-02 09:54:40.565
83.0, 22572.534987036586, 1141.0565544434255, -75923.13151635308, -54049.33441273385, -39495.4206938053, -38992.215870882974, -7462.599273037824, -46097.0307704247, 0.012, 0.78, 0.66, 192.0, 0.0, 0.0, 0.0, 0.0, 0.0, 0.0, 0.0, 0.0, 0.0, 1.6541564805651357E9, 0.0, 2022-06-02 09:54:40.565
84.0, 22563.236661343177, 1140.430705598677, -75914.52609473778, -54041.1536742632, -39490.03392339157, -38993.17699589455, -7457.033688668453, -46103.51277631674, 0.012, 0.78, 0.66, 192.0, 0.0, 0.0, 0.0, 0.0, 0.0, 0.0, 0.0, 0.0, 0.0, 1.654156480565142E9, 0.0, 2022-06-02 09:54:40.565
85.0, 22552.776044938095, 1133.076981672881, -75937.23546710437, -54060.86791287278, -39505.076647409995, -39008.510292590894, -7475.205656910617, -46131.295994674685, 0.012, 0.78, 0.66, 192.0, 0.0, 0.0, 0.0, 0.0, 0.0, 0.0, 0.0, 0.0, 0.0, 1.6541564805651484E9, 0.0, 2022-06-02 09:54:40.565
86.0, 22563.527234021098, 1136.6979642746408, -75955.51919406882, -54073.38488976776, -39524.29914764156, -39010.36548738069, -7504.642904358257, -46137.26391044425, 0.012, 0.78, 0.66, 192.0, 0.0, 0.0, 0.0, 0.0, 0.0, 0.0, 0.0, 0.0, 0.0, 1.654156480565163E9, 0.0, 2022-06-02 09:54:40.565
87.0, 22558.252222329644, 1125.4773885580764, -75969.35492388665, -54090.99806439854, -39547.29909268607, -39033.96892952549, -7536.762361140533, -46162.543733423205, 0.012, 0.78, 0.66, 192.0, 0.0, 0.0, 0.0, 0.0, 0.0, 0.0, 0.0, 0.0, 0.0, 1.6541564805651696E9, 0.0, 2022-06-02 09:54:40.565
88.0, 22557.067579873514, 1123.6445455127414, -75955.11686266863, -54085.47718351808, -39532.59164483448, -39040.78621158436, -7522.39018945577, -46179.32989350914, 0.016, 0.768, 0.656, 192.0, 0.0, 128.0, 24.0, 0.0, 20.0, 128.0, 0.0, 0.0, 0.0, 1.6541564805651755E9, 0.0, 2022-06-02 09:54:40.565
89.0, 22557.022876384603, 1129.7242200045848, -75931.55812401274, -54065.450020486125, -39505.94836544375, -39019.216778184986, -7485.733328549067, -46143.745916336295, 0.016, 0.768, 0.656, 192.0, 0.0, 0.0, 0.0, 0.0, 0.0, 0.0, 0.0, 0.0, 0.0, 1.6541564805651824E9, 0.0, 2022-06-02 09:54:40.565
90.0, 22558.721608963206, 1129.3442403488446, -75930.66405423451, -54063.99715709653, -39501.20979561923, -39006.78920826784, -7464.007432938509, -46109.771264764226, 0.016, 0.768, 0.656, 192.0, 0.0, 0.0, 0.0, 0.0, 0.0, 0.0, 0.0, 0.0, 0.0, 1.6541564805651898E9, 0.0, 2022-06-02 09:54:40.565
91.0, 22572.445580058764, 1134.4180863401994, -75942.93516194048, -54071.93202637816, -39512.072743424505, -39009.33730713574, -7492.461203630114, -46136.14632322149, 0.016, 0.768, 0.656, 192.0, 0.0, 0.0, 0.0, 0.0, 0.0, 0.0, 0.0, 0.0, 0.0, 1.6541564805651984E9, 0.0, 2022-06-02 09:54:40.565
92.0, 22555.525309506098, 1109.2947255724341, -75973.84762452217, -54101.592791270356, -39541.88997052789, -39049.30222622183, -7531.576756426902, -46171.015044571766, 0.016, 0.768, 0.656, 192.0, 0.0, 0.0, 0.0, 0.0, 0.0, 0.0, 0.0, 0.0, 0.0, 1.6541564805652058E9, 0.0, 2022-06-02 09:54:40.565
93.0, 22578.458199317243, 1133.8145892399061, -75934.26268509182, -54065.450020486125, -39497.2758885951, -39023.17303695357, -7487.05208147193, -46130.245462685285, 0.016, 0.768, 0.656, 192.0, 0.0, 0.0, 0.0, 0.0, 0.0, 0.0, 0.0, 0.0, 0.0, 1.6541564805652137E9, 0.0, 2022-06-02 09:54:40.565
94.0, 22566.634126500383, 1132.6299467837748, -75915.93425463847, -54050.31788948988, -39483.35075179944, -38997.51323431888, -7463.448639327126, -46089.16295637643, 0.016, 0.768, 0.656, 192.0, 0.0, 0.0, 0.0, 0.0, 0.0, 0.0, 0.0, 0.0, 0.0, 1.6541564805652215E9, 0.0, 2022-06-02 09:54:40.565
95.0, 22557.89459441836, 1129.880682215772, -75925.18787684296, -54054.85529361431, -39491.57619375899, -38988.97486793696, -7464.6779852721675, -46083.9773516628, 0.016, 0.768, 0.656, 192.0, 0.0, 0.0, 0.0, 0.0, 0.0, 0.0, 0.0, 0.0, 0.0, 1.654156480565235E9, 0.0, 2022-06-02 09:54:40.565
96.0, 22558.967478152215, 1120.7835222224621, -75953.1275574121, -54078.74930843703, -39508.74233350067, -39008.08560944624, -7468.85776148531, -46122.24353817029, 0.016, 0.768, 0.656, 192.0, 0.0, 0.0, 0.0, 0.0, 0.0, 0.0, 0.0, 0.0, 0.0, 1.654156480565242E9, 0.0, 2022-06-02 09:54:40.565
97.0, 22556.911117662326, 1105.9196121596829, -75967.16445293004, -54096.16131736772, -39521.70634528474, -39028.380993411665, -7475.138601677251, -46144.21530296985, 0.02, 0.768, 0.662, 192.0, 0.0, 160.0, 24.0, 0.0, 20.0, 176.0, 0.0, 0.0, 0.0, 1.6541564805652485E9, 0.0, 2022-06-02 09:54:40.565
98.0, 22554.184204838777, 1107.7301034605628, -75948.94778119896, -54086.01362538501, -39510.15049340135, -39017.49569386193, -7441.946261161121, -46127.31738416164, 0.02, 0.768, 0.662, 192.0, 0.0, 0.0, 0.0, 0.0, 0.0, 0.0, 0.0, 0.0, 0.0, 1.6541564805652559E9, 0.0, 2022-06-02 09:54:40.565
99.0, 22545.355265778933, 1102.1645190911913, -75934.59796125865, -54070.03212809946, -39498.72875198469, -38998.921394219564, -7465.952034706121, -46092.493366300274, 0.02, 0.768, 0.662, 192.0, 0.0, 0.0, 0.0, 0.0, 0.0, 0.0, 0.0, 0.0, 0.0, 1.654156480565262E9, 0.0, 2022-06-02 09:54:40.565
100.0, 22553.804225183037, 1113.1839291076576, -75929.79233620076, -54061.69492741763, -39496.11359788342, -38991.7017807605, -7469.036575440953, -46098.61774428103, 0.02, 0.768, 0.662, 192.0, 0.0, 0.0, 0.0, 0.0, 0.0, 0.0, 0.0, 0.0, 0.0, 1.6541564805652685E9, 0.0, 2022-06-02 09:54:40.565
101.0, 22557.022876384603, 1112.5357285184537, -75953.55224055675, -54086.17008759619, -39514.1291039144, -39008.309126890796, -7501.983046768075, -46152.37368969604, 0.02, 0.768, 0.662, 192.0, 0.0, 0.0, 0.0, 0.0, 0.0, 0.0, 0.0, 0.0, 0.0, 1.6541564805652776E9, 0.0, 2022-06-02 09:54:40.565
102.0, 22549.691504203263, 1091.5027369860097, -75975.09932221167, -54111.159337897225, -39536.190275691784, -39042.77551684088, -7523.686590634178, -46170.41154747147, 0.02, 0.768, 0.662, 192.0, 0.0, 0.0, 0.0, 0.0, 0.0, 0.0, 0.0, 0.0, 0.0, 1.654156480565285E9, 0.0, 2022-06-02 09:54:40.565
103.0, 22557.00052464015, 1099.683475456652, -75951.92056321152, -54091.80272719893, -39520.34288887297, -39029.23035970097, -7504.397035169249, -46143.589454125104, 0.02, 0.768, 0.662, 192.0, 0.0, 0.0, 0.0, 0.0, 0.0, 0.0, 0.0, 0.0, 0.0, 1.6541564805652905E9, 0.0, 2022-06-02 09:54:40.565
104.0, 22553.446597271755, 1107.7748069494733, -75930.7758129568, -54074.681290946166, -39503.04263866456, -39014.880539760656, -7484.615741326302, -46126.333907405606, 0.02, 0.768, 0.662, 192.0, 0.0, 0.0, 0.0, 0.0, 0.0, 0.0, 0.0, 0.0, 0.0, 1.6541564805652966E9, 0.0, 2022-06-02 09:54:40.565
105.0, 22540.95197212124, 1103.9303069031605, -75937.1237083821, -54081.7667939385, -39500.606298518935, -39013.51708334888, -7476.457354600115, -46129.93253826291, 0.02, 0.768, 0.662, 192.0, 0.0, 0.0, 0.0, 0.0, 0.0, 0.0, 0.0, 0.0, 0.0, 1.6541564810445364E9, 0.0, 2022-06-02 09:54:41.044
106.0, 22553.08896936047, 1108.0653796273923, -75953.99927544585, -54094.440233044654, -39512.363316102426, -39019.9096822631, -7487.81204078341, -46157.6934048764, 0.02, 0.768, 0.662, 192.0, 0.0, 0.0, 0.0, 0.0, 0.0, 0.0, 0.0, 0.0, 0.0, 1.6541564810447016E9, 0.0, 2022-06-02 09:54:41.044
107.0, 22560.688562475272, 1103.4162167806885, -75967.07504595221, -54107.76187274002, -39532.6810518123, -39041.18854298455, -7506.475747403592, -46173.943123095414, 0.016, 0.77, 0.668, 192.0, 0.0, 128.0, 24.0, 16.0, 20.0, 224.0, 0.0, 0.0, 0.0, 1.6541564810447507E9, 0.0, 2022-06-02 09:54:41.044
108.0, 22562.767274709615, 1109.6076499948085, -75945.90794395303, -54092.339169065854, -39511.1786736463, -39027.57633061127, -7470.310624874905, -46129.84313128509, 0.016, 0.77, 0.668, 192.0, 0.0, 0.0, 0.0, 0.0, 0.0, 0.0, 0.0, 0.0, 0.0, 1.6541564810447571E9, 0.0, 2022-06-02 09:54:41.044
109.0, 22567.349382322955, 1127.1537693922246, -75918.19178082845, -54068.445154243134, -39487.79874894604, -39002.52002507687, -7462.554569548914, -46107.20081415187, 0.016, 0.77, 0.668, 192.0, 0.0, 0.0, 0.0, 0.0, 0.0, 0.0, 0.0, 0.0, 0.0, 1.6541564810447628E9, 0.0, 2022-06-02 09:54:41.044
110.0, 22571.55151028055, 1130.5735862938866, -75917.34241453915, -54061.18083729516, -39486.904679167834, -38997.334420363244, -7464.409764338704, -46113.48165434381, 0.016, 0.77, 0.668, 192.0, 0.0, 0.0, 0.0, 0.0, 0.0, 0.0, 0.0, 0.0, 0.0, 1.6541564810447683E9, 0.0, 2022-06-02 09:54:41.044
111.0, 22576.93828069428, 1126.1255891472804, -75937.19076361546, -54075.68711944665, -39500.136911885376, -39009.851397258215, -7463.068659671386, -46137.107448233066, 0.016, 0.77, 0.668, 192.0, 0.0, 0.0, 0.0, 0.0, 0.0, 0.0, 0.0, 0.0, 0.0, 1.654156481044776E9, 0.0, 2022-06-02 09:54:41.044
112.0, 22565.918870677815, 1112.8710046852834, -75956.50267082485, -54095.60252375633, -39519.71704002822, -39037.455801660515, -7486.023901226986, -46154.89943681949, 0.016, 0.77, 0.668, 192.0, 0.0, 0.0, 0.0, 0.0, 0.0, 0.0, 0.0, 0.0, 0.0, 1.654156481044782E9, 0.0, 2022-06-02 09:54:41.044
113.0, 22567.304678834043, 1117.788388465451, -75941.54935378426, -54080.470392760086, -39507.08830441097, -39029.74444982343, -7494.741081564556, -46149.892646061504, 0.016, 0.77, 0.668, 192.0, 0.0, 0.0, 0.0, 0.0, 0.0, 0.0, 0.0, 0.0, 0.0, 1.654156481044788E9, 0.0, 2022-06-02 09:54:41.044
114.0, 22568.51167303463, 1129.008964182015, -75911.26274004731, -54056.73284014855, -39482.18846108776, -39007.23624315694, -7473.506924332014, -46134.9393290209, 0.016, 0.77, 0.668, 192.0, 0.0, 0.0, 0.0, 0.0, 0.0, 0.0, 0.0, 0.0, 0.0, 1.6541564810447934E9, 0.0, 2022-06-02 09:54:41.044
115.0, 22576.46889406072, 1138.9554904646268, -75898.83517013016, -54045.9592993211, -39474.27594355058, -38988.304315603295, -7452.47393279957, -46104.518604817225, 0.016, 0.77, 0.668, 192.0, 0.0, 0.0, 0.0, 0.0, 0.0, 0.0, 0.0, 0.0, 0.0, 1.6541564810447986E9, 0.0, 2022-06-02 09:54:41.044
116.0, 22581.18511214079, 1132.3840775947665, -75928.33947281116, -54069.80861065491, -39491.77735945909, -38998.519062819374, -7459.738249747545, -46111.31353513164, 0.016, 0.77, 0.668, 192.0, 0.0, 0.0, 0.0, 0.0, 0.0, 0.0, 0.0, 0.0, 0.0, 1.654156481044804E9, 0.0, 2022-06-02 09:54:41.044
117.0, 22576.178321382802, 1110.8146441953952, -75957.46379583643, -54099.80465171393, -39527.808371521045, -39036.338214437754, -7505.358160180826, -46157.26872173175, 0.02, 0.768, 0.664, 192.0, 0.0, 160.0, 24.0, 0.0, 20.0, 192.0, 0.0, 0.0, 0.0, 1.6541564810448093E9, 0.0, 2022-06-02 09:54:41.044
118.0, 22584.962556953735, 1123.108103645814, -75931.51342052381, -54079.37515728178, -39514.95611845924, -39024.38003115416, -7462.554569548914, -46143.544750636196, 0.02, 0.768, 0.664, 192.0, 0.0, 0.0, 0.0, 0.0, 0.0, 0.0, 0.0, 0.0, 0.0, 1.6541564810448148E9, 0.0, 2022-06-02 09:54:41.044
119.0, 22584.001431942157, 1135.043935184948, -75906.88179813407, -54057.71631690459, -39492.60437400393, -39009.62787981366, -7469.8412382413435, -46128.32321266213, 0.02, 0.768, 0.664, 192.0, 0.0, 0.0, 0.0, 0.0, 0.0, 0.0, 0.0, 0.0, 0.0, 1.6541564810448203E9, 0.0, 2022-06-02 09:54:41.044
120.0, 22574.546644037564, 1129.7018682601295, -75915.66603370501, -54059.571511694376, -39486.18942334526, -39006.11865593417, -7452.8762641997655, -46108.65367754146, 0.02, 0.768, 0.664, 192.0, 0.0, 0.0, 0.0, 0.0, 0.0, 0.0, 0.0, 0.0, 0.0, 1.654156481044826E9, 0.0, 2022-06-02 09:54:41.044
121.0, 22574.23371961519, 1122.526958289976, -75944.92446719701, -54077.22938981407, -39513.5256068141, -39017.67450781757, -7491.902410018732, -46147.21043672686, 0.02, 0.768, 0.664, 192.0, 0.0, 0.0, 0.0, 0.0, 0.0, 0.0, 0.0, 0.0, 0.0, 1.6541564810448315E9, 0.0, 2022-06-02 09:54:41.044
122.0, 22571.149178880358, 1117.0060774095152, -75958.73784527039, -54089.99223589805, -39530.3788221334, -39042.417888929594, -7519.484462676581, -46181.65447493249, 0.02, 0.768, 0.664, 192.0, 0.0, 0.0, 0.0, 0.0, 0.0, 0.0, 0.0, 0.0, 0.0, 1.6541564810448368E9, 0.0, 2022-06-02 09:54:41.044
123.0, 22573.116132392424, 1124.4715600575878, -75936.69902523745, -54067.23816004255, -39509.45758932324, -39027.93395852255, -7488.750814050533, -46141.309576190666, 0.02, 0.768, 0.664, 192.0, 0.0, 0.0, 0.0, 0.0, 0.0, 0.0, 0.0, 0.0, 0.0, 1.654156481044842E9, 0.0, 2022-06-02 09:54:41.044
124.0, 22573.317298092523, 1137.5696823083977, -75915.06253660472, -54042.0030405525, -39487.955211157234, -38998.161434908085, -7460.609967781302, -46093.72271224531, 0.02, 0.768, 0.664, 192.0, 0.0, 0.0, 0.0, 0.0, 0.0, 0.0, 0.0, 0.0, 0.0, 1.6541564810448484E9, 0.0, 2022-06-02 09:54:41.044
125.0, 22581.162760396335, 1144.6104818118195, -75905.65245218902, -54034.761075348986, -39480.266211064605, -38988.37137083666, -7441.678040227657, -46083.7761859627, 0.02, 0.768, 0.664, 192.0, 0.0, 0.0, 0.0, 0.0, 0.0, 0.0, 0.0, 0.0, 0.0, 1.6541564810448537E9, 0.0, 2022-06-02 09:54:41.044
126.0, 22578.078219661504, 1126.9079002032163, -75941.1246706396, -54065.22650304157, -39505.836606721474, -39012.377144381666, -7468.321319618383, -46131.63127084151, 0.02, 0.768, 0.664, 192.0, 0.0, 0.0, 0.0, 0.0, 0.0, 0.0, 0.0, 0.0, 0.0, 1.6541564810448604E9, 0.0, 2022-06-02 09:54:41.044
127.0, 22571.70797249174, 1114.592089008342, -75962.2247174054, -54086.974750396585, -39530.89291225588, -39040.56269413981, -7504.575849124891, -46165.762384624766, 0.018000000000000002, 0.764, 0.662, 192.0, 0.0, 144.0, 23.0, 224.0, 20.0, 176.0, 0.0, 0.0, 0.0, 1.654156481044867E9, 0.0, 2022-06-02 09:54:41.044
128.0, 22566.455312544742, 1111.0828651288589, -75952.83698473418, -54086.23714282956, -39522.33219412949, -39045.92711280908, -7492.6176658413015, -46161.202628755884, 0.018000000000000002, 0.764, 0.662, 192.0, 0.0, 0.0, 0.0, 0.0, 0.0, 0.0, 0.0, 0.0, 0.0, 1.654156481044882E9, 0.0, 2022-06-02 09:54:41.044
129.0, 22593.52327508012, 1138.396696853244, -75915.15194358253, -54051.256662757005, -39490.883289680874, -39008.48794084644, -7475.093898188341, -46128.99376499579, 0.018000000000000002, 0.764, 0.662, 192.0, 0.0, 0.0, 0.0, 0.0, 0.0, 0.0, 0.0, 0.0, 0.0, 1.6541564810448885E9, 0.0, 2022-06-02 09:54:41.044
130.0, 22591.601025056963, 1138.910786975716, -75916.64951046104, -54048.35093597781, -39491.375028058894, -39002.83294949924, -7470.24356964154, -46129.0384684847, 0.018000000000000002, 0.764, 0.662, 192.0, 0.0, 0.0, 0.0, 0.0, 0.0, 0.0, 0.0, 0.0, 0.0, 1.6541564810448935E9, 0.0, 2022-06-02 09:54:41.044
131.0, 22588.762353511138, 1130.6629932717078, -75932.80982170222, -54058.23040702706, -39498.9746211737, -39004.26346114439, -7471.875246986777, -46141.53309363522, 0.018000000000000002, 0.764, 0.662, 192.0, 0.0, 0.0, 0.0, 0.0, 0.0, 0.0, 0.0, 0.0, 0.0, 1.6541564810449E9, 0.0, 2022-06-02 09:54:41.044
132.0, 22579.709897006738, 1113.9885919080486, -75949.52892655479, -54074.36836652379, -39517.07953418249, -39023.888292776144, -7493.444680386148, -46145.93638729291, 0.018000000000000002, 0.764, 0.662, 192.0, 0.0, 0.0, 0.0, 0.0, 0.0, 0.0, 0.0, 0.0, 0.0, 1.654156481044906E9, 0.0, 2022-06-02 09:54:41.044
133.0, 22595.020841958623, 1133.6581270287188, -75920.5163622518, -54049.915558089684, -39496.694743239255, -39008.35383037971, -7477.977273223076, -46124.36695389354, 0.018000000000000002, 0.764, 0.662, 192.0, 0.0, 0.0, 0.0, 0.0, 0.0, 0.0, 0.0, 0.0, 0.0, 1.654156481044912E9, 0.0, 2022-06-02 09:54:41.044
134.0, 22588.09180117748, 1132.1605601502133, -75908.37936501257, -54038.113837017285, -39485.228298333685, -38992.86407147218, -7415.459443981582, -46098.52833730321, 0.018000000000000002, 0.764, 0.662, 192.0, 0.0, 0.0, 0.0, 0.0, 0.0, 0.0, 0.0, 0.0, 0.0, 1.6541564810449183E9, 0.0, 2022-06-02 09:54:41.044
135.0, 22591.556321568052, 1139.4472288426434, -75895.59416718414, -54026.55798513389, -39471.70549293822, -38977.888402687124, -7409.402121234193, -46088.55945927614, 0.018000000000000002, 0.764, 0.662, 192.0, 0.0, 0.0, 0.0, 0.0, 0.0, 0.0, 0.0, 0.0, 0.0, 1.6541564810449247E9, 0.0, 2022-06-02 09:54:41.044
136.0, 22574.010202170637, 1120.8282257113726, -75928.33947281116, -54059.8620843723, -39493.36433331542, -38999.18961515303, -7459.447677069626, -46126.15509344996, 0.018000000000000002, 0.764, 0.662, 192.0, 0.0, 0.0, 0.0, 0.0, 0.0, 0.0, 0.0, 0.0, 0.0, 1.6541564810449314E9, 0.0, 2022-06-02 09:54:41.044
137.0, 22583.822617986516, 1122.5716617788867, -75935.8720106926, -54063.79599139643, -39503.28850785357, -39003.79407451082, -7464.007432938509, -46113.07932294361, 0.022, 0.768, 0.664, 192.0, 0.0, 176.0, 24.0, 0.0, 20.0, 192.0, 0.0, 0.0, 0.0, 1.6541564810449383E9, 0.0, 2022-06-02 09:54:41.044
138.0, 22600.072336205525, 1144.141095178258, -75907.57470221218, -54039.2537759845, -39479.372141286396, -38978.08956838722, -7440.873377427266, -46079.37289230501, 0.022, 0.768, 0.664, 192.0, 0.0, 0.0, 0.0, 0.0, 0.0, 0.0, 0.0, 0.0, 0.0, 1.6541564810449448E9, 0.0, 2022-06-02 09:54:41.044
139.0, 22602.62043507343, 1155.2722639170008, -75886.49700719083, -54022.98170602104, -39460.8648968774, -38962.75627169088, -7430.5692232333695, -46072.868534668516, 0.022, 0.768, 0.664, 192.0, 0.0, 0.0, 0.0, 0.0, 0.0, 0.0, 0.0, 0.0, 0.0, 1.654156481044951E9, 0.0, 2022-06-02 09:54:41.044
140.0, 22584.56022555354, 1138.8884352312607, -75902.99259459885, -54042.092447530325, -39470.36438827091, -38982.157585878085, -7436.447732025115, -46110.7323897758, 0.022, 0.768, 0.664, 192.0, 0.0, 0.0, 0.0, 0.0, 0.0, 0.0, 0.0, 0.0, 0.0, 1.6541564810449574E9, 0.0, 2022-06-02 09:54:41.044
141.0, 22577.89940570586, 1119.5988797663308, -75941.59405727316, -54074.14484907924, -39501.656830508335, -39013.58413858225, -7475.250360399528, -46165.628274158036, 0.022, 0.768, 0.664, 192.0, 0.0, 0.0, 0.0, 0.0, 0.0, 0.0, 0.0, 0.0, 0.0, 1.6541564810449631E9, 0.0, 2022-06-02 09:54:41.044
142.0, 22591.04223144558, 1122.2140338676018, -75946.62319977561, -54079.53161949297, -39515.44785683726, -39019.708516563005, -7481.821773269388, -46144.48352390331, 0.022, 0.768, 0.664, 192.0, 0.0, 0.0, 0.0, 0.0, 0.0, 0.0, 0.0, 0.0, 0.0, 1.6541564810449693E9, 0.0, 2022-06-02 09:54:41.044
143.0, 22597.881865248903, 1137.8602549863167, -75923.73501345338, -54057.62690992677, -39496.91826068381, -39001.245975642916, -7469.438906841148, -46118.443741612886, 0.022, 0.768, 0.664, 192.0, 0.0, 0.0, 0.0, 0.0, 0.0, 0.0, 0.0, 0.0, 0.0, 1.6541564810449777E9, 0.0, 2022-06-02 09:54:41.044
144.0, 22606.37552814192, 1153.9982144830483, -75899.90805386401, -54034.42579918216, -39468.88917313686, -38983.47633880095, -7441.409819294193, -46097.61191578054, 0.022, 0.768, 0.664, 192.0, 0.0, 0.0, 0.0, 0.0, 0.0, 0.0, 0.0, 0.0, 0.0, 1.6541564810449836E9, 0.0, 2022-06-02 09:54:41.044
145.0, 22602.2851589066, 1153.5958830828529, -75898.23167302986, -54034.85048232681, -39468.866821392396, -38984.07983590124, -7435.888938413733, -46103.5798315501, 0.022, 0.768, 0.664, 192.0, 0.0, 0.0, 0.0, 0.0, 0.0, 0.0, 0.0, 0.0, 0.0, 1.6541564810449898E9, 0.0, 2022-06-02 09:54:41.044
146.0, 22593.545626824576, 1135.5803770518753, -75932.9215804245, -54065.78529665295, -39494.39251356036, -39014.50056010492, -7474.378642365771, -46156.8440385871, 0.022, 0.768, 0.664, 192.0, 0.0, 0.0, 0.0, 0.0, 0.0, 0.0, 0.0, 0.0, 0.0, 1.6541564810449958E9, 0.0, 2022-06-02 09:54:41.044
147.0, 22585.454295331754, 1121.3646675783, -75957.73201676989, -54091.75802371002, -39521.996917962664, -39046.03887153135, -7511.594296883857, -46178.7487481533, 0.016, 0.772, 0.672, 192.0, 0.0, 128.0, 24.0, 32.0, 21.0, 0.0, 0.0, 0.0, 0.0, 1.6541564810450037E9, 0.0, 2022-06-02 09:54:41.045
148.0, 22587.778876755106, 1127.6008042813307, -75937.23546710437, -54074.56953222389, -39509.9269759568, -39035.69001384855, -7488.9743314950865, -46140.48256164582, 0.016, 0.772, 0.672, 192.0, 0.0, 0.0, 0.0, 0.0, 0.0, 0.0, 0.0, 0.0, 0.0, 1.6541564810450103E9, 0.0, 2022-06-02 09:54:41.045
149.0, 22603.961539740747, 1151.5171708485093, -75896.0188503288, -54035.655145127195, -39474.49946099514, -38995.76979825137, -7424.42249350816, -46092.47101455582, 0.016, 0.772, 0.672, 192.0, 0.0, 0.0, 0.0, 0.0, 0.0, 0.0, 0.0, 0.0, 0.0, 1.6541564810450177E9, 0.0, 2022-06-02 09:54:41.045
150.0, 22601.771068784128, 1154.266435416512, -75898.41048698551, -54035.05164802691, -39478.14279534135, -38997.736751763434, -7432.156197089696, -46120.70126780287, 0.016, 0.772, 0.672, 192.0, 0.0, 0.0, 0.0, 0.0, 0.0, 0.0, 0.0, 0.0, 0.0, 1.6541564810450337E9, 0.0, 2022-06-02 09:54:41.045
151.0, 22592.673908790817, 1135.0886386738587, -75934.91088568102, -54067.23816004255, -39516.274871382106, -39030.750278323925, -7496.931552521176, -46183.28615227773, 0.016, 0.772, 0.672, 192.0, 0.0, 0.0, 0.0, 0.0, 0.0, 0.0, 0.0, 0.0, 0.0, 1.6541564810450404E9, 0.0, 2022-06-02 09:54:41.045
152.0, 22604.27446416312, 1134.105161917825, -75934.93323742547, -54068.62396819878, -39518.46534233873, -39030.99614751293, -7445.321374573872, -46154.9441403084, 0.016, 0.772, 0.672, 192.0, 0.0, 0.0, 0.0, 0.0, 0.0, 0.0, 0.0, 0.0, 0.0, 1.6541564810450463E9, 0.0, 2022-06-02 09:54:41.045
