%OpenBCI Raw EEG Data
%Number of channels = 8
%Sample Rate = 250 Hz
%Board = OpenBCI_GUI$BoardCytonSerial
Sample Index, EXG Channel 0, EXG Channel 1, EXG Channel 2, EXG Channel 3, EXG Channel 4, EXG Channel 5, EXG Channel 6, EXG Channel 7, Accel Channel 0, Accel Channel 1, Accel Channel 2, Other, Other, Other, Other, Other, Other, Other, Analog Channel 0, Analog Channel 1, Analog Channel 2, Timestamp, Other, Timestamp (Formatted)
0.0, 0.0, 0.0, 0.0, 0.0, 0.0, 0.0, 0.0, 0.0, 0.012, 0.776, 0.654, 192.0, 0.0, 96.0, 24.0, 64.0, 20.0, 112.0, 0.0, 0.0, 0.0, 1.6541568641368363E9, 0.0, 2022-06-02 10:01:04.136
1.0, 25478.641745882243, 12322.24849727732, -71219.27395096708, -53264.9222928193, -37134.33887175785, -45041.31317631164, -9732.955364341184, -45406.808901644814, 0.012, 0.776, 0.654, 192.0, 0.0, 0.0, 0.0, 0.0, 0.0, 0.0, 0.0, 0.0, 0.0, 1.654156864620725E9, 0.0, 2022-06-02 10:01:04.620
2.0, 25478.597042393332, 12324.640133934037, -71202.51014262559, -53249.25371995613, -37118.022098305475, -45027.633908704986, -9713.084663520416, -45388.167546769095, 0.012, 0.776, 0.654, 192.0, 0.0, 0.0, 0.0, 0.0, 0.0, 0.0, 0.0, 0.0, 0.0, 1.6541568646207328E9, 0.0, 2022-06-02 10:01:04.620
3.0, 25477.36769644829, 12326.227107790364, -71184.2487674056, -53233.89807151534, -37099.1572259852, -45013.26173702023, -9703.965151782651, -45385.03830254535, 0.012, 0.776, 0.654, 192.0, 0.0, 0.0, 0.0, 0.0, 0.0, 0.0, 0.0, 0.0, 0.0, 1.6541568646207385E9, 0.0, 2022-06-02 10:01:04.620
4.0, 25466.41534166519, 12315.76649138528, -71197.32453791196, -53239.754228562626, -37110.02017379048, -45016.167463799415, -9715.900983321784, -45389.73216888096, 0.012, 0.776, 0.654, 192.0, 0.0, 0.0, 0.0, 0.0, 0.0, 0.0, 0.0, 0.0, 0.0, 1.654156864620744E9, 0.0, 2022-06-02 10:01:04.620
5.0, 25462.637896852244, 12310.513831438284, -71225.53243941456, -53258.820266583, -37137.0657845814, -45034.65235646396, -9739.057390577484, -45413.29090753686, 0.012, 0.776, 0.654, 192.0, 0.0, 0.0, 0.0, 0.0, 0.0, 0.0, 0.0, 0.0, 0.0, 1.65415686462075E9, 0.0, 2022-06-02 10:01:04.620
6.0, 25457.631106094257, 12299.695587121914, -71235.74718663063, -53272.79010686757, -37161.9209244157, -45054.903036940465, -9765.745373457119, -45430.36764030071, 0.012, 0.776, 0.654, 192.0, 0.0, 0.0, 0.0, 0.0, 0.0, 0.0, 0.0, 0.0, 0.0, 1.6541568646207557E9, 0.0, 2022-06-02 10:01:04.620
7.0, 25458.100492727815, 12299.472069677362, -71218.82691607796, -53257.099182259946, -37151.728528944084, -45041.268472822725, -9748.4004197598, -45410.385180757665, 0.006, 0.772, 0.65, 192.0, 0.0, 48.0, 24.0, 32.0, 20.0, 80.0, 0.0, 0.0, 0.0, 1.6541568646207612E9, 0.0, 2022-06-02 10:01:04.620
8.0, 25459.486300884048, 12305.283523235741, -71196.05048847801, -53236.28970817205, -37131.12022055629, -45023.297670280655, -9727.97092532765, -45397.957610840516, 0.006, 0.772, 0.65, 192.0, 0.0, 0.0, 0.0, 0.0, 0.0, 0.0, 0.0, 0.0, 0.0, 1.6541568646207669E9, 0.0, 2022-06-02 10:01:04.620
9.0, 25467.66703935469, 12314.604200673604, -71190.1049244529, -53223.48215859916, -37118.938519828145, -45016.033353332685, -9724.819329359452, -45414.453198248535, 0.006, 0.772, 0.65, 192.0, 0.0, 0.0, 0.0, 0.0, 0.0, 0.0, 0.0, 0.0, 0.0, 1.6541568646207724E9, 0.0, 2022-06-02 10:01:04.620
10.0, 25453.18310894765, 12297.326302209653, -71228.50522142711, -53255.57926363698, -37144.71008118511, -45054.00896716225, -9756.379992530346, -45464.364643617235, 0.006, 0.772, 0.65, 192.0, 0.0, 0.0, 0.0, 0.0, 0.0, 0.0, 0.0, 0.0, 0.0, 1.6541568646207783E9, 0.0, 2022-06-02 10:01:04.620
11.0, 25454.233640937047, 12295.71697660887, -71233.17673601827, -53265.25756898613, -37159.68574997017, -45067.19649639088, -9770.84157119293, -45444.69510849656, 0.006, 0.772, 0.65, 192.0, 0.0, 0.0, 0.0, 0.0, 0.0, 0.0, 0.0, 0.0, 0.0, 1.654156864620784E9, 0.0, 2022-06-02 10:01:04.620
12.0, 25465.722437587076, 12302.24368598982, -71206.55580837201, -53240.938871018756, -37143.72660442908, -45034.67470820841, -9755.30710879649, -45413.08974183676, 0.006, 0.772, 0.65, 192.0, 0.0, 0.0, 0.0, 0.0, 0.0, 0.0, 0.0, 0.0, 0.0, 1.6541568646207895E9, 0.0, 2022-06-02 10:01:04.620
13.0, 25467.622335865777, 12302.444851689917, -71185.00872671709, -53221.53755683155, -37122.648909407726, -45006.06447530562, -9728.797939872496, -45373.057767517304, 0.006, 0.772, 0.65, 192.0, 0.0, 0.0, 0.0, 0.0, 0.0, 0.0, 0.0, 0.0, 0.0, 1.654156864620795E9, 0.0, 2022-06-02 10:01:04.620
14.0, 25467.220004465584, 12307.406938958997, -71194.15059019931, -53222.05164695402, -37121.5089704405, -45008.16553928442, -9754.345983784913, -45404.97605859948, 0.006, 0.772, 0.65, 192.0, 0.0, 0.0, 0.0, 0.0, 0.0, 0.0, 0.0, 0.0, 0.0, 1.6541568646208007E9, 0.0, 2022-06-02 10:01:04.620
15.0, 25464.582498619857, 12309.932686082446, -71212.63548286384, -53237.69786807273, -37122.13481928525, -45022.64946969145, -9707.675541362232, -45401.69035216455, 0.006, 0.772, 0.65, 192.0, 0.0, 0.0, 0.0, 0.0, 0.0, 0.0, 0.0, 0.0, 0.0, 1.6541568646208065E9, 0.0, 2022-06-02 10:01:04.620
16.0, 25468.628164366266, 12314.96182858489, -71213.23897996414, -53242.63760359736, -37126.94044434315, -45030.13730408398, -9665.318985619424, -45373.39304368413, 0.006, 0.772, 0.65, 192.0, 0.0, 0.0, 0.0, 0.0, 0.0, 0.0, 0.0, 0.0, 0.0, 1.654156864620812E9, 0.0, 2022-06-02 10:01:04.620
17.0, 25464.47073989758, 12311.76552912778, -71204.74531707112, -53234.05453372652, -37126.58281643186, -45019.52022546771, -9666.905959475751, -45350.16958119507, 0.006, 0.78, 0.648, 192.0, 0.0, 48.0, 24.0, 96.0, 20.0, 64.0, 0.0, 0.0, 0.0, 1.654156864620818E9, 0.0, 2022-06-02 10:01:04.620
18.0, 25469.857510311307, 12315.006532073801, -71181.0524679485, -53215.23436489515, -37105.59452838833, -45004.76807412721, -9662.748535007064, -45345.40865962609, 0.006, 0.78, 0.648, 192.0, 0.0, 0.0, 0.0, 0.0, 0.0, 0.0, 0.0, 0.0, 0.0, 1.6541568646208236E9, 0.0, 2022-06-02 10:01:04.620
19.0, 25477.099475514828, 12322.717883910882, -71179.66665979227, -53212.03806543804, -37103.78403708745, -45001.19179501436, -9700.768852325542, -45361.18899121154, 0.006, 0.78, 0.648, 192.0, 0.0, 0.0, 0.0, 0.0, 0.0, 0.0, 0.0, 0.0, 0.0, 1.654156864620829E9, 0.0, 2022-06-02 10:01:04.620
20.0, 25478.351173204326, 12325.15422405651, -71208.54511362853, -53231.77465579208, -37126.001671076025, -45021.62128944651, -9744.3994575023, -45406.42892198908, 0.006, 0.78, 0.648, 192.0, 0.0, 0.0, 0.0, 0.0, 0.0, 0.0, 0.0, 0.0, 0.0, 1.6541568646208348E9, 0.0, 2022-06-02 10:01:04.620
21.0, 25470.12573124477, 12315.140642540533, -71220.57035214549, -53247.085600743965, -37139.63623519376, -45041.02260363372, -9738.185672543726, -45410.85456739123, 0.006, 0.78, 0.648, 192.0, 0.0, 0.0, 0.0, 0.0, 0.0, 0.0, 0.0, 0.0, 0.0, 1.6541568646208403E9, 0.0, 2022-06-02 10:01:04.620
22.0, 25465.253050953514, 12308.569229670673, -71209.39447991783, -53243.44226639775, -37130.44966822263, -45039.83796117759, -9720.550146168489, -45399.5669364413, 0.006, 0.78, 0.648, 192.0, 0.0, 0.0, 0.0, 0.0, 0.0, 0.0, 0.0, 0.0, 0.0, 1.654156864620855E9, 0.0, 2022-06-02 10:01:04.620
23.0, 25460.581536362355, 12305.127061024556, -71192.8541890209, -53231.32762090297, -37120.30197623992, -45030.74080118428, -9718.292619978503, -45403.07616032078, 0.006, 0.78, 0.648, 192.0, 0.0, 0.0, 0.0, 0.0, 0.0, 0.0, 0.0, 0.0, 0.0, 1.6541568646208606E9, 0.0, 2022-06-02 10:01:04.620
24.0, 25460.760350318, 12305.551744169206, -71194.19529368822, -53229.71829530219, -37124.28058675296, -45027.008059860236, -9729.088512550416, -45407.5688609563, 0.006, 0.78, 0.648, 192.0, 0.0, 0.0, 0.0, 0.0, 0.0, 0.0, 0.0, 0.0, 0.0, 1.654156864620866E9, 0.0, 2022-06-02 10:01:04.620
25.0, 25466.370638176282, 12310.312665738185, -71213.39544217533, -53240.60359485193, -37139.03273809347, -45039.36857454402, -9760.716230954675, -45439.44244854957, 0.006, 0.78, 0.648, 192.0, 0.0, 0.0, 0.0, 0.0, 0.0, 0.0, 0.0, 0.0, 0.0, 1.6541568646208713E9, 0.0, 2022-06-02 10:01:04.620
26.0, 25468.426998666167, 12308.613933159582, -71217.48581141065, -53248.136132733365, -37142.81018290641, -45055.23831310729, -9747.640460448321, -45429.339460055766, 0.006, 0.78, 0.648, 192.0, 0.0, 0.0, 0.0, 0.0, 0.0, 0.0, 0.0, 0.0, 0.0, 1.6541568646208763E9, 0.0, 2022-06-02 10:01:04.620
27.0, 25473.52319640198, 12315.833546618647, -71195.69286056672, -53229.67359181328, -37127.052203065425, -45040.82143793362, -9720.505442679578, -45377.30459896381, 0.006, 0.778, 0.646, 192.0, 0.0, 48.0, 24.0, 80.0, 20.0, 48.0, 0.0, 0.0, 0.0, 1.6541568646208816E9, 0.0, 2022-06-02 10:01:04.620
28.0, 25470.61746962279, 12312.301970994708, -71183.1535319273, -53218.76594051909, -37122.715964641095, -45028.63973720548, -9729.580250928433, -45385.82061360128, 0.006, 0.778, 0.646, 192.0, 0.0, 0.0, 0.0, 0.0, 0.0, 0.0, 0.0, 0.0, 0.0, 1.6541568646208875E9, 0.0, 2022-06-02 10:01:04.620
29.0, 25468.449350410625, 12313.643075662027, -71188.74146804112, -53217.7601120186, -37120.72665938457, -45011.76417014172, -9740.130274311337, -45398.002314329424, 0.006, 0.778, 0.646, 192.0, 0.0, 0.0, 0.0, 0.0, 0.0, 0.0, 0.0, 0.0, 0.0, 1.6541568646208928E9, 0.0, 2022-06-02 10:01:04.620
30.0, 25470.148082989228, 12316.504098952306, -71204.56650311548, -53229.45007436873, -37113.484694181054, -45012.680591664386, -9716.63859088881, -45388.05578804681, 0.006, 0.778, 0.646, 192.0, 0.0, 0.0, 0.0, 0.0, 0.0, 0.0, 0.0, 0.0, 0.0, 1.654156864620898E9, 0.0, 2022-06-02 10:01:04.620
31.0, 25478.507635415514, 12319.633343176049, -71208.38865141734, -53237.58610935046, -37122.20187451862, -45027.05276334915, -9714.559878654467, -45399.52223295239, 0.006, 0.778, 0.646, 192.0, 0.0, 0.0, 0.0, 0.0, 0.0, 0.0, 0.0, 0.0, 0.0, 1.6541568646209033E9, 0.0, 2022-06-02 10:01:04.620
32.0, 25476.47362667008, 12312.637247161538, -71197.6598140788, -53232.22169068119, -37124.2135315196, -45020.503702223745, -9704.702759349675, -45378.73511060895, 0.006, 0.778, 0.646, 192.0, 0.0, 0.0, 0.0, 0.0, 0.0, 0.0, 0.0, 0.0, 0.0, 1.6541568646209085E9, 0.0, 2022-06-02 10:01:04.620
33.0, 25469.656344611212, 12303.160107512487, -71194.15059019931, -53226.96903073419, -37123.00653731901, -45009.79721662965, -9712.97290479814, -45364.63115985765, 0.006, 0.778, 0.646, 192.0, 0.0, 0.0, 0.0, 0.0, 0.0, 0.0, 0.0, 0.0, 0.0, 1.6541568646209145E9, 0.0, 2022-06-02 10:01:04.620
34.0, 25472.89734755723, 12309.731520382347, -71203.49361938162, -53229.98651623566, -37125.576987931374, -45010.49012070777, -9732.709495152176, -45380.545601909835, 0.006, 0.778, 0.646, 192.0, 0.0, 0.0, 0.0, 0.0, 0.0, 0.0, 0.0, 0.0, 0.0, 1.65415686462092E9, 0.0, 2022-06-02 10:01:04.620
35.0, 25477.837083081853, 12315.565325685184, -71221.97851204616, -53242.056458241525, -37129.39913623323, -45022.872987136005, -9732.485977707622, -45396.01300907291, 0.006, 0.778, 0.646, 192.0, 0.0, 0.0, 0.0, 0.0, 0.0, 0.0, 0.0, 0.0, 0.0, 1.6541568646209257E9, 0.0, 2022-06-02 10:01:04.620
36.0, 25481.748638361532, 12319.901564109512, -71228.10289002692, -53250.39365892335, -37133.198932790634, -45038.34039429908, -9719.566669412456, -45400.50570970842, 0.006, 0.778, 0.646, 192.0, 0.0, 0.0, 0.0, 0.0, 0.0, 0.0, 0.0, 0.0, 0.0, 1.654156864620931E9, 0.0, 2022-06-02 10:01:04.620
37.0, 25487.828312853377, 12324.841299634136, -71215.76472708759, -53243.35285941993, -37131.74606940104, -45033.87004540802, -9733.268288763558, -45404.439616732554, 0.008, 0.776, 0.648, 192.0, 0.0, 64.0, 24.0, 64.0, 20.0, 64.0, 0.0, 0.0, 0.0, 1.654156864620936E9, 0.0, 2022-06-02 10:01:04.620
38.0, 25481.10043777233, 12319.29806700922, -71194.7093838107, -53229.02539122408, -37121.039583806945, -45015.94394635486, -9719.477262434633, -45388.88280259166, 0.008, 0.776, 0.648, 192.0, 0.0, 0.0, 0.0, 0.0, 0.0, 0.0, 0.0, 0.0, 0.0, 1.6541568646209412E9, 0.0, 2022-06-02 10:01:04.620
39.0, 25466.6612108542, 12304.098880779611, -71194.68703206624, -53225.87379525588, -37119.4079064617, -45007.04795206165, -9709.73190185212, -45378.91392456459, 0.008, 0.776, 0.648, 192.0, 0.0, 0.0, 0.0, 0.0, 0.0, 0.0, 0.0, 0.0, 0.0, 1.6541568646209464E9, 0.0, 2022-06-02 10:01:04.620
40.0, 25463.19669046363, 12299.539124910729, -71222.1126225129, -53246.77267632159, -37135.05412758042, -45030.76315292873, -9721.801843857986, -45402.495014964945, 0.008, 0.776, 0.648, 192.0, 0.0, 0.0, 0.0, 0.0, 0.0, 0.0, 0.0, 0.0, 0.0, 1.6541568646209526E9, 0.0, 2022-06-02 10:01:04.620
41.0, 25464.202518964117, 12296.231066731343, -71241.22336402218, -53272.41012721183, -37160.4233575372, -45079.60171456358, -9779.961082930695, -45477.84274552378, 0.008, 0.776, 0.648, 192.0, 0.0, 0.0, 0.0, 0.0, 0.0, 0.0, 0.0, 0.0, 0.0, 1.6541568646209576E9, 0.0, 2022-06-02 10:01:04.620
42.0, 25469.723399844577, 12302.646017390016, -71215.27298870958, -53252.85235081343, -37146.63233120827, -45064.335473100604, -9773.233207849647, -45464.87873373971, 0.008, 0.776, 0.648, 192.0, 0.0, 0.0, 0.0, 0.0, 0.0, 0.0, 0.0, 0.0, 0.0, 1.6541568646209629E9, 0.0, 2022-06-02 10:01:04.620
43.0, 25453.585440347844, 12290.084337006134, -71207.38282291684, -53243.55402512003, -37146.94525563064, -45033.44536226337, -9754.100114595904, -45394.42603521658, 0.008, 0.776, 0.648, 192.0, 0.0, 0.0, 0.0, 0.0, 0.0, 0.0, 0.0, 0.0, 0.0, 1.6541568646209705E9, 0.0, 2022-06-02 10:01:04.620
44.0, 25456.290001426936, 12297.460412676384, -71200.49848562462, -53230.76882729159, -37132.93071185717, -45011.09361780806, -9713.486994920611, -45354.84109578623, 0.008, 0.776, 0.648, 192.0, 0.0, 0.0, 0.0, 0.0, 0.0, 0.0, 0.0, 0.0, 0.0, 1.6541568646209755E9, 0.0, 2022-06-02 10:01:04.620
45.0, 25467.532928887955, 12312.77135762827, -71212.81429681949, -53236.42381863878, -37133.98124384657, -45019.38611500098, -9720.036056046016, -45367.13455523665, 0.008, 0.776, 0.648, 192.0, 0.0, 0.0, 0.0, 0.0, 0.0, 0.0, 0.0, 0.0, 0.0, 1.6541568646209807E9, 0.0, 2022-06-02 10:01:04.620
46.0, 25457.47464388307, 12301.170802255965, -71236.52949768657, -53265.190513752765, -37162.21149709362, -45059.6863102539, -9762.213797833181, -45418.38710527267, 0.008, 0.776, 0.648, 192.0, 0.0, 0.0, 0.0, 0.0, 0.0, 0.0, 0.0, 0.0, 0.0, 1.654156864620986E9, 0.0, 2022-06-02 10:01:04.620
47.0, 25452.26668742498, 12288.609121872083, -71226.7170818707, -53261.59188289546, -37159.417529036706, -45054.634816007, -9742.700724923698, -45418.7223814395, 0.01, 0.772, 0.65, 192.0, 0.0, 80.0, 24.0, 32.0, 20.0, 80.0, 0.0, 0.0, 0.0, 1.6541568646209912E9, 0.0, 2022-06-02 10:01:04.620
48.0, 25469.99162077804, 12302.24368598982, -71191.28956690902, -53229.22655692417, -37128.303900754916, -45020.41429524592, -9726.383951471324, -45387.00525605742, 0.01, 0.772, 0.65, 192.0, 0.0, 0.0, 0.0, 0.0, 0.0, 0.0, 0.0, 0.0, 0.0, 1.6541568646209965E9, 0.0, 2022-06-02 10:01:04.620
49.0, 25474.685487113657, 12308.233953503843, -71191.06604946447, -53226.23142316716, -37117.35154597182, -45021.487178979776, -9726.518061938055, -45404.171395799094, 0.01, 0.772, 0.65, 192.0, 0.0, 0.0, 0.0, 0.0, 0.0, 0.0, 0.0, 0.0, 0.0, 1.6541568646210015E9, 0.0, 2022-06-02 10:01:04.621
50.0, 25479.267594726993, 12308.837450604136, -71214.69184335374, -53241.005926252124, -37129.66735716669, -45032.037202362684, -9735.279945764536, -45425.71847745401, 0.01, 0.772, 0.65, 192.0, 0.0, 0.0, 0.0, 0.0, 0.0, 0.0, 0.0, 0.0, 0.0, 1.6541568646210067E9, 0.0, 2022-06-02 10:01:04.621
51.0, 25483.179150006672, 12307.809270359192, -71225.7112533702, -53251.6677083573, -37149.9180376432, -45038.34039429908, -9742.343097012414, -45417.96242212802, 0.01, 0.772, 0.65, 192.0, 0.0, 0.0, 0.0, 0.0, 0.0, 0.0, 0.0, 0.0, 0.0, 1.6541568646210124E9, 0.0, 2022-06-02 10:01:04.621
52.0, 25487.67185064219, 12309.396244215519, -71207.74045082813, -53243.0175832531, -37148.77809867598, -45034.65235646396, -9741.806655145485, -45409.98284935747, 0.01, 0.772, 0.65, 192.0, 0.0, 0.0, 0.0, 0.0, 0.0, 0.0, 0.0, 0.0, 0.0, 1.6541568646210175E9, 0.0, 2022-06-02 10:01:04.621
53.0, 25471.55624288991, 12299.42736618845, -71203.73948857063, -53243.799894309035, -37145.49239224105, -45039.033298377195, -9758.346946042413, -45428.98183214448, 0.01, 0.772, 0.65, 192.0, 0.0, 0.0, 0.0, 0.0, 0.0, 0.0, 0.0, 0.0, 0.0, 1.6541568646210234E9, 0.0, 2022-06-02 10:01:04.621
54.0, 25465.18599572015, 12299.874401077557, -71206.33229092744, -53247.04089725506, -37142.60901720631, -45043.32483331261, -9758.481056509145, -45430.90408216764, 0.01, 0.772, 0.65, 192.0, 0.0, 0.0, 0.0, 0.0, 0.0, 0.0, 0.0, 0.0, 0.0, 1.654156864621029E9, 0.0, 2022-06-02 10:01:04.621
55.0, 25467.644687610235, 12304.031825546244, -71222.7608231021, -53257.18858923776, -37148.17460157569, -45051.37146131652, -9743.661849935275, -45433.58629150227, 0.01, 0.772, 0.65, 192.0, 0.0, 0.0, 0.0, 0.0, 0.0, 0.0, 0.0, 0.0, 0.0, 1.654156864621034E9, 0.0, 2022-06-02 10:01:04.621
56.0, 25467.979963777063, 12301.282560978241, -71237.84825060943, -53270.44317369976, -37170.86162219782, -45067.82234523563, -9777.681204996254, -45463.09059418328, 0.01, 0.772, 0.65, 192.0, 0.0, 0.0, 0.0, 0.0, 0.0, 0.0, 0.0, 0.0, 0.0, 1.6541568646210392E9, 0.0, 2022-06-02 10:01:04.621
57.0, 25485.79430410794, 12318.292238508731, -71209.32742468447, -53245.118647231895, -37140.10562182732, -45046.85640893655, -9779.178771874758, -45437.98958515997, 0.004, 0.78, 0.652, 192.0, 0.0, 32.0, 24.0, 96.0, 20.0, 96.0, 0.0, 0.0, 0.0, 1.6541568646210444E9, 0.0, 2022-06-02 10:01:04.621
58.0, 25475.7136673586, 12311.810232616692, -71199.58206410195, -53233.383981392864, -37134.69649966914, -45023.81176040313, -9747.819274403962, -45383.87601183367, 0.004, 0.78, 0.652, 192.0, 0.0, 0.0, 0.0, 0.0, 0.0, 0.0, 0.0, 0.0, 0.0, 1.6541568646210496E9, 0.0, 2022-06-02 10:01:04.621
59.0, 25469.969269033583, 12308.412767459486, -71204.09711648192, -53236.08854247195, -37137.9151508707, -45026.2257488043, -9738.699762666198, -45401.19861378654, 0.004, 0.78, 0.652, 192.0, 0.0, 0.0, 0.0, 0.0, 0.0, 0.0, 0.0, 0.0, 0.0, 1.654156864621055E9, 0.0, 2022-06-02 10:01:04.621
60.0, 25492.253958255526, 12328.43993049144, -71206.98049151666, -53232.64637382584, -37134.7635549025, -45030.13730408398, -9741.761951656576, -45430.3229368118, 0.004, 0.78, 0.652, 192.0, 0.0, 0.0, 0.0, 0.0, 0.0, 0.0, 0.0, 0.0, 0.0, 1.6541568646210625E9, 0.0, 2022-06-02 10:01:04.621
61.0, 25485.079048285374, 12316.124119296566, -71222.7608231021, -53250.930100790276, -37155.8188981794, -45047.415202547934, -9757.318765797469, -45434.81563744732, 0.004, 0.78, 0.652, 192.0, 0.0, 0.0, 0.0, 0.0, 0.0, 0.0, 0.0, 0.0, 0.0, 1.6541568646210678E9, 0.0, 2022-06-02 10:01:04.621
62.0, 25477.18888249265, 12309.373892471063, -71211.65200610782, -53244.47044664269, -37151.77323243299, -45041.35787980055, -9750.434428505234, -45408.08295107877, 0.004, 0.78, 0.652, 192.0, 0.0, 0.0, 0.0, 0.0, 0.0, 0.0, 0.0, 0.0, 0.0, 1.6541568646210744E9, 0.0, 2022-06-02 10:01:04.621
63.0, 25473.769065590986, 12309.686816893438, -71198.15155245681, -53233.182815692766, -37146.94525563064, -45040.150885599964, -9749.629765704844, -45431.41817229011, 0.004, 0.78, 0.652, 192.0, 0.0, 0.0, 0.0, 0.0, 0.0, 0.0, 0.0, 0.0, 0.0, 1.6541568646210828E9, 0.0, 2022-06-02 10:01:04.621
64.0, 25471.735056845555, 12307.317531981174, -71203.29245368153, -53233.786312793054, -37140.753822416526, -45042.34135655658, -9757.698745453208, -45448.94193994307, 0.004, 0.78, 0.652, 192.0, 0.0, 0.0, 0.0, 0.0, 0.0, 0.0, 0.0, 0.0, 0.0, 1.654156864621099E9, 0.0, 2022-06-02 10:01:04.621
65.0, 25472.696181857133, 12304.38945345753, -71220.0115585341, -53247.376173421886, -37140.99969160553, -45050.499743282766, -9752.490788995123, -45440.67179449461, 0.004, 0.78, 0.652, 192.0, 0.0, 0.0, 0.0, 0.0, 0.0, 0.0, 0.0, 0.0, 0.0, 1.6541568646211083E9, 0.0, 2022-06-02 10:01:04.621
66.0, 25486.822484352888, 12314.268924506776, -71217.28464571055, -53244.49279838715, -37144.33010152938, -45047.50460952576, -9749.495655238112, -45415.81665466031, 0.004, 0.78, 0.652, 192.0, 0.0, 0.0, 0.0, 0.0, 0.0, 0.0, 0.0, 0.0, 0.0, 1.6541568646211195E9, 0.0, 2022-06-02 10:01:04.621
67.0, 25478.887615071253, 12304.85884009109, -71216.03294802105, -53245.83390305447, -37156.914133657716, -45047.571664759125, -9774.12727762786, -45401.98092484247, 0.004, 0.778, 0.648, 192.0, 0.0, 32.0, 24.0, 80.0, 20.0, 64.0, 0.0, 0.0, 0.0, 1.654156864621128E9, 0.0, 2022-06-02 10:01:04.621
68.0, 25464.582498619857, 12293.05711901869, -71213.79777357553, -53245.25275769863, -37160.199840092646, -45050.09741188257, -9789.661740024298, -45423.48330300848, 0.004, 0.778, 0.648, 192.0, 0.0, 0.0, 0.0, 0.0, 0.0, 0.0, 0.0, 0.0, 0.0, 1.654156864621133E9, 0.0, 2022-06-02 10:01:04.621
69.0, 25459.26278343949, 12295.851087075602, -71214.24480846463, -53244.44809489824, -37149.04631960944, -45050.74561247178, -9784.006748677106, -45440.80590496134, 0.004, 0.778, 0.648, 192.0, 0.0, 0.0, 0.0, 0.0, 0.0, 0.0, 0.0, 0.0, 0.0, 1.6541568646211388E9, 0.0, 2022-06-02 10:01:04.621
70.0, 25451.84200428033, 12291.224275973354, -71237.17769827577, -53267.44803994275, -37159.70810171463, -45076.695987784384, -9770.036908392538, -45471.40544312065, 0.004, 0.778, 0.648, 192.0, 0.0, 0.0, 0.0, 0.0, 0.0, 0.0, 0.0, 0.0, 0.0, 1.6541568646211443E9, 0.0, 2022-06-02 10:01:04.621
71.0, 25460.402722406714, 12300.634360389038, -71232.88616334036, -53269.1244207769, -37164.78194770598, -45080.47343259733, -9757.676393708754, -45459.22374239251, 0.004, 0.778, 0.648, 192.0, 0.0, 0.0, 0.0, 0.0, 0.0, 0.0, 0.0, 0.0, 0.0, 1.6541568646211498E9, 0.0, 2022-06-02 10:01:04.621
72.0, 25471.62329812328, 12309.418595959974, -71212.09904099692, -53253.657013613825, -37151.370901032795, -45059.4851445538, -9763.93488215624, -45439.397745060654, 0.004, 0.778, 0.648, 192.0, 0.0, 0.0, 0.0, 0.0, 0.0, 0.0, 0.0, 0.0, 0.0, 1.6541568646211553E9, 0.0, 2022-06-02 10:01:04.621
73.0, 25470.013972522494, 12302.511906923284, -71200.96787225817, -53244.58220536497, -37137.803392148424, -45040.01677513323, -9750.434428505234, -45406.94301211155, 0.004, 0.778, 0.648, 192.0, 0.0, 0.0, 0.0, 0.0, 0.0, 0.0, 0.0, 0.0, 0.0, 1.6541568646211605E9, 0.0, 2022-06-02 10:01:04.621
74.0, 25483.13444651776, 12315.34180824063, -71188.54030234102, -53228.064266212496, -37122.89477859673, -45032.55129248516, -9748.556881970988, -45412.01685810291, 0.004, 0.778, 0.648, 192.0, 0.0, 0.0, 0.0, 0.0, 0.0, 0.0, 0.0, 0.0, 0.0, 1.6541568646211658E9, 0.0, 2022-06-02 10:01:04.621
75.0, 25489.504693687522, 12328.328171769164, -71203.00188100361, -53230.85823426941, -37125.0628978089, -45035.36761228652, -9748.288661037524, -45436.31320432582, 0.004, 0.778, 0.648, 192.0, 0.0, 0.0, 0.0, 0.0, 0.0, 0.0, 0.0, 0.0, 0.0, 1.6541568646211708E9, 0.0, 2022-06-02 10:01:04.621
76.0, 25479.938147060653, 12316.235878018842, -71214.24480846463, -53251.95828103522, -37139.6138834493, -45057.562894530645, -9736.285774265025, -45449.63484402119, 0.004, 0.778, 0.648, 192.0, 0.0, 0.0, 0.0, 0.0, 0.0, 0.0, 0.0, 0.0, 0.0, 1.6541568646211765E9, 0.0, 2022-06-02 10:01:04.621
77.0, 25487.873016342284, 12317.465223963884, -71194.73173555515, -53235.127417460375, -37135.501162469525, -45037.62513847651, -9729.982582328628, -45405.624259188684, 0.004, 0.776, 0.642, 192.0, 0.0, 32.0, 24.0, 64.0, 20.0, 16.0, 0.0, 0.0, 0.0, 1.6541568646211815E9, 0.0, 2022-06-02 10:01:04.621
78.0, 25475.7136673586, 12304.702377879905, -71192.04952622051, -53231.282917414064, -37141.02204334999, -45028.684440694386, -9739.705591166687, -45390.35801772571, 0.004, 0.776, 0.642, 192.0, 0.0, 0.0, 0.0, 0.0, 0.0, 0.0, 0.0, 0.0, 0.0, 1.654156864621187E9, 0.0, 2022-06-02 10:01:04.621
79.0, 25472.964402790596, 12299.62853188855, -71194.82114253296, -53234.30040291553, -37135.434107236164, -45035.09939135306, -9731.033114318028, -45404.70783766602, 0.004, 0.776, 0.642, 192.0, 0.0, 0.0, 0.0, 0.0, 0.0, 0.0, 0.0, 0.0, 0.0, 1.6541568646211922E9, 0.0, 2022-06-02 10:01:04.621
80.0, 25464.336629430847, 12290.978406784345, -71224.59366614744, -53259.11083926092, -37154.18722083417, -45059.10516489806, -9761.83381817744, -45444.69510849656, 0.004, 0.776, 0.642, 192.0, 0.0, 0.0, 0.0, 0.0, 0.0, 0.0, 0.0, 0.0, 0.0, 1.6541568646211977E9, 0.0, 2022-06-02 10:01:04.621
81.0, 25477.054772025916, 12303.808308101692, -71220.12331725638, -53252.762943835616, -37150.34272078785, -45054.835981707096, -9735.16818704226, -45420.57757622928, 0.004, 0.776, 0.642, 192.0, 0.0, 0.0, 0.0, 0.0, 0.0, 0.0, 0.0, 0.0, 0.0, 1.6541568646212027E9, 0.0, 2022-06-02 10:01:04.621
82.0, 25480.943975561142, 12302.646017390016, -71205.25940719359, -53240.514187874105, -37140.0162148495, -45043.97303390182, -9729.423788717246, -45409.51346272391, 0.004, 0.776, 0.642, 192.0, 0.0, 0.0, 0.0, 0.0, 0.0, 0.0, 0.0, 0.0, 0.0, 1.6541568646212084E9, 0.0, 2022-06-02 10:01:04.621
83.0, 25473.746713846533, 12297.661578376483, -71194.9105495108, -53233.60749883742, -37129.51089495551, -45038.899187910465, -9723.500576436589, -45412.84387264775, 0.004, 0.776, 0.642, 192.0, 0.0, 0.0, 0.0, 0.0, 0.0, 0.0, 0.0, 0.0, 0.0, 1.6541568646212137E9, 0.0, 2022-06-02 10:01:04.621
84.0, 25466.258879454002, 12292.76654634077, -71195.22347393316, -53235.283879671566, -37119.63142390626, -45038.65331872145, -9714.179898998726, -45407.658267934115, 0.004, 0.776, 0.642, 192.0, 0.0, 0.0, 0.0, 0.0, 0.0, 0.0, 0.0, 0.0, 0.0, 1.6541568646212192E9, 0.0, 2022-06-02 10:01:04.621
85.0, 25467.309411443402, 12293.928837052446, -71216.36822418789, -53249.27607170059, -37129.48854321105, -45048.68925198189, -9748.579233715443, -45425.070276864804, 0.004, 0.776, 0.642, 192.0, 0.0, 0.0, 0.0, 0.0, 0.0, 0.0, 0.0, 0.0, 0.0, 1.6541568646212244E9, 0.0, 2022-06-02 10:01:04.621
86.0, 25459.28513518395, 12296.543991153716, -71227.87937258236, -53261.72599336219, -37156.8694301688, -45066.6377027795, -9771.378013059857, -45435.8214659478, 0.004, 0.776, 0.642, 192.0, 0.0, 0.0, 0.0, 0.0, 0.0, 0.0, 0.0, 0.0, 0.0, 1.654156864621234E9, 0.0, 2022-06-02 10:01:04.621
87.0, 25449.696236812622, 12292.140697496021, -71217.2622939661, -53258.52969390508, -37156.98118889108, -45068.58230454711, -9768.65110023631, -45431.641689734664, 0.008, 0.78, 0.648, 192.0, 0.0, 64.0, 24.0, 96.0, 20.0, 64.0, 0.0, 0.0, 0.0, 1.6541568646212392E9, 0.0, 2022-06-02 10:01:04.621
88.0, 25464.04605675293, 12302.891886579024, -71191.11075295339, -53239.26249018461, -37136.23877003655, -45052.57845551711, -9752.289623295024, -45447.26555910892, 0.008, 0.78, 0.648, 192.0, 0.0, 0.0, 0.0, 0.0, 0.0, 0.0, 0.0, 0.0, 0.0, 1.6541568646212444E9, 0.0, 2022-06-02 10:01:04.621
89.0, 25466.48239689856, 12306.132889525044, -71185.0981336949, -53228.75717029061, -37124.884083853256, -45033.98180413029, -9743.371277257356, -45427.70778271053, 0.008, 0.78, 0.648, 192.0, 0.0, 0.0, 0.0, 0.0, 0.0, 0.0, 0.0, 0.0, 0.0, 1.65415686462125E9, 0.0, 2022-06-02 10:01:04.621
90.0, 25465.633030609257, 12310.089148293633, -71204.58885485993, -53239.530711118074, -37136.35052875883, -45042.47546702331, -9748.892158137818, -45435.352079314245, 0.008, 0.78, 0.648, 192.0, 0.0, 0.0, 0.0, 0.0, 0.0, 0.0, 0.0, 0.0, 0.0, 1.6541568646212554E9, 0.0, 2022-06-02 10:01:04.621
91.0, 25464.068408497384, 12306.825793603159, -71216.88231431035, -53256.36157469292, -37155.014235379014, -45066.48124056831, -9763.063164122483, -45461.16834416013, 0.008, 0.78, 0.648, 192.0, 0.0, 0.0, 0.0, 0.0, 0.0, 0.0, 0.0, 0.0, 0.0, 1.6541568646212606E9, 0.0, 2022-06-02 10:01:04.621
92.0, 25470.79628357843, 12307.876325592557, -71199.76087805758, -53240.87181578539, -37148.53222948697, -45047.39285080348, -9754.07776285145, -45420.219948318, 0.008, 0.78, 0.648, 192.0, 0.0, 0.0, 0.0, 0.0, 0.0, 0.0, 0.0, 0.0, 0.0, 1.6541568646212656E9, 0.0, 2022-06-02 10:01:04.621
93.0, 25461.6097166073, 12297.616874887572, -71190.90958725329, -53235.19447269374, -37144.33010152938, -45032.39483027397, -9737.693934165709, -45396.88472710666, 0.008, 0.78, 0.648, 192.0, 0.0, 0.0, 0.0, 0.0, 0.0, 0.0, 0.0, 0.0, 0.0, 1.654156864621271E9, 0.0, 2022-06-02 10:01:04.621
94.0, 25458.48047238356, 12296.834563831635, -71192.83183727645, -53235.23917618265, -37146.9676073751, -45036.77577218721, -9742.4995592236, -45411.50276798043, 0.008, 0.78, 0.648, 192.0, 0.0, 0.0, 0.0, 0.0, 0.0, 0.0, 0.0, 0.0, 0.0, 1.654156864621276E9, 0.0, 2022-06-02 10:01:04.621
95.0, 25464.627202108768, 12309.351540726608, -71203.09128798143, -53239.82128379599, -37153.9189999007, -45047.01287114774, -9764.091344367427, -45430.524102511896, 0.008, 0.78, 0.648, 192.0, 0.0, 0.0, 0.0, 0.0, 0.0, 0.0, 0.0, 0.0, 0.0, 1.6541568646212835E9, 0.0, 2022-06-02 10:01:04.621
96.0, 25457.094664227327, 12300.14262201102, -71225.80066034802, -53261.904807317835, -37172.40389256524, -45077.21007790686, -9787.158344645304, -45468.29855064137, 0.006, 0.784, 0.648, 192.0, 0.0, 48.0, 24.0, 128.0, 20.0, 64.0, 0.0, 0.0, 0.0, 1.6541568646212888E9, 0.0, 2022-06-02 10:01:04.621
97.0, 25465.633030609257, 12302.71307262338, -71205.81820080498, -53245.31981293199, -37156.04241562395, -45051.79614446117, -9760.872693165862, -45428.37833504419, 0.006, 0.784, 0.648, 192.0, 0.0, 0.0, 0.0, 0.0, 0.0, 0.0, 0.0, 0.0, 0.0, 1.654156864621294E9, 0.0, 2022-06-02 10:01:04.621
98.0, 25477.770027848488, 12308.569229670673, -71176.58211905744, -53220.15174867532, -37132.95306360162, -45020.03431559019, -9734.609393430877, -45383.00429379992, 0.006, 0.784, 0.648, 192.0, 0.0, 0.0, 0.0, 0.0, 0.0, 0.0, 0.0, 0.0, 0.0, 1.6541568646212995E9, 0.0, 2022-06-02 10:01:04.621
99.0, 25483.80499885142, 12316.861726863592, -71163.19342412871, -53204.77374849007, -37111.29422322443, -45009.61840267401, -9711.654151875277, -45383.5630874113, 0.006, 0.784, 0.648, 192.0, 0.0, 0.0, 0.0, 0.0, 0.0, 0.0, 0.0, 0.0, 0.0, 1.6541568646213045E9, 0.0, 2022-06-02 10:01:04.621
100.0, 25478.17235924868, 12313.017226817277, -71187.31095639599, -53222.901013243325, -37123.274758252475, -45030.89726339546, -9722.472396191644, -45419.32587853979, 0.006, 0.784, 0.648, 192.0, 0.0, 0.0, 0.0, 0.0, 0.0, 0.0, 0.0, 0.0, 0.0, 1.6541568646213107E9, 0.0, 2022-06-02 10:01:04.621
101.0, 25475.93718480315, 12303.607142401594, -71209.14861072882, -53244.62690885388, -37151.88499115527, -45058.121688142026, -9762.07968736645, -45447.66789050912, 0.006, 0.784, 0.648, 192.0, 0.0, 0.0, 0.0, 0.0, 0.0, 0.0, 0.0, 0.0, 0.0, 1.654156864621316E9, 0.0, 2022-06-02 10:01:04.621
102.0, 25477.94884180413, 12307.183421514443, -71189.56848258596, -53233.13811220385, -37140.93263637217, -45051.86319969454, -9744.824140646951, -45438.59308226026, 0.006, 0.784, 0.648, 192.0, 0.0, 0.0, 0.0, 0.0, 0.0, 0.0, 0.0, 0.0, 0.0, 1.6541568646213212E9, 0.0, 2022-06-02 10:01:04.621
103.0, 25465.789492820444, 12298.130965010043, -71179.82312200345, -53223.77273127708, -37127.3651274878, -45036.373440787014, -9718.784358356519, -45405.6689626776, 0.006, 0.784, 0.648, 192.0, 0.0, 0.0, 0.0, 0.0, 0.0, 0.0, 0.0, 0.0, 0.0, 1.6541568646213264E9, 0.0, 2022-06-02 10:01:04.621
104.0, 25462.973173019072, 12299.092090021622, -71181.34304062642, -53217.69305678524, -37123.25240650802, -45020.81662664612, -9729.960230584173, -45403.612602187706, 0.006, 0.784, 0.648, 192.0, 0.0, 0.0, 0.0, 0.0, 0.0, 0.0, 0.0, 0.0, 0.0, 1.6541568646213317E9, 0.0, 2022-06-02 10:01:04.621
105.0, 25467.42117016568, 12304.970598813368, -71197.36924140087, -53229.69594355774, -37118.87146459478, -45028.684440694386, -9725.668695648754, -45425.494960009455, 0.006, 0.784, 0.648, 192.0, 0.0, 0.0, 0.0, 0.0, 0.0, 0.0, 0.0, 0.0, 0.0, 1.6541568646213367E9, 0.0, 2022-06-02 10:01:04.621
106.0, 25457.675809583165, 12293.302988207697, -71228.30405572701, -53257.21094098222, -37150.43212776567, -45060.24510386528, -9769.88044618135, -45461.078937182305, 0.004, 0.784, 0.646, 192.0, 0.0, 32.0, 24.0, 128.0, 20.0, 48.0, 0.0, 0.0, 0.0, 1.654156864621342E9, 0.0, 2022-06-02 10:01:04.621
107.0, 25454.233640937047, 12283.647034603006, -71219.6092271339, -53253.791124080555, -37153.67313071169, -45052.64551075047, -9764.337213556435, -45414.3190877818, 0.004, 0.784, 0.646, 192.0, 0.0, 0.0, 0.0, 0.0, 0.0, 0.0, 0.0, 0.0, 0.0, 1.6541568646213496E9, 0.0, 2022-06-02 10:01:04.621
108.0, 25454.166585703682, 12286.061023004178, -71198.28566292353, -53241.87764428588, -37141.42437475018, -45042.16254260094, -9746.209948803182, -45397.667038162595, 0.004, 0.784, 0.646, 192.0, 0.0, 0.0, 0.0, 0.0, 0.0, 0.0, 0.0, 0.0, 0.0, 1.654156864621355E9, 0.0, 2022-06-02 10:01:04.621
109.0, 25462.28026894096, 12296.164011497976, -71185.9027964953, -53225.51616734459, -37127.00749957651, -45021.59893770205, -9734.251765519592, -45400.77393064189, 0.004, 0.784, 0.646, 192.0, 0.0, 0.0, 0.0, 0.0, 0.0, 0.0, 0.0, 0.0, 0.0, 1.6541568646213603E9, 0.0, 2022-06-02 10:01:04.621
110.0, 25464.023705008472, 12297.795688843215, -71205.90760778279, -53239.57541460698, -37139.211552049106, -45035.54642624217, -9747.014611603572, -45428.82536993329, 0.004, 0.784, 0.646, 192.0, 0.0, 0.0, 0.0, 0.0, 0.0, 0.0, 0.0, 0.0, 0.0, 1.6541568646213653E9, 0.0, 2022-06-02 10:01:04.621
111.0, 25464.336629430847, 12293.1018225076, -71217.99990153313, -53252.58412987997, -37158.858735425325, -45054.411298562445, -9747.104018581393, -45434.14508511366, 0.004, 0.784, 0.646, 192.0, 0.0, 0.0, 0.0, 0.0, 0.0, 0.0, 0.0, 0.0, 0.0, 1.6541568646213706E9, 0.0, 2022-06-02 10:01:04.621
112.0, 25459.46394913959, 12290.017281772767, -71208.81333456199, -53246.75032457714, -37163.66436048321, -45055.171257873924, -9755.709440196686, -45435.352079314245, 0.004, 0.784, 0.646, 192.0, 0.0, 0.0, 0.0, 0.0, 0.0, 0.0, 0.0, 0.0, 0.0, 1.6541568646213765E9, 0.0, 2022-06-02 10:01:04.621
113.0, 25457.02760899396, 12293.05711901869, -71189.41202037479, -53233.16046394831, -37148.80045042044, -45053.785449717696, -9745.293527280513, -45435.419134547614, 0.004, 0.784, 0.646, 192.0, 0.0, 0.0, 0.0, 0.0, 0.0, 0.0, 0.0, 0.0, 0.0, 1.6541568646213818E9, 0.0, 2022-06-02 10:01:04.621
114.0, 25474.70783885811, 12309.597409915616, -71168.11080790887, -53203.99143743413, -37126.44870596513, -45018.96143185633, -9720.147814768294, -45389.44159620305, 0.004, 0.784, 0.646, 192.0, 0.0, 0.0, 0.0, 0.0, 0.0, 0.0, 0.0, 0.0, 0.0, 1.6541568646213872E9, 0.0, 2022-06-02 10:01:04.621
115.0, 25488.923548331684, 12327.523508968772, -71177.61029930238, -53201.19746937722, -37125.77815363147, -45003.98576307127, -9715.699817621688, -45381.573782154774, 0.004, 0.784, 0.646, 192.0, 0.0, 0.0, 0.0, 0.0, 0.0, 0.0, 0.0, 0.0, 0.0, 1.6541568646213925E9, 0.0, 2022-06-02 10:01:04.621
116.0, 25485.503731430024, 12325.131872312055, -71196.76574430057, -53220.48702484215, -37147.30288354193, -45026.09163833757, -9748.087495337426, -45407.7700266564, 0.004, 0.784, 0.65, 192.0, 0.0, 32.0, 24.0, 128.0, 20.0, 80.0, 0.0, 0.0, 0.0, 1.6541568646213975E9, 0.0, 2022-06-02 10:01:04.621
117.0, 25487.940071575653, 12322.33790425514, -71183.17588367175, -53214.31794337249, -37138.25042703753, -45021.19660630186, -9749.339193026924, -45396.907078851116, 0.004, 0.784, 0.65, 192.0, 0.0, 0.0, 0.0, 0.0, 0.0, 0.0, 0.0, 0.0, 0.0, 1.6541568646214037E9, 0.0, 2022-06-02 10:01:04.621
118.0, 25478.775856348977, 12314.760662884792, -71170.05540967648, -53208.9088212143, -37121.7101361406, -45015.00517308774, -9733.268288763558, -45385.865317090196, 0.004, 0.784, 0.65, 192.0, 0.0, 0.0, 0.0, 0.0, 0.0, 0.0, 0.0, 0.0, 0.0, 1.6541568646214087E9, 0.0, 2022-06-02 10:01:04.621
119.0, 25476.205405736615, 12317.53227919725, -71163.17107238426, -53202.94090544473, -37122.02306056298, -45007.62909741749, -9713.39758794279, -45387.65345664662, 0.004, 0.784, 0.65, 192.0, 0.0, 0.0, 0.0, 0.0, 0.0, 0.0, 0.0, 0.0, 0.0, 1.654156864621414E9, 0.0, 2022-06-02 10:01:04.621
120.0, 25479.535815660456, 12323.72371241137, -71176.93974696872, -53214.96614396169, -37124.70526989761, -45022.4259522469, -9696.812593556953, -45415.481378493474, 0.004, 0.784, 0.65, 192.0, 0.0, 0.0, 0.0, 0.0, 0.0, 0.0, 0.0, 0.0, 0.0, 1.6541568646214192E9, 0.0, 2022-06-02 10:01:04.621
121.0, 25476.98771679255, 12318.58281118665, -71196.58693034493, -53234.45686512672, -37142.38549976176, -45036.61930997602, -9722.382989213824, -45417.448332005544, 0.004, 0.784, 0.65, 192.0, 0.0, 0.0, 0.0, 0.0, 0.0, 0.0, 0.0, 0.0, 0.0, 1.6541568651001537E9, 0.0, 2022-06-02 10:01:05.100
122.0, 25468.404646921714, 12305.507040680295, -71189.21085467469, -53235.95443200522, -37143.10075558433, -45031.25489130675, -9753.943652384718, -45395.18599452806, 0.004, 0.784, 0.65, 192.0, 0.0, 0.0, 0.0, 0.0, 0.0, 0.0, 0.0, 0.0, 0.0, 1.6541568651002116E9, 0.0, 2022-06-02 10:01:05.100
123.0, 25471.064504511894, 12310.267962249276, -71166.61324103037, -53218.52007133008, -37112.88119708076, -45015.6757254214, -9735.347000997901, -45388.65928514711, 0.004, 0.784, 0.65, 192.0, 0.0, 0.0, 0.0, 0.0, 0.0, 0.0, 0.0, 0.0, 0.0, 1.6541568651002336E9, 0.0, 2022-06-02 10:01:05.100
124.0, 25467.08589399885, 12308.412767459486, -71168.60254628689, -53221.53755683155, -37093.278717193454, -45023.38707725848, -9699.003064513572, -45412.08391333627, 0.004, 0.784, 0.65, 192.0, 0.0, 0.0, 0.0, 0.0, 0.0, 0.0, 0.0, 0.0, 0.0, 1.654156865100252E9, 0.0, 2022-06-02 10:01:05.100
125.0, 25458.70398982811, 12300.187325499932, -71200.27496818006, -53243.35285941993, -37118.044450049936, -45036.99928963176, -9724.416997959257, -45429.406515289134, 0.004, 0.784, 0.65, 192.0, 0.0, 0.0, 0.0, 0.0, 0.0, 0.0, 0.0, 0.0, 0.0, 1.6541568651002707E9, 0.0, 2022-06-02 10:01:05.100
126.0, 25463.80018756392, 12306.937552325435, -71206.71227058319, -53248.136132733365, -37133.10952581281, -45034.428839019405, -9739.862053377874, -45394.69425615004, 0.01, 0.776, 0.652, 192.0, 0.0, 80.0, 24.0, 64.0, 20.0, 96.0, 0.0, 0.0, 0.0, 1.654156865100282E9, 0.0, 2022-06-02 10:01:05.100
127.0, 25463.19669046363, 12308.502174437306, -71194.53056985505, -53241.94469951924, -37128.661528666205, -45037.02164137622, -9727.769759627552, -45373.974189039975, 0.01, 0.776, 0.652, 192.0, 0.0, 0.0, 0.0, 0.0, 0.0, 0.0, 0.0, 0.0, 0.0, 1.6541568651003053E9, 0.0, 2022-06-02 10:01:05.100
128.0, 25456.93820201614, 12303.025997045756, -71186.7521627846, -53234.009830237614, -37127.78981063245, -45035.50172275326, -9738.588003943922, -45398.18112828507, 0.01, 0.776, 0.652, 192.0, 0.0, 0.0, 0.0, 0.0, 0.0, 0.0, 0.0, 0.0, 0.0, 1.65415686510035E9, 0.0, 2022-06-02 10:01:05.100
129.0, 25456.42411189367, 12301.90840982299, -71184.80756101699, -53226.11966444489, -37127.901569354726, -45031.120780840014, -9745.338230769425, -45406.719494667, 0.01, 0.776, 0.652, 192.0, 0.0, 0.0, 0.0, 0.0, 0.0, 0.0, 0.0, 0.0, 0.0, 1.6541568651003602E9, 0.0, 2022-06-02 10:01:05.100
130.0, 25463.062579996895, 12311.072625049666, -71192.8541890209, -53227.930155745766, -37128.303900754916, -45028.84090290558, -9719.96900081265, -45387.117014779695, 0.01, 0.776, 0.652, 192.0, 0.0, 0.0, 0.0, 0.0, 0.0, 0.0, 0.0, 0.0, 0.0, 1.6541568651003673E9, 0.0, 2022-06-02 10:01:05.100
131.0, 25465.85654805381, 12309.91033433799, -71211.78611657454, -53245.118647231895, -37151.30384579943, -45052.57845551711, -9759.486885009634, -45418.05182910584, 0.01, 0.776, 0.652, 192.0, 0.0, 0.0, 0.0, 0.0, 0.0, 0.0, 0.0, 0.0, 0.0, 1.6541568651003754E9, 0.0, 2022-06-02 10:01:05.100
132.0, 25465.320106186882, 12305.618799402571, -71204.96883451568, -53245.140998976356, -37157.741148202556, -45057.004100919265, -9756.759972186086, -45418.07418085029, 0.01, 0.776, 0.652, 192.0, 0.0, 0.0, 0.0, 0.0, 0.0, 0.0, 0.0, 0.0, 0.0, 1.6541568651003861E9, 0.0, 2022-06-02 10:01:05.100
133.0, 25456.580574104857, 12300.030863288745, -71193.18946518772, -53237.317888417, -37148.39811902024, -45041.134362355995, -9727.725056138643, -45402.85264287623, 0.01, 0.776, 0.652, 192.0, 0.0, 0.0, 0.0, 0.0, 0.0, 0.0, 0.0, 0.0, 0.0, 1.6541568651003942E9, 0.0, 2022-06-02 10:01:05.100
134.0, 25451.730245558054, 12302.131927267543, -71180.76189527058, -53226.11966444489, -37135.54586595844, -45025.599899959554, -9703.249895960082, -45385.284171734354, 0.01, 0.776, 0.652, 192.0, 0.0, 0.0, 0.0, 0.0, 0.0, 0.0, 0.0, 0.0, 0.0, 1.6541568651004024E9, 0.0, 2022-06-02 10:01:05.100
135.0, 25462.74965557452, 12319.834508876147, -71190.9542907422, -53225.06913245549, -37137.44576423714, -45024.81758890362, -9734.072951563949, -45406.764198155906, 0.01, 0.776, 0.652, 192.0, 0.0, 0.0, 0.0, 0.0, 0.0, 0.0, 0.0, 0.0, 0.0, 1.6541568651004133E9, 0.0, 2022-06-02 10:01:05.100
136.0, 25462.861414296796, 12319.566287942684, -71207.15930547229, -53242.1682169638, -37153.13668884477, -45046.61053974755, -9771.355661315401, -45445.32095734131, 0.012, 0.772, 0.648, 192.0, 0.0, 96.0, 24.0, 32.0, 20.0, 64.0, 0.0, 0.0, 0.0, 1.6541568651004298E9, 0.0, 2022-06-02 10:01:05.100
137.0, 25470.55041438942, 12326.67414267947, -71184.13700868333, -53227.68428655676, -37139.88210438277, -45031.970147129316, -9742.097227823404, -45410.92162262459, 0.012, 0.772, 0.648, 192.0, 0.0, 0.0, 0.0, 0.0, 0.0, 0.0, 0.0, 0.0, 0.0, 1.654156865100445E9, 0.0, 2022-06-02 10:01:05.100
138.0, 25467.220004465584, 12321.421482732474, -71168.60254628689, -53219.2129754082, -37128.46036296611, -45017.62032718901, -9705.462718661156, -45371.20257272751, 0.012, 0.772, 0.648, 192.0, 0.0, 0.0, 0.0, 0.0, 0.0, 0.0, 0.0, 0.0, 0.0, 1.654156865100454E9, 0.0, 2022-06-02 10:01:05.100
139.0, 25471.66800161219, 12323.366084500085, -71162.05348516148, -53214.94379221724, -37119.27379599497, -45018.559100456136, -9698.645436602288, -45380.45619493201, 0.012, 0.772, 0.648, 192.0, 0.0, 0.0, 0.0, 0.0, 0.0, 0.0, 0.0, 0.0, 0.0, 1.654156865100466E9, 0.0, 2022-06-02 10:01:05.100
140.0, 25473.27732721297, 12328.551689213717, -71180.02428770355, -53228.62305982388, -37137.55752295942, -45036.77577218721, -9725.981620071128, -45426.36667804321, 0.012, 0.772, 0.648, 192.0, 0.0, 0.0, 0.0, 0.0, 0.0, 0.0, 0.0, 0.0, 0.0, 1.6541568651004725E9, 0.0, 2022-06-02 10:01:05.100
141.0, 25480.22871973857, 12334.050218349723, -71186.48394185114, -53234.68038257127, -37156.28828481297, -45045.51530426923, -9749.585062215932, -45435.03915489187, 0.012, 0.772, 0.648, 192.0, 0.0, 0.0, 0.0, 0.0, 0.0, 0.0, 0.0, 0.0, 0.0, 1.654156865100478E9, 0.0, 2022-06-02 10:01:05.100
142.0, 25486.554263419424, 12339.258174807808, -71166.41207533027, -53219.883527741855, -37144.955950374126, -45023.70000168085, -9723.63468690332, -45386.334703723755, 0.012, 0.772, 0.648, 192.0, 0.0, 0.0, 0.0, 0.0, 0.0, 0.0, 0.0, 0.0, 0.0, 1.654156865100484E9, 0.0, 2022-06-02 10:01:05.100
143.0, 25484.09557152934, 12341.381590531062, -71151.57051701195, -53212.37334160487, -37129.980281589065, -45010.378361985495, -9719.566669412456, -45368.05097675932, 0.012, 0.772, 0.648, 192.0, 0.0, 0.0, 0.0, 0.0, 0.0, 0.0, 0.0, 0.0, 0.0, 1.6541568651004891E9, 0.0, 2022-06-02 10:01:05.100
144.0, 25480.072257527383, 12334.899584639024, -71155.16914786925, -53215.39082710634, -37108.2096824896, -45014.04404807616, -9729.624954417342, -45372.05193901681, 0.012, 0.772, 0.648, 192.0, 0.0, 0.0, 0.0, 0.0, 0.0, 0.0, 0.0, 0.0, 0.0, 1.6541568651004949E9, 0.0, 2022-06-02 10:01:05.100
145.0, 25474.439617924647, 12329.177538058466, -71177.07385743545, -53235.30623141602, -37119.87729309527, -45032.752458185256, -9730.273155006547, -45388.77104386938, 0.012, 0.772, 0.648, 192.0, 0.0, 0.0, 0.0, 0.0, 0.0, 0.0, 0.0, 0.0, 0.0, 1.6541568651005008E9, 0.0, 2022-06-02 10:01:05.100
146.0, 25468.94108878864, 12320.929744354456, -71202.30897692549, -53263.62589164089, -37146.1182410858, -45063.0390719222, -9734.87761436434, -45431.68639322357, 0.006, 0.778, 0.64, 192.0, 0.0, 48.0, 24.0, 80.0, 20.0, 0.0, 0.0, 0.0, 0.0, 1.654156865100506E9, 0.0, 2022-06-02 10:01:05.100
147.0, 25461.788530562942, 12316.906430352501, -71196.34106115592, -53263.06709802951, -37142.720775928596, -45064.84956322308, -9751.21673956117, -45444.00220441845, 0.006, 0.778, 0.64, 192.0, 0.0, 0.0, 0.0, 0.0, 0.0, 0.0, 0.0, 0.0, 0.0, 1.6541568651005113E9, 0.0, 2022-06-02 10:01:05.100
148.0, 25456.22294619357, 12319.365122242585, -71188.87557850785, -53258.59674913845, -37139.59153170485, -45059.46279280935, -9760.64917572131, -45428.89242516666, 0.006, 0.778, 0.64, 192.0, 0.0, 0.0, 0.0, 0.0, 0.0, 0.0, 0.0, 0.0, 0.0, 1.6541568651005163E9, 0.0, 2022-06-02 10:01:05.100
149.0, 25450.187975190638, 12318.694569908926, -71186.48394185114, -53255.24398747015, -37127.678051910174, -45055.97592067432, -9720.68425663522, -45407.43475048956, 0.006, 0.778, 0.64, 192.0, 0.0, 0.0, 0.0, 0.0, 0.0, 0.0, 0.0, 0.0, 0.0, 1.6541568651005216E9, 0.0, 2022-06-02 10:01:05.100
150.0, 25443.549507087413, 12305.48468893584, -71201.12433446936, -53267.76096436512, -37141.33496777236, -45068.939932458394, -9740.800826644996, -45438.928358427096, 0.006, 0.778, 0.64, 192.0, 0.0, 0.0, 0.0, 0.0, 0.0, 0.0, 0.0, 0.0, 0.0, 1.654156865100531E9, 0.0, 2022-06-02 10:01:05.100
151.0, 25461.27444044047, 12315.319456496174, -71206.44404964973, -53270.93491207778, -37153.85194466734, -45073.92437147193, -9760.872693165862, -45443.599873018255, 0.006, 0.778, 0.64, 192.0, 0.0, 0.0, 0.0, 0.0, 0.0, 0.0, 0.0, 0.0, 0.0, 1.6541568651005373E9, 0.0, 2022-06-02 10:01:05.100
152.0, 25466.52710038747, 12319.365122242585, -71198.08449722345, -53266.106935275435, -37161.2727238265, -45073.09735692709, -9781.70451899821, -45448.696070754064, 0.006, 0.778, 0.64, 192.0, 0.0, 0.0, 0.0, 0.0, 0.0, 0.0, 0.0, 0.0, 0.0, 1.6541568651005423E9, 0.0, 2022-06-02 10:01:05.100
153.0, 25465.722437587076, 12320.639171676537, -71176.91739522427, -53247.19735946624, -37137.98220610407, -45052.243179350284, -9735.88344286483, -45407.12182606719, 0.006, 0.778, 0.64, 192.0, 0.0, 0.0, 0.0, 0.0, 0.0, 0.0, 0.0, 0.0, 0.0, 1.65415686510055E9, 0.0, 2022-06-02 10:01:05.100
154.0, 25469.432827166656, 12324.886003123047, -71164.73569449612, -53234.4121616378, -37124.99584257553, -45031.81368491813, -9712.54822165349, -45388.301657235825, 0.006, 0.778, 0.64, 192.0, 0.0, 0.0, 0.0, 0.0, 0.0, 0.0, 0.0, 0.0, 0.0, 1.6541568651005576E9, 0.0, 2022-06-02 10:01:05.100
155.0, 25469.790455077942, 12328.082302580155, -71186.48394185114, -53246.21388271021, -37140.53030497197, -45040.55321700015, -9740.30908826698, -45420.84579716275, 0.006, 0.778, 0.64, 192.0, 0.0, 0.0, 0.0, 0.0, 0.0, 0.0, 0.0, 0.0, 0.0, 1.6541568651005633E9, 0.0, 2022-06-02 10:01:05.100
156.0, 25477.99354529304, 12335.659543950504, -71201.45961063619, -53256.808609582025, -37152.913171400214, -45051.81849620563, -9756.64821346381, -45427.48426526598, 0.014, 0.78, 0.632, 192.0, 0.0, 112.0, 24.0, 96.0, 19.0, 192.0, 0.0, 0.0, 0.0, 1.6541568651005688E9, 0.0, 2022-06-02 10:01:05.100
157.0, 25471.399780678723, 12329.9598491144, -71196.6539855783, -53253.27703395808, -37155.79654643495, -45045.06826938013, -9754.435390762734, -45419.214119817516, 0.014, 0.78, 0.632, 192.0, 0.0, 0.0, 0.0, 0.0, 0.0, 0.0, 0.0, 0.0, 0.0, 1.654156865100574E9, 0.0, 2022-06-02 10:01:05.100
158.0, 25465.02953350896, 12322.1590902995, -71188.09326745191, -53248.65022285584, -37145.782964918966, -45039.793257688674, -9740.622012689355, -45415.03434360437, 0.014, 0.78, 0.632, 192.0, 0.0, 0.0, 0.0, 0.0, 0.0, 0.0, 0.0, 0.0, 0.0, 1.6541568651005816E9, 0.0, 2022-06-02 10:01:05.100
159.0, 25466.23652770955, 12328.082302580155, -71181.11952318186, -53236.468522127696, -37127.610996676805, -45026.35985927103, -9692.856334788363, -45386.55822116831, 0.014, 0.78, 0.632, 192.0, 0.0, 0.0, 0.0, 0.0, 0.0, 0.0, 0.0, 0.0, 0.0, 1.6541568651005871E9, 0.0, 2022-06-02 10:01:05.100
160.0, 25464.515443386492, 12339.615802719094, -71194.23999717712, -53242.39173440835, -37139.077441582376, -45037.44632452087, -9732.418922474257, -45422.70099195254, 0.014, 0.78, 0.632, 192.0, 0.0, 0.0, 0.0, 0.0, 0.0, 0.0, 0.0, 0.0, 0.0, 1.6541568651005929E9, 0.0, 2022-06-02 10:01:05.100
161.0, 25476.80890283691, 12344.399076032529, -71204.58885485993, -53252.9194060468, -37161.36213080432, -45054.120725884524, -9791.539286558544, -45462.86707673873, 0.014, 0.78, 0.632, 192.0, 0.0, 0.0, 0.0, 0.0, 0.0, 0.0, 0.0, 0.0, 0.0, 1.6541568651005993E9, 0.0, 2022-06-02 10:01:05.100
162.0, 25469.790455077942, 12329.222241547375, -71200.94552051372, -53257.92619680479, -37160.021026137, -45054.835981707096, -9768.181713602748, -45423.684468708576, 0.014, 0.78, 0.632, 192.0, 0.0, 0.0, 0.0, 0.0, 0.0, 0.0, 0.0, 0.0, 0.0, 1.6541568651006043E9, 0.0, 2022-06-02 10:01:05.100
163.0, 25463.710780586098, 12327.277639779764, -71180.73954352613, -53241.38590590786, -37143.8160114069, -45030.852559906554, -9720.460739190667, -45357.85858128769, 0.014, 0.78, 0.632, 192.0, 0.0, 0.0, 0.0, 0.0, 0.0, 0.0, 0.0, 0.0, 0.0, 1.6541568651006112E9, 0.0, 2022-06-02 10:01:05.100
164.0, 25476.540681903447, 12343.572061487683, -71162.99225842861, -53224.24211791064, -37133.78007814647, -45019.184949300885, -9715.610410643865, -45355.377537653156, 0.014, 0.78, 0.632, 192.0, 0.0, 0.0, 0.0, 0.0, 0.0, 0.0, 0.0, 0.0, 0.0, 1.6541568651006176E9, 0.0, 2022-06-02 10:01:05.100
165.0, 25474.596080135834, 12345.829587677668, -71184.76285752808, -53241.072981485486, -37141.089098583354, -45041.08965886708, -9725.936916582217, -45402.38325624267, 0.014, 0.78, 0.632, 192.0, 0.0, 0.0, 0.0, 0.0, 0.0, 0.0, 0.0, 0.0, 0.0, 1.6541568651006248E9, 0.0, 2022-06-02 10:01:05.100
166.0, 25466.70591434311, 12339.079360852165, -71207.31576768348, -53265.36932770841, -37158.74697670305, -45075.176069161425, -9759.330422798446, -45442.86226545123, 0.01, 0.778, 0.63, 192.0, 0.0, 80.0, 24.0, 80.0, 19.0, 176.0, 0.0, 0.0, 0.0, 1.6541568651006346E9, 0.0, 2022-06-02 10:01:05.100
167.0, 25467.95761203261, 12337.045352106734, -71191.33427039794, -53255.51220840362, -37151.21443882161, -45060.64743526548, -9741.985469101128, -45411.94980286954, 0.01, 0.778, 0.63, 192.0, 0.0, 0.0, 0.0, 0.0, 0.0, 0.0, 0.0, 0.0, 0.0, 1.6541568651006413E9, 0.0, 2022-06-02 10:01:05.100
168.0, 25462.727303830066, 12333.312610782697, -71176.76093301308, -53246.236234454664, -37140.10562182732, -45044.9341589134, -9722.807672358475, -45408.88761387916, 0.01, 0.778, 0.63, 192.0, 0.0, 0.0, 0.0, 0.0, 0.0, 0.0, 0.0, 0.0, 0.0, 1.654156865100647E9, 0.0, 2022-06-02 10:01:05.100
169.0, 25461.788530562942, 12333.111445082599, -71173.87755797834, -53242.10116173043, -37134.33887175785, -45046.230560091804, -9744.265347035569, -45426.00905013193, 0.01, 0.778, 0.63, 192.0, 0.0, 0.0, 0.0, 0.0, 0.0, 0.0, 0.0, 0.0, 0.0, 1.6541568651006556E9, 0.0, 2022-06-02 10:01:05.100
170.0, 25466.32593468737, 12334.497253238827, -71187.82504651845, -53252.02533626859, -37133.891836868745, -45057.22761836382, -9747.483998237134, -45441.6776229951, 0.01, 0.778, 0.63, 192.0, 0.0, 0.0, 0.0, 0.0, 0.0, 0.0, 0.0, 0.0, 0.0, 1.654156865100664E9, 0.0, 2022-06-02 10:01:05.100
171.0, 25456.60292584931, 12334.027866605267, -71208.88038979535, -53268.58797890997, -37158.83638368087, -45073.700854027375, -9776.340100328935, -45460.83306799329, 0.01, 0.778, 0.63, 192.0, 0.0, 0.0, 0.0, 0.0, 0.0, 0.0, 0.0, 0.0, 0.0, 1.6541568651006792E9, 0.0, 2022-06-02 10:01:05.100
172.0, 25462.41437940769, 12344.242613821341, -71186.68510755124, -53248.11378098891, -37147.30288354193, -45048.51043802624, -9763.621957733865, -45425.53966349836, 0.01, 0.778, 0.63, 192.0, 0.0, 0.0, 0.0, 0.0, 0.0, 0.0, 0.0, 0.0, 0.0, 1.6541568651006873E9, 0.0, 2022-06-02 10:01:05.100
173.0, 25453.473681625568, 12340.040485863745, -71166.54618579701, -53230.90293775832, -37119.05027855042, -45025.890472637475, -9717.465605433656, -45401.33272425327, 0.01, 0.778, 0.63, 192.0, 0.0, 0.0, 0.0, 0.0, 0.0, 0.0, 0.0, 0.0, 0.0, 1.654156865100697E9, 0.0, 2022-06-02 10:01:05.100
174.0, 25432.865373237775, 12331.077436337166, -71174.70457252319, -53238.30136517303, -37116.05514479341, -45028.46092324983, -9723.098245036394, -45393.73313113846, 0.01, 0.778, 0.63, 192.0, 0.0, 0.0, 0.0, 0.0, 0.0, 0.0, 0.0, 0.0, 0.0, 1.6541568651007037E9, 0.0, 2022-06-02 10:01:05.100
175.0, 25426.36101560128, 12333.58083171616, -71199.38089840185, -53252.85235081343, -37134.808258391415, -45039.86031292204, -9749.428600004745, -45411.65923019162, 0.01, 0.782, 0.628, 192.0, 0.0, 80.0, 24.0, 112.0, 19.0, 160.0, 0.0, 0.0, 0.0, 1.6541568651007109E9, 0.0, 2022-06-02 10:01:05.100
176.0, 25419.141402142217, 12329.177538058466, -71212.4566689082, -53269.102069032444, -37155.1706975902, -45046.40937404745, -9758.034021620038, -45402.763235898405, 0.01, 0.782, 0.628, 192.0, 0.0, 0.0, 0.0, 0.0, 0.0, 0.0, 0.0, 0.0, 0.0, 1.6541568651007185E9, 0.0, 2022-06-02 10:01:05.100
177.0, 25421.711852754575, 12329.91514562549, -71193.88236926585, -53252.49472290215, -37138.47394448208, -45032.5289407407, -9733.000067830095, -45380.16562225409, 0.01, 0.782, 0.628, 192.0, 0.0, 0.0, 0.0, 0.0, 0.0, 0.0, 0.0, 0.0, 0.0, 1.6541568651007247E9, 0.0, 2022-06-02 10:01:05.100
178.0, 25420.191934131617, 12333.15614857151, -71179.21962490317, -53240.223615196184, -37138.63040669327, -45022.96239411383, -9758.369297786869, -45385.53004092337, 0.01, 0.782, 0.628, 192.0, 0.0, 0.0, 0.0, 0.0, 0.0, 0.0, 0.0, 0.0, 0.0, 1.6541568651007311E9, 0.0, 2022-06-02 10:01:05.100
179.0, 25418.94023644212, 12343.706171954414, -71169.31780210946, -53231.975821492175, -37135.74703165854, -45018.49204522277, -9741.136102811826, -45383.87601183367, 0.01, 0.782, 0.628, 192.0, 0.0, 0.0, 0.0, 0.0, 0.0, 0.0, 0.0, 0.0, 0.0, 1.654156865100738E9, 0.0, 2022-06-02 10:01:05.100
180.0, 25416.034509662928, 12343.460302765407, -71179.28668013653, -53238.770751806594, -37124.392345475244, -45026.181045315396, -9691.761099310053, -45383.540735666844, 0.01, 0.782, 0.628, 192.0, 0.0, 0.0, 0.0, 0.0, 0.0, 0.0, 0.0, 0.0, 0.0, 1.6541568651007469E9, 0.0, 2022-06-02 10:01:05.100
181.0, 25404.009271145973, 12332.910279382502, -71211.07086075198, -53266.375156208895, -37164.379616305785, -45057.20526661936, -9753.004879117594, -45440.56003577233, 0.01, 0.782, 0.628, 192.0, 0.0, 0.0, 0.0, 0.0, 0.0, 0.0, 0.0, 0.0, 0.0, 1.654156865100752E9, 0.0, 2022-06-02 10:01:05.100
182.0, 25396.20851233107, 12326.852956635114, -71206.19818046072, -53263.983519552174, -37167.68767448517, -45062.323816099626, -9742.588966201421, -45421.49399775195, 0.01, 0.782, 0.628, 192.0, 0.0, 0.0, 0.0, 0.0, 0.0, 0.0, 0.0, 0.0, 0.0, 1.6541568651007583E9, 0.0, 2022-06-02 10:01:05.100
183.0, 25394.867407663754, 12324.550726956217, -71186.03690696204, -53246.37034492139, -37153.85194466734, -45042.54252225668, -9698.332512179913, -45375.40470068511, 0.01, 0.782, 0.628, 192.0, 0.0, 0.0, 0.0, 0.0, 0.0, 0.0, 0.0, 0.0, 0.0, 1.6541568651007671E9, 0.0, 2022-06-02 10:01:05.100
184.0, 25406.199742102595, 12341.515700997794, -71167.08262766393, -53224.2644696551, -37133.198932790634, -45027.74566742726, -9690.934084765207, -45396.75061663993, 0.01, 0.782, 0.628, 192.0, 0.0, 0.0, 0.0, 0.0, 0.0, 0.0, 0.0, 0.0, 0.0, 1.654156865100774E9, 0.0, 2022-06-02 10:01:05.100
185.0, 25408.30080608139, 12349.092942368145, -71178.97375571415, -53230.031219724566, -37134.16005780221, -45041.93902515638, -9731.16722478476, -45432.89338742416, 0.006, 0.786, 0.638, 192.0, 0.0, 48.0, 24.0, 144.0, 19.0, 240.0, 0.0, 0.0, 0.0, 1.6541568651007795E9, 0.0, 2022-06-02 10:01:05.100
186.0, 25411.31829158286, 12349.852901679624, -71187.82504651845, -53240.00009775163, -37144.598322462836, -45049.35980431554, -9734.363524241868, -45421.82927391878, 0.006, 0.786, 0.638, 192.0, 0.0, 0.0, 0.0, 0.0, 0.0, 0.0, 0.0, 0.0, 0.0, 1.6541568651007967E9, 0.0, 2022-06-02 10:01:05.100
187.0, 25412.435878805623, 12350.188177846454, -71175.01749694557, -53230.522958102585, -37139.63623519376, -45041.424935033916, -9727.948573583195, -45401.288020764354, 0.006, 0.786, 0.638, 192.0, 0.0, 0.0, 0.0, 0.0, 0.0, 0.0, 0.0, 0.0, 0.0, 1.6541568651008036E9, 0.0, 2022-06-02 10:01:05.100
188.0, 25399.158942599173, 12340.0628376082, -71167.35084859739, -53228.04191446804, -37138.74216541555, -45034.47354250831, -9737.179844043238, -45401.35507599772, 0.006, 0.786, 0.638, 192.0, 0.0, 0.0, 0.0, 0.0, 0.0, 0.0, 0.0, 0.0, 0.0, 1.6541568651008096E9, 0.0, 2022-06-02 10:01:05.100
189.0, 25394.778000685932, 12342.700343453926, -71163.90867995127, -53223.97389697718, -37134.13770605776, -45023.74470516977, -9734.408227730779, -45391.98969507095, 0.006, 0.786, 0.638, 192.0, 0.0, 0.0, 0.0, 0.0, 0.0, 0.0, 0.0, 0.0, 0.0, 1.6541568651008196E9, 0.0, 2022-06-02 10:01:05.100
190.0, 25393.392192529704, 12346.053105122222, -71178.63847954733, -53231.12645520287, -37127.85686586581, -45026.024583104205, -9716.616239144354, -45399.343418996745, 0.006, 0.786, 0.638, 192.0, 0.0, 0.0, 0.0, 0.0, 0.0, 0.0, 0.0, 0.0, 0.0, 1.6541568651008258E9, 0.0, 2022-06-02 10:01:05.100
191.0, 25390.709983195065, 12337.470035251385, -71197.9056832678, -53251.95828103522, -37146.54292423045, -45045.93998741388, -9732.329515496434, -45417.2695180499, 0.006, 0.786, 0.638, 192.0, 0.0, 0.0, 0.0, 0.0, 0.0, 0.0, 0.0, 0.0, 0.0, 1.654156865100836E9, 0.0, 2022-06-02 10:01:05.100
192.0, 25386.016116859453, 12327.657619435504, -71196.27400592256, -53253.61231012492, -37152.555543488925, -45047.52696127021, -9744.064181335472, -45407.7700266564, 0.006, 0.786, 0.638, 192.0, 0.0, 0.0, 0.0, 0.0, 0.0, 0.0, 0.0, 0.0, 0.0, 1.6541568651008596E9, 0.0, 2022-06-02 10:01:05.100
193.0, 25378.50593072247, 12327.478805479861, -71193.92707275476, -53254.59578688095, -37149.135726587265, -45047.45990603685, -9757.11760009737, -45421.89632915215, 0.006, 0.786, 0.638, 192.0, 0.0, 0.0, 0.0, 0.0, 0.0, 0.0, 0.0, 0.0, 0.0, 1.654156865100869E9, 0.0, 2022-06-02 10:01:05.100
194.0, 25395.53795999741, 12350.188177846454, -71177.34207836892, -53232.86989127039, -37128.013328077, -45025.823417404106, -9745.673506936253, -45404.97605859948, 0.006, 0.786, 0.638, 192.0, 0.0, 0.0, 0.0, 0.0, 0.0, 0.0, 0.0, 0.0, 0.0, 1.6541568651008768E9, 0.0, 2022-06-02 10:01:05.100
195.0, 25399.293053065903, 12349.808198190714, -71182.77355227155, -53237.653164583826, -37126.60516817631, -45029.9808418728, -9724.484053192622, -45405.60190744423, 0.006, 0.784, 0.642, 192.0, 0.0, 48.0, 24.0, 128.0, 20.0, 16.0, 0.0, 0.0, 0.0, 1.654156865100886E9, 0.0, 2022-06-02 10:01:05.100
196.0, 25391.671108206643, 12340.35341028612, -71201.9066455253, -53251.95828103522, -37144.933598629665, -45034.04885936366, -9703.093433748894, -45381.238505987945, 0.006, 0.784, 0.642, 192.0, 0.0, 0.0, 0.0, 0.0, 0.0, 0.0, 0.0, 0.0, 0.0, 1.6541568651008956E9, 0.0, 2022-06-02 10:01:05.100
197.0, 25396.812009431364, 12346.276622566775, -71189.5014273526, -53240.9165192743, -37144.508915485014, -45027.41039126043, -9720.147814768294, -45366.44165115853, 0.006, 0.784, 0.642, 192.0, 0.0, 0.0, 0.0, 0.0, 0.0, 0.0, 0.0, 0.0, 0.0, 1.6541568651009037E9, 0.0, 2022-06-02 10:01:05.100
198.0, 25387.871311649244, 12340.845148664135, -71183.24293890511, -53235.59680409394, -37143.52543872898, -45035.76994368672, -9730.988410829117, -45381.28320947686, 0.006, 0.784, 0.642, 192.0, 0.0, 0.0, 0.0, 0.0, 0.0, 0.0, 0.0, 0.0, 0.0, 1.6541568651009138E9, 0.0, 2022-06-02 10:01:05.100
199.0, 25383.669183691643, 12337.06770385119, -71183.26529064958, -53233.54044360405, -37141.35731951682, -45026.56102497113, -9704.076910504928, -45367.64864535912, 0.006, 0.784, 0.642, 192.0, 0.0, 0.0, 0.0, 0.0, 0.0, 0.0, 0.0, 0.0, 0.0, 1.654156865100926E9, 0.0, 2022-06-02 10:01:05.100
200.0, 25386.150227326183, 12343.72852369887, -71198.93386351275, -53240.11185647391, -37150.85681091032, -45030.919615139916, -9709.977771041129, -45398.98579108546, 0.006, 0.784, 0.642, 192.0, 0.0, 0.0, 0.0, 0.0, 0.0, 0.0, 0.0, 0.0, 0.0, 1.654156865100934E9, 0.0, 2022-06-02 10:01:05.100
201.0, 25386.016116859453, 12341.605107975616, -71221.08444226795, -53258.79791483855, -37166.03364539548, -45060.423917820925, -9750.45678024969, -45435.75441071444, 0.006, 0.784, 0.642, 192.0, 0.0, 0.0, 0.0, 0.0, 0.0, 0.0, 0.0, 0.0, 0.0, 1.6541568651009412E9, 0.0, 2022-06-02 10:01:05.100
202.0, 25398.30957630987, 12351.64104123605, -71206.77932581656, -53244.0681152425, -37154.67895921218, -45048.756307215255, -9763.21962633367, -45416.24133780496, 0.006, 0.784, 0.642, 192.0, 0.0, 0.0, 0.0, 0.0, 0.0, 0.0, 0.0, 0.0, 0.0, 1.6541568651009517E9, 0.0, 2022-06-02 10:01:05.100
203.0, 25400.41064028867, 12351.775151702781, -71182.25946214909, -53228.556004590515, -37145.53709572996, -45027.499798238256, -9744.622974946855, -45404.70783766602, 0.006, 0.784, 0.642, 192.0, 0.0, 0.0, 0.0, 0.0, 0.0, 0.0, 0.0, 0.0, 0.0, 1.6541568651009593E9, 0.0, 2022-06-02 10:01:05.100
204.0, 25407.160867114173, 12359.128875628576, -71165.02626717405, -53212.37334160487, -37129.80146763343, -45009.79721662965, -9716.705646122176, -45387.3628839687, 0.006, 0.784, 0.642, 192.0, 0.0, 0.0, 0.0, 0.0, 0.0, 0.0, 0.0, 0.0, 0.0, 1.6541568651009672E9, 0.0, 2022-06-02 10:01:05.100
205.0, 25401.192951344605, 12355.463189537906, -71181.7453720266, -53222.02929520956, -37124.615862919796, -45014.20051028735, -9689.056538230961, -45378.82451758677, 0.014, 0.782, 0.648, 192.0, 0.0, 112.0, 24.0, 112.0, 20.0, 64.0, 0.0, 0.0, 0.0, 1.654156865100979E9, 0.0, 2022-06-02 10:01:05.100
206.0, 25399.203646088084, 12351.484579024862, -71208.90274153982, -53245.00688850962, -37143.748956173535, -45050.96912991633, -9746.433466247734, -45438.727192727, 0.014, 0.782, 0.648, 192.0, 0.0, 0.0, 0.0, 0.0, 0.0, 0.0, 0.0, 0.0, 0.0, 1.6541568651009884E9, 0.0, 2022-06-02 10:01:05.100
207.0, 25401.32706181134, 12350.72461971338, -71200.76670655808, -53238.63664133986, -37154.92482840119, -45051.81849620563, -9772.428545049257, -45442.75050672895, 0.014, 0.782, 0.648, 192.0, 0.0, 0.0, 0.0, 0.0, 0.0, 0.0, 0.0, 0.0, 0.0, 1.6541568651009974E9, 0.0, 2022-06-02 10:01:05.100
208.0, 25399.605977488278, 12354.032677892767, -71176.26919463507, -53220.48702484215, -37138.47394448208, -45022.537710969176, -9749.294489538013, -45395.47656720598, 0.014, 0.782, 0.648, 192.0, 0.0, 0.0, 0.0, 0.0, 0.0, 0.0, 0.0, 0.0, 0.0, 1.6541568651010237E9, 0.0, 2022-06-02 10:01:05.101
209.0, 25401.5952827448, 12360.849959951634, -71157.58313627042, -53201.04100716603, -37112.34475521383, -44989.9712192978, -9688.855372530863, -45328.35427860669, 0.014, 0.782, 0.648, 192.0, 0.0, 0.0, 0.0, 0.0, 0.0, 0.0, 0.0, 0.0, 0.0, 1.6541568651010401E9, 0.0, 2022-06-02 10:01:05.101
210.0, 25403.852808934786, 12364.269776853298, -71170.18952014322, -53205.77957699056, -37116.569234915885, -44989.457129175324, -9687.58132309691, -45330.32123211875, 0.014, 0.782, 0.648, 192.0, 0.0, 0.0, 0.0, 0.0, 0.0, 0.0, 0.0, 0.0, 0.0, 1.65415686510105E9, 0.0, 2022-06-02 10:01:05.101
211.0, 25390.575872728336, 12348.958831901411, -71201.01257574708, -53241.274147185584, -37155.88595341277, -45034.33943204158, -9739.415018488768, -45400.528061452875, 0.014, 0.782, 0.648, 192.0, 0.0, 0.0, 0.0, 0.0, 0.0, 0.0, 0.0, 0.0, 0.0, 1.6541568651010597E9, 0.0, 2022-06-02 10:01:05.101
212.0, 25377.768323155444, 12330.652753192515, -71205.54997987152, -53255.73572584817, -37165.921886673204, -45053.24900785077, -9743.773608657553, -45421.6728117076, 0.014, 0.782, 0.648, 192.0, 0.0, 0.0, 0.0, 0.0, 0.0, 0.0, 0.0, 0.0, 0.0, 1.6541568651010747E9, 0.0, 2022-06-02 10:01:05.101
213.0, 25386.284337792917, 12338.63232596306, -71181.16422667078, -53236.602632594426, -37143.614845706805, -45035.83699892009, -9744.801788902496, -45412.70976218102, 0.014, 0.782, 0.648, 192.0, 0.0, 0.0, 0.0, 0.0, 0.0, 0.0, 0.0, 0.0, 0.0, 1.6541568651011038E9, 0.0, 2022-06-02 10:01:05.101
214.0, 25380.606994701266, 12335.234860805853, -71180.96306097068, -53234.88154827137, -37140.038566593954, -45042.028432134204, -9756.558806485988, -45418.65532620613, 0.014, 0.782, 0.648, 192.0, 0.0, 0.0, 0.0, 0.0, 0.0, 0.0, 0.0, 0.0, 0.0, 1.6541568651011655E9, 0.0, 2022-06-02 10:01:05.101
215.0, 25369.095846306784, 12327.367046757585, -71198.35271815691, -53243.799894309035, -37141.20085730563, -45044.263606579734, -9742.87953887934, -45403.1655672986, 0.014, 0.78, 0.648, 192.0, 0.0, 112.0, 24.0, 96.0, 20.0, 64.0, 0.0, 0.0, 0.0, 1.6541568651011856E9, 0.0, 2022-06-02 10:01:05.101
216.0, 25365.7877881274, 12323.72371241137, -71220.07861376746, -53263.44707768525, -37158.45640402513, -45062.189705632896, -9754.54714948501, -45404.64078243265, 0.014, 0.78, 0.648, 192.0, 0.0, 0.0, 0.0, 0.0, 0.0, 0.0, 0.0, 0.0, 0.0, 1.6541568651011965E9, 0.0, 2022-06-02 10:01:05.101
217.0, 25377.589509199803, 12332.552651471216, -71206.48875313863, -53254.774600836594, -37152.19791557764, -45058.38990907549, -9752.490788995123, -45404.39491324365, 0.014, 0.78, 0.648, 192.0, 0.0, 0.0, 0.0, 0.0, 0.0, 0.0, 0.0, 0.0, 0.0, 1.6541568651012127E9, 0.0, 2022-06-02 10:01:05.101
218.0, 25390.88879715071, 12342.320363798186, -71182.12535168235, -53233.182815692766, -37134.56238920241, -45032.86421690753, -9748.73569592663, -45405.69131442205, 0.014, 0.78, 0.648, 192.0, 0.0, 0.0, 0.0, 0.0, 0.0, 0.0, 0.0, 0.0, 0.0, 1.6541568651012254E9, 0.0, 2022-06-02 10:01:05.101
219.0, 25374.25909927596, 12332.262078793297, -71191.08840120894, -53240.55889136301, -37137.468115981595, -45037.13340009849, -9743.281870279536, -45426.72430595449, 0.014, 0.78, 0.648, 192.0, 0.0, 0.0, 0.0, 0.0, 0.0, 0.0, 0.0, 0.0, 0.0, 1.6541568651012433E9, 0.0, 2022-06-02 10:01:05.101
220.0, 25366.681857905613, 12329.132834569555, -71213.14957298632, -53256.60744388193, -37149.40394752073, -45052.10906888355, -9769.478114781155, -45450.014823676924, 0.014, 0.78, 0.648, 192.0, 0.0, 0.0, 0.0, 0.0, 0.0, 0.0, 0.0, 0.0, 0.0, 1.6541568651012514E9, 0.0, 2022-06-02 10:01:05.101
221.0, 25359.909279335654, 12324.371913000574, -71228.0134830491, -53274.913522590825, -37168.090005885366, -45065.25189462327, -9789.572333046477, -45447.04204166437, 0.014, 0.78, 0.648, 192.0, 0.0, 0.0, 0.0, 0.0, 0.0, 0.0, 0.0, 0.0, 0.0, 1.6541568651012585E9, 0.0, 2022-06-02 10:01:05.101
222.0, 25370.526357951923, 12330.988029359345, -71205.30411068251, -53257.41210668231, -37156.73531970207, -45046.07409788061, -9739.929108611239, -45404.0149335879, 0.014, 0.78, 0.648, 192.0, 0.0, 0.0, 0.0, 0.0, 0.0, 0.0, 0.0, 0.0, 0.0, 1.654156865101267E9, 0.0, 2022-06-02 10:01:05.101
223.0, 25369.542881195892, 12329.15518631401, -71192.6083198319, -53246.34799317694, -37150.92386614369, -45038.407449532446, -9719.11963452335, -45387.1617182686, 0.014, 0.78, 0.648, 192.0, 0.0, 0.0, 0.0, 0.0, 0.0, 0.0, 0.0, 0.0, 0.0, 1.6541568651012864E9, 0.0, 2022-06-02 10:01:05.101
224.0, 25371.219262030037, 12330.697456681426, -71182.304165638, -53236.02148723859, -37144.508915485014, -45036.664013464935, -9719.320800223446, -45394.873070105685, 0.014, 0.78, 0.648, 192.0, 0.0, 0.0, 0.0, 0.0, 0.0, 0.0, 0.0, 0.0, 0.0, 1.6541568651012957E9, 0.0, 2022-06-02 10:01:05.101
225.0, 25381.702230179577, 12342.946212642933, -71187.26625290707, -53233.49574011514, -37140.79852590543, -45042.36370830103, -9731.92718409624, -45424.95851814253, 0.01, 0.784, 0.65, 192.0, 0.0, 80.0, 24.0, 128.0, 20.0, 80.0, 0.0, 0.0, 0.0, 1.6541568651013076E9, 0.0, 2022-06-02 10:01:05.101
226.0, 25387.245462804494, 12347.528320256271, -71202.19721820322, -53243.174045464286, -37159.68574997017, -45048.957472915354, -9753.340155284424, -45427.19369258806, 0.01, 0.784, 0.65, 192.0, 0.0, 0.0, 0.0, 0.0, 0.0, 0.0, 0.0, 0.0, 0.0, 1.6541568651013181E9, 0.0, 2022-06-02 10:01:05.101
227.0, 25384.965584870053, 12345.293145810741, -71191.98247098715, -53236.468522127696, -37158.92579065869, -45039.99442338877, -9741.471378978657, -45392.95082008253, 0.01, 0.784, 0.65, 192.0, 0.0, 0.0, 0.0, 0.0, 0.0, 0.0, 0.0, 0.0, 0.0, 1.6541568651013324E9, 0.0, 2022-06-02 10:01:05.101
228.0, 25387.31251803786, 12348.578852245671, -71169.67543002074, -53219.883527741855, -37138.80922064892, -45023.32002202512, -9711.765910597553, -45372.722491350476, 0.01, 0.784, 0.65, 192.0, 0.0, 0.0, 0.0, 0.0, 0.0, 0.0, 0.0, 0.0, 0.0, 1.6541568651013403E9, 0.0, 2022-06-02 10:01:05.101
229.0, 25378.841206889298, 12341.87332890908, -71175.01749694557, -53224.085655699455, -37135.657624680716, -45029.62321396151, -9715.789224599508, -45382.80312809982, 0.01, 0.784, 0.65, 192.0, 0.0, 0.0, 0.0, 0.0, 0.0, 0.0, 0.0, 0.0, 0.0, 1.6541568651013467E9, 0.0, 2022-06-02 10:01:05.101
230.0, 25379.4894074785, 12343.884985910057, -71189.92611049725, -53230.45590286922, -37138.40688924872, -45032.55129248516, -9730.653134662287, -45387.1617182686, 0.01, 0.784, 0.65, 192.0, 0.0, 0.0, 0.0, 0.0, 0.0, 0.0, 0.0, 0.0, 0.0, 1.6541568651013527E9, 0.0, 2022-06-02 10:01:05.101
231.0, 25377.07541907733, 12343.884985910057, -71202.80071530351, -53246.14682747684, -37157.40587203573, -45051.259702594245, -9759.241015820626, -45421.04696286285, 0.01, 0.784, 0.65, 192.0, 0.0, 0.0, 0.0, 0.0, 0.0, 0.0, 0.0, 0.0, 0.0, 1.6541568651013591E9, 0.0, 2022-06-02 10:01:05.101
232.0, 25376.114294065752, 12340.845148664135, -71201.057279236, -53248.9184437893, -37159.26106682552, -45062.167353888435, -9772.048565393516, -45436.4249630481, 0.01, 0.784, 0.65, 192.0, 0.0, 0.0, 0.0, 0.0, 0.0, 0.0, 0.0, 0.0, 0.0, 1.6541568651013653E9, 0.0, 2022-06-02 10:01:05.101
233.0, 25379.757628411964, 12341.202776575421, -71185.83574126194, -53240.067152985, -37146.341758530354, -45055.57358927412, -9751.93199538374, -45436.268500836915, 0.01, 0.784, 0.65, 192.0, 0.0, 0.0, 0.0, 0.0, 0.0, 0.0, 0.0, 0.0, 0.0, 1.6541568651013727E9, 0.0, 2022-06-02 10:01:05.101
234.0, 25365.765436382942, 12332.418541004485, -71182.50533133809, -53237.094370972445, -37139.45742123812, -45048.756307215255, -9729.40143697279, -45430.99348914546, 0.01, 0.784, 0.65, 192.0, 0.0, 0.0, 0.0, 0.0, 0.0, 0.0, 0.0, 0.0, 0.0, 1.65415686510138E9, 0.0, 2022-06-02 10:01:05.101
235.0, 25357.897622334676, 12333.804349160713, -71192.29539540951, -53238.971917506686, -37139.010386349015, -45042.65428097895, -9735.391704486812, -45418.27534655039, 0.012, 0.786, 0.644, 192.0, 0.0, 96.0, 24.0, 144.0, 20.0, 32.0, 0.0, 0.0, 0.0, 1.6541568651014085E9, 0.0, 2022-06-02 10:01:05.101
236.0, 25352.332037965305, 12323.76841590028, -71219.54217190054, -53262.77652535159, -37164.11139537232, -45059.64160676499, -9773.099097382916, -45418.23064306148, 0.012, 0.786, 0.644, 192.0, 0.0, 0.0, 0.0, 0.0, 0.0, 0.0, 0.0, 0.0, 0.0, 1.6541568651014192E9, 0.0, 2022-06-02 10:01:05.101
237.0, 25345.49240416198, 12312.190212272431, -71226.49356442614, -53270.219656255205, -37187.64778228376, -45066.28007486821, -9807.140804188348, -45426.59019548776, 0.012, 0.786, 0.644, 192.0, 0.0, 0.0, 0.0, 0.0, 0.0, 0.0, 0.0, 0.0, 0.0, 1.654156865101426E9, 0.0, 2022-06-02 10:01:05.101
238.0, 25349.29220071938, 12320.594468187628, -71204.29828218202, -53253.54525489155, -37169.81109020842, -45053.11489738404, -9789.862905724396, -45433.89921592465, 0.012, 0.786, 0.644, 192.0, 0.0, 0.0, 0.0, 0.0, 0.0, 0.0, 0.0, 0.0, 0.0, 1.6541568651014323E9, 0.0, 2022-06-02 10:01:05.101
239.0, 25355.997724055975, 12329.758683414304, -71190.19433143071, -53238.43547563976, -37158.81403193641, -45035.38996403098, -9787.98535919015, -45414.92258488209, 0.012, 0.786, 0.644, 192.0, 0.0, 0.0, 0.0, 0.0, 0.0, 0.0, 0.0, 0.0, 0.0, 1.654156865101447E9, 0.0, 2022-06-02 10:01:05.101
240.0, 25366.525395694425, 12340.688686452948, -71191.96011924269, -53228.17602493478, -37150.76740393251, -45018.29087952267, -9762.683184466743, -45370.956703538504, 0.012, 0.786, 0.644, 192.0, 0.0, 0.0, 0.0, 0.0, 0.0, 0.0, 0.0, 0.0, 0.0, 1.6541568651014528E9, 0.0, 2022-06-02 10:01:05.101
241.0, 25365.5866224273, 12339.459340507907, -71210.46736365168, -53247.286766444064, -37139.92680787168, -45040.91084491144, -9692.92339002173, -45390.380369470164, 0.012, 0.786, 0.644, 192.0, 0.0, 0.0, 0.0, 0.0, 0.0, 0.0, 0.0, 0.0, 0.0, 1.654156865580232E9, 0.0, 2022-06-02 10:01:05.580
242.0, 25371.93451785261, 12342.946212642933, -71193.9047210103, -53239.97774600718, -37142.65372069523, -45036.239330320284, -9707.452023917678, -45386.98290431296, 0.012, 0.786, 0.644, 192.0, 0.0, 0.0, 0.0, 0.0, 0.0, 0.0, 0.0, 0.0, 0.0, 1.6541568655803535E9, 0.0, 2022-06-02 10:01:05.580
243.0, 25385.367916270246, 12357.58660526116, -71160.86884270536, -53211.65808578231, -37117.39624946073, -45008.23259451778, -9674.460849101646, -45352.292996918324, 0.012, 0.786, 0.644, 192.0, 0.0, 0.0, 0.0, 0.0, 0.0, 0.0, 0.0, 0.0, 0.0, 1.654156865580362E9, 0.0, 2022-06-02 10:01:05.580
244.0, 25382.484541235513, 12359.307689584219, -71160.71238049417, -53208.14886190282, -37114.57992965936, -45004.008114815726, -9671.286901388992, -45350.14722945062, 0.012, 0.786, 0.644, 192.0, 0.0, 0.0, 0.0, 0.0, 0.0, 0.0, 0.0, 0.0, 0.0, 1.6541568655803702E9, 0.0, 2022-06-02 10:01:05.580
245.0, 25389.16771282765, 12366.30378559873, -71172.13412191083, -53211.993361949135, -37126.04637456493, -45015.04987657665, -9691.649340587777, -45381.84200308824, 0.02, 0.778, 0.644, 192.0, 0.0, 160.0, 24.0, 80.0, 20.0, 32.0, 0.0, 0.0, 0.0, 1.6541568655803769E9, 0.0, 2022-06-02 10:01:05.580
246.0, 25386.798427915386, 12363.26394835281, -71196.87750302286, -53233.60749883742, -37152.77906093348, -45045.93998741388, -9738.811521388474, -45427.93130015508, 0.02, 0.778, 0.644, 192.0, 0.0, 0.0, 0.0, 0.0, 0.0, 0.0, 0.0, 0.0, 0.0, 1.6541568655803833E9, 0.0, 2022-06-02 10:01:05.580
247.0, 25375.6896109211, 12349.338811557152, -71204.32063392647, -53242.905824530826, -37165.005465150534, -45058.79224047568, -9758.816332675975, -45426.21021583203, 0.02, 0.778, 0.644, 192.0, 0.0, 0.0, 0.0, 0.0, 0.0, 0.0, 0.0, 0.0, 0.0, 1.65415686558039E9, 0.0, 2022-06-02 10:01:05.580
248.0, 25372.716828908546, 12344.332020799164, -71189.43437211924, -53231.26056566961, -37152.60024697784, -45042.6319292345, -9733.648268419298, -45411.21219530251, 0.02, 0.778, 0.644, 192.0, 0.0, 0.0, 0.0, 0.0, 0.0, 0.0, 0.0, 0.0, 0.0, 1.654156865580397E9, 0.0, 2022-06-02 10:01:05.580
249.0, 25368.715866651044, 12342.499177753829, -71178.9961074586, -53222.31986788748, -37139.74799391603, -45027.16452207143, -9700.92531453673, -45385.59709615673, 0.02, 0.778, 0.644, 192.0, 0.0, 0.0, 0.0, 0.0, 0.0, 0.0, 0.0, 0.0, 0.0, 1.6541568655804057E9, 0.0, 2022-06-02 10:01:05.580
250.0, 25384.004459858475, 12361.92284368549, -71165.80857822997, -53208.2606206251, -37114.758743615006, -45014.692248665364, -9687.87189577483, -45372.498973905924, 0.02, 0.778, 0.644, 192.0, 0.0, 0.0, 0.0, 0.0, 0.0, 0.0, 0.0, 0.0, 0.0, 1.6541568655804121E9, 0.0, 2022-06-02 10:01:05.580
251.0, 25385.233805803517, 12361.20758786292, -71186.52864534005, -53227.70663830121, -37135.88114212527, -45035.52407449771, -9741.650192934298, -45395.25304976142, 0.02, 0.778, 0.644, 192.0, 0.0, 0.0, 0.0, 0.0, 0.0, 0.0, 0.0, 0.0, 0.0, 1.6541568655804183E9, 0.0, 2022-06-02 10:01:05.580
252.0, 25373.521491708936, 12343.326192298675, -71195.71521231117, -53243.0175832531, -37157.13765110227, -45051.05853689415, -9776.384803817846, -45420.06348610682, 0.02, 0.778, 0.644, 192.0, 0.0, 0.0, 0.0, 0.0, 0.0, 0.0, 0.0, 0.0, 0.0, 1.6541568655804243E9, 0.0, 2022-06-02 10:01:05.580
253.0, 25360.982163069508, 12336.01717186179, -71184.27111915006, -53239.173083206784, -37146.475868997084, -45046.56583625863, -9752.826065161951, -45424.64559372015, 0.02, 0.778, 0.644, 192.0, 0.0, 0.0, 0.0, 0.0, 0.0, 0.0, 0.0, 0.0, 0.0, 1.6541568655804305E9, 0.0, 2022-06-02 10:01:05.580
254.0, 25360.110445035752, 12339.861671908102, -71175.19631090121, -53229.85240576892, -37136.52934271447, -45032.5289407407, -9731.904832351784, -45412.620355203195, 0.02, 0.778, 0.644, 192.0, 0.0, 0.0, 0.0, 0.0, 0.0, 0.0, 0.0, 0.0, 0.0, 1.6541568655804367E9, 0.0, 2022-06-02 10:01:05.580
255.0, 25369.542881195892, 12345.941346399946, -71183.86878774986, -53229.24890866863, -37140.8655811388, -45024.86229239253, -9751.395553516812, -45400.37159924169, 0.016, 0.778, 0.648, 192.0, 0.0, 128.0, 24.0, 80.0, 20.0, 64.0, 0.0, 0.0, 0.0, 1.6541568655804443E9, 0.0, 2022-06-02 10:01:05.580
0.0, 25377.321288266336, 12353.540939514749, -71197.10102046741, -53239.955394262724, -37159.99867439255, -45035.05468786415, -9802.625751808377, -45413.15679707012, 0.016, 0.778, 0.648, 192.0, 0.0, 0.0, 0.0, 0.0, 0.0, 0.0, 0.0, 0.0, 0.0, 1.6541568655804791E9, 0.0, 2022-06-02 10:01:05.580
1.0, 25360.87040434723, 12337.559442229205, -71204.61120660439, -53254.43932466976, -37165.273686083994, -45053.56193227314, -9775.669547995276, -45401.69035216455, 0.016, 0.778, 0.648, 192.0, 0.0, 0.0, 0.0, 0.0, 0.0, 0.0, 0.0, 0.0, 0.0, 1.654156865580485E9, 0.0, 2022-06-02 10:01:05.580
2.0, 25357.16001476765, 12334.787825916746, -71189.27790990805, -53242.63760359736, -37144.2183428071, -45036.3287372981, -9719.879593834828, -45381.104395521215, 0.016, 0.778, 0.648, 192.0, 0.0, 0.0, 0.0, 0.0, 0.0, 0.0, 0.0, 0.0, 0.0, 1.6541568655804913E9, 0.0, 2022-06-02 10:01:05.580
3.0, 25358.277601990416, 12339.34758178563, -71181.07481969295, -53230.83588252496, -37131.92488335668, -45021.5765859576, -9706.513250650556, -45369.6603023601, 0.016, 0.778, 0.648, 192.0, 0.0, 0.0, 0.0, 0.0, 0.0, 0.0, 0.0, 0.0, 0.0, 1.6541568655804973E9, 0.0, 2022-06-02 10:01:05.580
4.0, 25358.6352299017, 12343.169730087488, -71191.31191865349, -53235.39563839384, -37139.278607282475, -45029.75732442824, -9727.948573583195, -45397.17529978458, 0.016, 0.778, 0.648, 192.0, 0.0, 0.0, 0.0, 0.0, 0.0, 0.0, 0.0, 0.0, 0.0, 1.6541568655805025E9, 0.0, 2022-06-02 10:01:05.580
5.0, 25355.550689166867, 12338.073532351676, -71216.0552997655, -53259.78139159458, -37165.38544480627, -45059.35103408707, -9774.17198111677, -45447.84670446476, 0.016, 0.778, 0.648, 192.0, 0.0, 0.0, 0.0, 0.0, 0.0, 0.0, 0.0, 0.0, 0.0, 1.6541568655805085E9, 0.0, 2022-06-02 10:01:05.580
6.0, 25360.423369458123, 12334.117273583088, -71212.9037037973, -53260.04961252804, -37169.81109020842, -45058.4346125644, -9769.634576992343, -45434.27919558039, 0.016, 0.778, 0.648, 192.0, 0.0, 0.0, 0.0, 0.0, 0.0, 0.0, 0.0, 0.0, 0.0, 1.6541568655805147E9, 0.0, 2022-06-02 10:01:05.580
7.0, 25373.5885469423, 12346.656602222516, -71182.61709006038, -53230.21003368021, -37151.30384579943, -45030.69609769536, -9742.968945857161, -45404.864299877205, 0.016, 0.778, 0.648, 192.0, 0.0, 0.0, 0.0, 0.0, 0.0, 0.0, 0.0, 0.0, 0.0, 1.6541568655805204E9, 0.0, 2022-06-02 10:01:05.580
8.0, 25363.284392748403, 12339.459340507907, -71179.62195630335, -53225.270298155585, -37148.442822509154, -45027.2762807937, -9731.770721885052, -45404.75254115493, 0.012, 0.776, 0.652, 192.0, 0.0, 96.0, 24.0, 64.0, 20.0, 96.0, 0.0, 0.0, 0.0, 1.654156865580526E9, 0.0, 2022-06-02 10:01:05.580
9.0, 25363.86553810424, 12342.275660309275, -71188.2497296631, -53226.253774911616, -37151.88499115527, -45025.44343774837, -9726.138082282316, -45391.095625292735, 0.012, 0.776, 0.652, 192.0, 0.0, 0.0, 0.0, 0.0, 0.0, 0.0, 0.0, 0.0, 0.0, 1.6541568655805316E9, 0.0, 2022-06-02 10:01:05.580
10.0, 25377.63421268871, 12355.44083779345, -71197.48100012315, -53226.946678989734, -37153.56137198942, -45023.38707725848, -9722.315933980457, -45384.2112880005, 0.012, 0.776, 0.652, 192.0, 0.0, 0.0, 0.0, 0.0, 0.0, 0.0, 0.0, 0.0, 0.0, 1.654156865580537E9, 0.0, 2022-06-02 10:01:05.580
11.0, 25387.17840757113, 12359.374744817585, -71188.62970931885, -53218.58712656345, -37151.996749877544, -45021.5765859576, -9725.378122970835, -45387.1617182686, 0.012, 0.776, 0.652, 192.0, 0.0, 0.0, 0.0, 0.0, 0.0, 0.0, 0.0, 0.0, 0.0, 1.6541568655805423E9, 0.0, 2022-06-02 10:01:05.580
12.0, 25390.59822447279, 12357.899529683535, -71176.20213940169, -53207.18773689124, -37143.88306664027, -45017.12858881099, -9727.345076482901, -45397.75644514042, 0.012, 0.776, 0.652, 192.0, 0.0, 0.0, 0.0, 0.0, 0.0, 0.0, 0.0, 0.0, 0.0, 1.654156865580548E9, 0.0, 2022-06-02 10:01:05.580
13.0, 25378.796503400386, 12349.87525342408, -71172.89408122232, -53208.48413806965, -37137.40106074823, -45023.32002202512, -9723.321762480946, -45411.63687844716, 0.012, 0.776, 0.652, 192.0, 0.0, 0.0, 0.0, 0.0, 0.0, 0.0, 0.0, 0.0, 0.0, 1.6541568655805533E9, 0.0, 2022-06-02 10:01:05.580
14.0, 25370.325192251825, 12347.0142301338, -71190.9542907422, -53218.29655388553, -37143.72660442908, -45022.64946969145, -9730.899003851295, -45386.80409035732, 0.012, 0.776, 0.652, 192.0, 0.0, 0.0, 0.0, 0.0, 0.0, 0.0, 0.0, 0.0, 0.0, 1.6541568655805588E9, 0.0, 2022-06-02 10:01:05.580
15.0, 25375.01905858744, 12348.847073179135, -71209.32742468447, -53234.6133273379, -37161.585648248874, -45030.96431862883, -9747.618108703866, -45391.00621831491, 0.012, 0.776, 0.652, 192.0, 0.0, 0.0, 0.0, 0.0, 0.0, 0.0, 0.0, 0.0, 0.0, 1.654156865580564E9, 0.0, 2022-06-02 10:01:05.580
16.0, 25378.707096422568, 12346.835416178157, -71198.01744199007, -53228.77952203507, -37152.89081965576, -45023.945870869866, -9739.146797555304, -45388.100491535726, 0.012, 0.776, 0.652, 192.0, 0.0, 0.0, 0.0, 0.0, 0.0, 0.0, 0.0, 0.0, 0.0, 1.6541568655805695E9, 0.0, 2022-06-02 10:01:05.580
17.0, 25371.6886486636, 12342.92386089848, -71180.40426735929, -53215.99432420664, -37136.43993573665, -45008.56787068461, -9722.740617125108, -45362.91007553459, 0.012, 0.776, 0.652, 192.0, 0.0, 0.0, 0.0, 0.0, 0.0, 0.0, 0.0, 0.0, 0.0, 1.654156865580575E9, 0.0, 2022-06-02 10:01:05.580
18.0, 25364.55844218236, 12337.000648617823, -71174.23518588963, -53213.78150150556, -37133.623615935285, -45008.7243328958, -9722.561803169467, -45370.97905528296, 0.006, 0.778, 0.65, 192.0, 0.0, 48.0, 24.0, 80.0, 20.0, 80.0, 0.0, 0.0, 0.0, 1.6541568655805805E9, 0.0, 2022-06-02 10:01:05.580
19.0, 25358.702285135067, 12333.759645671804, -71187.69093605172, -53225.38205687786, -37143.480735240075, -45026.60572846005, -9734.318820752958, -45409.826387146284, 0.006, 0.778, 0.65, 192.0, 0.0, 0.0, 0.0, 0.0, 0.0, 0.0, 0.0, 0.0, 0.0, 1.6541568655805867E9, 0.0, 2022-06-02 10:01:05.580
20.0, 25354.58956415529, 12328.909317125, -71212.12139274138, -53246.12447573239, -37166.30186632894, -45045.7835252027, -9755.664736707777, -45426.59019548776, 0.006, 0.778, 0.65, 192.0, 0.0, 0.0, 0.0, 0.0, 0.0, 0.0, 0.0, 0.0, 0.0, 1.6541568655805922E9, 0.0, 2022-06-02 10:01:05.580
21.0, 25350.25332573096, 12317.889907108534, -71215.1612299873, -53256.40627818183, -37179.64585776876, -45063.17318238893, -9772.875579938362, -45441.14118112817, 0.006, 0.778, 0.65, 192.0, 0.0, 0.0, 0.0, 0.0, 0.0, 0.0, 0.0, 0.0, 0.0, 1.6541568655805976E9, 0.0, 2022-06-02 10:01:05.580
22.0, 25347.43700592959, 12314.872421607068, -71197.83862803443, -53243.28580418656, -37152.30967429992, -45047.95164441486, -9749.36154477138, -45404.864299877205, 0.006, 0.778, 0.65, 192.0, 0.0, 0.0, 0.0, 0.0, 0.0, 0.0, 0.0, 0.0, 0.0, 1.654156865580609E9, 0.0, 2022-06-02 10:01:05.580
23.0, 25358.679933390613, 12324.506023467306, -71177.87852023584, -53225.35970513341, -37127.49923795453, -45029.55615872815, -9734.274117264047, -45381.797299599326, 0.006, 0.778, 0.65, 192.0, 0.0, 0.0, 0.0, 0.0, 0.0, 0.0, 0.0, 0.0, 0.0, 1.6541568655806146E9, 0.0, 2022-06-02 10:01:05.580
24.0, 25362.099750292273, 12339.168767829988, -71179.66665979227, -53222.00694346511, -37129.62265367778, -45019.587280701075, -9726.093378793405, -45400.2151370305, 0.006, 0.778, 0.65, 192.0, 0.0, 0.0, 0.0, 0.0, 0.0, 0.0, 0.0, 0.0, 0.0, 1.65415686558062E9, 0.0, 2022-06-02 10:01:05.580
25.0, 25357.96467756804, 12340.308706797208, -71200.29731992452, -53239.12837971788, -37146.3194067859, -45028.3268127831, -9726.74157938261, -45406.98771560046, 0.006, 0.778, 0.65, 192.0, 0.0, 0.0, 0.0, 0.0, 0.0, 0.0, 0.0, 0.0, 0.0, 1.6541568655806255E9, 0.0, 2022-06-02 10:01:05.580
26.0, 25364.670200904635, 12340.800445175224, -71193.4576861212, -53236.44617038324, -37147.97343587559, -45034.51824599722, -9735.682277164731, -45404.93135511057, 0.006, 0.778, 0.65, 192.0, 0.0, 0.0, 0.0, 0.0, 0.0, 0.0, 0.0, 0.0, 0.0, 1.6541568655806313E9, 0.0, 2022-06-02 10:01:05.580
27.0, 25367.30770675036, 12339.593450974638, -71179.1972731587, -53223.07982719896, -37141.7149474281, -45024.39290575897, -9743.795960402007, -45406.27245977789, 0.006, 0.778, 0.65, 192.0, 0.0, 0.0, 0.0, 0.0, 0.0, 0.0, 0.0, 0.0, 0.0, 1.6541568655806365E9, 0.0, 2022-06-02 10:01:05.580
28.0, 25356.556517667355, 12327.67997117996, -71177.0962091799, -53222.20810916521, -37142.02787185048, -45025.84576914857, -9728.5967741724, -45407.859433634214, 0.008, 0.778, 0.644, 192.0, 0.0, 64.0, 24.0, 80.0, 20.0, 32.0, 0.0, 0.0, 0.0, 1.654156865580642E9, 0.0, 2022-06-02 10:01:05.580
29.0, 25351.326209464816, 12325.511851967794, -71184.33817438343, -53219.90587948631, -37136.015252592, -45013.373495742504, -9693.169259210737, -45363.625331357165, 0.008, 0.778, 0.644, 192.0, 0.0, 0.0, 0.0, 0.0, 0.0, 0.0, 0.0, 0.0, 0.0, 1.6541568655806475E9, 0.0, 2022-06-02 10:01:05.580
30.0, 25367.84414861729, 12338.609974218605, -71192.96594774317, -53220.241155653144, -37138.89862762673, -45010.46776896331, -9690.308235920458, -45357.70211907651, 0.008, 0.778, 0.644, 192.0, 0.0, 0.0, 0.0, 0.0, 0.0, 0.0, 0.0, 0.0, 0.0, 1.6541568655806532E9, 0.0, 2022-06-02 10:01:05.580
31.0, 25370.749875396476, 12337.000648617823, -71188.4061918743, -53221.04581845353, -37149.47100275409, -45021.66599293542, -9729.624954417342, -45386.60292465722, 0.008, 0.778, 0.644, 192.0, 0.0, 0.0, 0.0, 0.0, 0.0, 0.0, 0.0, 0.0, 0.0, 1.6541568655806584E9, 0.0, 2022-06-02 10:01:05.580
32.0, 25365.899546849676, 12330.96567761489, -71174.97279345665, -53214.34029511694, -37140.79852590543, -45019.00613534524, -9732.5977364299, -45384.12188102268, 0.008, 0.778, 0.644, 192.0, 0.0, 0.0, 0.0, 0.0, 0.0, 0.0, 0.0, 0.0, 0.0, 1.654156865580664E9, 0.0, 2022-06-02 10:01:05.580
33.0, 25378.707096422568, 12345.226090577376, -71157.4490258037, -53192.77086171757, -37125.711098398104, -45001.03533280317, -9717.823233344941, -45383.183107755554, 0.008, 0.778, 0.644, 192.0, 0.0, 0.0, 0.0, 0.0, 0.0, 0.0, 0.0, 0.0, 0.0, 1.6541568655806692E9, 0.0, 2022-06-02 10:01:05.580
34.0, 25374.437913231603, 12342.163901586999, -71171.798845744, -53202.24800136662, -37134.22711303557, -45001.974106070295, -9706.043864016994, -45367.02279651437, 0.008, 0.778, 0.644, 192.0, 0.0, 0.0, 0.0, 0.0, 0.0, 0.0, 0.0, 0.0, 0.0, 1.6541568655806744E9, 0.0, 2022-06-02 10:01:05.580
35.0, 25376.918956866142, 12347.528320256271, -71191.02134597556, -53218.54242307454, -37149.761575432014, -45015.72042891031, -9725.825157859941, -45385.21711650099, 0.008, 0.778, 0.644, 192.0, 0.0, 0.0, 0.0, 0.0, 0.0, 0.0, 0.0, 0.0, 0.0, 1.6541568655806806E9, 0.0, 2022-06-02 10:01:05.580
36.0, 25374.102637064774, 12344.130855099065, -71193.63650007684, -53226.90197550082, -37160.91509591521, -45023.70000168085, -9741.381972000834, -45392.6155439157, 0.008, 0.778, 0.644, 192.0, 0.0, 0.0, 0.0, 0.0, 0.0, 0.0, 0.0, 0.0, 0.0, 1.654156865580686E9, 0.0, 2022-06-02 10:01:05.580
37.0, 25381.702230179577, 12350.434047035462, -71168.87076722036, -53211.009885193096, -37139.88210438277, -45012.27826026419, -9710.469509419145, -45371.1578692386, 0.008, 0.778, 0.644, 192.0, 0.0, 0.0, 0.0, 0.0, 0.0, 0.0, 0.0, 0.0, 0.0, 1.6541568655806913E9, 0.0, 2022-06-02 10:01:05.580
38.0, 25372.046276574885, 12349.20470109042, -71163.796921229, -53208.32767585846, -37133.757726402015, -45009.171367784904, -9707.273209962035, -45374.801203584815, 0.008, 0.778, 0.65, 192.0, 0.0, 64.0, 24.0, 80.0, 20.0, 80.0, 0.0, 0.0, 0.0, 1.6541568655806968E9, 0.0, 2022-06-02 10:01:05.580
39.0, 25372.090980063796, 12353.652698237027, -71170.41303758777, -53212.64156253834, -37128.013328077, -45014.93811785438, -9704.25572446057, -45387.049959546326, 0.008, 0.778, 0.65, 192.0, 0.0, 0.0, 0.0, 0.0, 0.0, 0.0, 0.0, 0.0, 0.0, 1.654156865580702E9, 0.0, 2022-06-02 10:01:05.580
40.0, 25372.090980063796, 12349.316459812697, -71193.2565204211, -53232.892243014845, -37148.91220914271, -45040.62027223352, -9731.21192827367, -45413.80499765933, 0.008, 0.778, 0.65, 192.0, 0.0, 0.0, 0.0, 0.0, 0.0, 0.0, 0.0, 0.0, 0.0, 1.6541568655807076E9, 0.0, 2022-06-02 10:01:05.580
41.0, 25385.814951159355, 12357.564253516704, -71178.25849989158, -53221.64931555383, -37144.4195085072, -45038.51920825472, -9744.555919713488, -45407.07712257828, 0.008, 0.778, 0.65, 192.0, 0.0, 0.0, 0.0, 0.0, 0.0, 0.0, 0.0, 0.0, 0.0, 1.6541568655807128E9, 0.0, 2022-06-02 10:01:05.580
42.0, 25386.30668953737, 12356.513721527306, -71161.29352585001, -53210.652257281814, -37129.86852286679, -45027.566853471624, -9731.122521295849, -45390.89445959264, 0.008, 0.778, 0.65, 192.0, 0.0, 0.0, 0.0, 0.0, 0.0, 0.0, 0.0, 0.0, 0.0, 1.6541568655807183E9, 0.0, 2022-06-02 10:01:05.580
43.0, 25369.5875846848, 12343.214433576399, -71153.96215366866, -53210.92047821528, -37125.55463618692, -45016.68155392189, -9709.307218707469, -45353.56704635228, 0.008, 0.778, 0.65, 192.0, 0.0, 0.0, 0.0, 0.0, 0.0, 0.0, 0.0, 0.0, 0.0, 1.654156865580726E9, 0.0, 2022-06-02 10:01:05.580
44.0, 25357.36118046775, 12336.35244802862, -71168.37902884233, -53219.57060331948, -37127.76745888799, -45022.76122841373, -9705.06038726096, -45360.78665981134, 0.008, 0.778, 0.65, 192.0, 0.0, 0.0, 0.0, 0.0, 0.0, 0.0, 0.0, 0.0, 0.0, 1.654156865580732E9, 0.0, 2022-06-02 10:01:05.580
45.0, 25355.774206611422, 12334.832529405658, -71198.91151176828, -53242.72701057518, -37153.20374407813, -45049.650376993464, -9739.25855627758, -45420.242300062455, 0.008, 0.778, 0.65, 192.0, 0.0, 0.0, 0.0, 0.0, 0.0, 0.0, 0.0, 0.0, 0.0, 1.654156865580737E9, 0.0, 2022-06-02 10:01:05.580
46.0, 25362.59148867029, 12332.44089274894, -71197.0563169785, -53240.938871018756, -37162.144441860255, -45046.54348451418, -9755.552977985499, -45424.10915185323, 0.008, 0.778, 0.65, 192.0, 0.0, 0.0, 0.0, 0.0, 0.0, 0.0, 0.0, 0.0, 0.0, 1.6541568655807428E9, 0.0, 2022-06-02 10:01:05.580
47.0, 25355.148357766673, 12321.53324145475, -71193.30122391, -53239.48600762916, -37166.81595645141, -45046.47642928081, -9761.610300732887, -45429.473570522496, 0.008, 0.778, 0.65, 192.0, 0.0, 0.0, 0.0, 0.0, 0.0, 0.0, 0.0, 0.0, 0.0, 1.654156865580748E9, 0.0, 2022-06-02 10:01:05.580
48.0, 25360.87040434723, 12331.747988670826, -71177.11856092437, -53222.05164695402, -37150.72270044359, -45030.02554536171, -9756.670565208266, -45422.56688148581, 0.002, 0.772, 0.654, 192.0, 0.0, 16.0, 24.0, 32.0, 20.0, 112.0, 0.0, 0.0, 0.0, 1.6541568655807533E9, 0.0, 2022-06-02 10:01:05.580
49.0, 25359.797520613378, 12339.414637018996, -71186.1486656843, -53222.3645713764, -37145.73826143006, -45023.4764842363, -9727.836814860919, -45400.93039285307, 0.002, 0.772, 0.654, 192.0, 0.0, 0.0, 0.0, 0.0, 0.0, 0.0, 0.0, 0.0, 0.0, 1.6541568655807588E9, 0.0, 2022-06-02 10:01:05.580
50.0, 25363.619668915235, 12343.259137065308, -71202.86777053688, -53233.1157604594, -37158.67992146968, -45025.51049298173, -9718.15850951177, -45390.02274155888, 0.002, 0.772, 0.654, 192.0, 0.0, 0.0, 0.0, 0.0, 0.0, 0.0, 0.0, 0.0, 0.0, 1.6541568655807643E9, 0.0, 2022-06-02 10:01:05.580
51.0, 25372.828587630822, 12343.661468465503, -71195.31288091098, -53229.53948134655, -37147.63815970876, -45025.48814123728, -9719.745483368097, -45386.08883453475, 0.002, 0.772, 0.654, 192.0, 0.0, 0.0, 0.0, 0.0, 0.0, 0.0, 0.0, 0.0, 0.0, 1.6541568655807695E9, 0.0, 2022-06-02 10:01:05.580
52.0, 25363.64202065969, 12334.609011961105, -71185.76868602856, -53224.53269058856, -37144.62067420729, -45019.34141151207, -9724.573460170444, -45379.85269783172, 0.002, 0.772, 0.654, 192.0, 0.0, 0.0, 0.0, 0.0, 0.0, 0.0, 0.0, 0.0, 0.0, 1.6541568655807748E9, 0.0, 2022-06-02 10:01:05.580
53.0, 25367.374761983727, 12342.432122520462, -71163.19342412871, -53205.354893845906, -37132.97541534608, -44991.28997222066, -9688.184820197204, -45342.27941540234, 0.002, 0.772, 0.654, 192.0, 0.0, 0.0, 0.0, 0.0, 0.0, 0.0, 0.0, 0.0, 0.0, 1.6541568655807805E9, 0.0, 2022-06-02 10:01:05.580
54.0, 25375.175520798628, 12354.323250570686, -71167.59671778641, -53201.778614733055, -37126.851037365326, -44991.73700710977, -9677.76890728103, -45342.88291250264, 0.002, 0.772, 0.654, 192.0, 0.0, 0.0, 0.0, 0.0, 0.0, 0.0, 0.0, 0.0, 0.0, 1.6541568655807855E9, 0.0, 2022-06-02 10:01:05.580
55.0, 25374.616727187244, 12352.423352291984, -71197.54805535651, -53229.38301913536, -37155.10364235683, -45024.01292610323, -9714.269305976548, -45404.75254115493, 0.002, 0.772, 0.654, 192.0, 0.0, 0.0, 0.0, 0.0, 0.0, 0.0, 0.0, 0.0, 0.0, 1.654156865580791E9, 0.0, 2022-06-02 10:01:05.580
56.0, 25381.299898779384, 12354.72558197088, -71190.3507936419, -53231.841711025445, -37155.72949120158, -45031.92544364041, -9742.477207479145, -45416.59896571624, 0.002, 0.772, 0.654, 192.0, 0.0, 0.0, 0.0, 0.0, 0.0, 0.0, 0.0, 0.0, 0.0, 1.6541568655807965E9, 0.0, 2022-06-02 10:01:05.580
57.0, 25360.043389802384, 12339.839320163646, -71188.42854361875, -53234.635679082356, -37161.02685463749, -45028.14799882746, -9760.269196065568, -45400.79628238634, 0.002, 0.772, 0.654, 192.0, 0.0, 0.0, 0.0, 0.0, 0.0, 0.0, 0.0, 0.0, 0.0, 1.6541568655808015E9, 0.0, 2022-06-02 10:01:05.580
58.0, 25362.569136925835, 12345.293145810741, -71173.20700564468, -53220.75524577561, -37150.49918299904, -45017.59797544456, -9754.055411106994, -45397.667038162595, 0.004, 0.772, 0.65, 192.0, 0.0, 32.0, 24.0, 32.0, 20.0, 80.0, 0.0, 0.0, 0.0, 1.654156865580807E9, 0.0, 2022-06-02 10:01:05.580
59.0, 25370.034619573908, 12354.792637204248, -71173.38581960033, -53215.8602137399, -37138.585703204364, -45014.75930389873, -9743.952422613194, -45402.89734636514, 0.004, 0.772, 0.65, 192.0, 0.0, 0.0, 0.0, 0.0, 0.0, 0.0, 0.0, 0.0, 0.0, 1.6541568655808125E9, 0.0, 2022-06-02 10:01:05.580
60.0, 25365.7877881274, 12354.747933715336, -71191.11075295339, -53230.83588252496, -37136.618749692294, -45026.583376715585, -9726.40630321578, -45394.91777359459, 0.004, 0.772, 0.65, 192.0, 0.0, 0.0, 0.0, 0.0, 0.0, 0.0, 0.0, 0.0, 0.0, 1.654156865580818E9, 0.0, 2022-06-02 10:01:05.580
61.0, 25362.59148867029, 12346.38838128905, -71193.12240995436, -53237.63081283937, -37146.38646201926, -45034.60765297504, -9731.413093973768, -45394.40368347212, 0.004, 0.772, 0.65, 192.0, 0.0, 0.0, 0.0, 0.0, 0.0, 0.0, 0.0, 0.0, 0.0, 1.6541568655808237E9, 0.0, 2022-06-02 10:01:05.580
62.0, 25362.099750292273, 12343.080323109667, -71175.46453183467, -53229.047742968534, -37141.69259568365, -45032.26071980724, -9730.966059084662, -45390.469776447986, 0.004, 0.772, 0.65, 192.0, 0.0, 0.0, 0.0, 0.0, 0.0, 0.0, 0.0, 0.0, 0.0, 1.654156865580829E9, 0.0, 2022-06-02 10:01:05.580
63.0, 25360.26690724694, 12341.023962619778, -71168.04375267551, -53223.28099289906, -37137.736336915055, -45028.63973720548, -9722.561803169467, -45401.869166120196, 0.004, 0.772, 0.65, 192.0, 0.0, 0.0, 0.0, 0.0, 0.0, 0.0, 0.0, 0.0, 0.0, 1.6541568655808342E9, 0.0, 2022-06-02 10:01:05.580
64.0, 25359.886927591197, 12341.806273675713, -71173.00583994458, -53223.526862088074, -37132.52838045697, -45018.93908011187, -9712.838794331408, -45387.251125246425, 0.004, 0.772, 0.65, 192.0, 0.0, 0.0, 0.0, 0.0, 0.0, 0.0, 0.0, 0.0, 0.0, 1.6541568655808418E9, 0.0, 2022-06-02 10:01:05.580
65.0, 25365.36310498275, 12346.366029544597, -71189.85905526389, -53234.568623848994, -37148.28636029796, -45025.376382515, -9730.630782917831, -45386.7146833795, 0.004, 0.772, 0.65, 192.0, 0.0, 0.0, 0.0, 0.0, 0.0, 0.0, 0.0, 0.0, 0.0, 1.6541568655808485E9, 0.0, 2022-06-02 10:01:05.580
66.0, 25361.965639825543, 12340.01813411929, -71191.24486342011, -53235.552100605026, -37158.232886580576, -45024.415257503424, -9717.06327403346, -45368.18508722605, 0.004, 0.772, 0.65, 192.0, 0.0, 0.0, 0.0, 0.0, 0.0, 0.0, 0.0, 0.0, 0.0, 1.6541568655808537E9, 0.0, 2022-06-02 10:01:05.580
67.0, 25360.44572120258, 12336.263041050797, -71176.22449114615, -53221.64931555383, -37148.97926437608, -45010.4230654744, -9703.831041315918, -45360.54079062233, 0.004, 0.772, 0.65, 192.0, 0.0, 0.0, 0.0, 0.0, 0.0, 0.0, 0.0, 0.0, 0.0, 1.6541568655808592E9, 0.0, 2022-06-02 10:01:05.580
68.0, 25353.673142632622, 12335.793654417235, -71168.15551139778, -53212.93213521626, -37135.38940374725, -45005.46097820532, -9709.754253596575, -45370.73318609395, 0.006, 0.776, 0.644, 192.0, 0.0, 48.0, 24.0, 64.0, 20.0, 32.0, 0.0, 0.0, 0.0, 1.6541568655808647E9, 0.0, 2022-06-02 10:01:05.580
69.0, 25355.908317078152, 12343.505006254318, -71174.14577891181, -53211.32280961547, -37132.75189790152, -45005.259812505225, -9740.197329544704, -45397.68938990705, 0.006, 0.776, 0.644, 192.0, 0.0, 0.0, 0.0, 0.0, 0.0, 0.0, 0.0, 0.0, 0.0, 1.65415686558087E9, 0.0, 2022-06-02 10:01:05.580
70.0, 25360.736293880498, 12348.310631312208, -71191.69189830922, -53220.15174867532, -37139.703290427125, -45015.116931810015, -9765.320690312468, -45426.411381532125, 0.006, 0.776, 0.644, 192.0, 0.0, 0.0, 0.0, 0.0, 0.0, 0.0, 0.0, 0.0, 0.0, 1.6541568655808754E9, 0.0, 2022-06-02 10:01:05.580
71.0, 25357.562346167844, 12340.241651563842, -71200.29731992452, -53225.49381560014, -37157.383520291274, -45015.09458006556, -9759.151608842803, -45392.772006126885, 0.006, 0.776, 0.644, 192.0, 0.0, 0.0, 0.0, 0.0, 0.0, 0.0, 0.0, 0.0, 0.0, 1.6541568655808809E9, 0.0, 2022-06-02 10:01:05.580
72.0, 25346.565287895835, 12330.451587492418, -71191.24486342011, -53224.13035918836, -37157.33881680237, -45008.94785034035, -9723.25470724758, -45359.33379642174, 0.006, 0.776, 0.644, 192.0, 0.0, 0.0, 0.0, 0.0, 0.0, 0.0, 0.0, 0.0, 0.0, 1.6541568655808864E9, 0.0, 2022-06-02 10:01:05.580
73.0, 25346.20765998455, 12336.665372450992, -71173.67639227824, -53213.15565266081, -37136.015252592, -44998.219013001806, -9698.377215668825, -45360.22786619996, 0.006, 0.776, 0.644, 192.0, 0.0, 0.0, 0.0, 0.0, 0.0, 0.0, 0.0, 0.0, 0.0, 1.6541568655808918E9, 0.0, 2022-06-02 10:01:05.580
74.0, 25360.02103805793, 12352.646869736538, -71172.17882539974, -53202.78444323355, -37130.24850252253, -44995.402693200434, -9718.180861256225, -45383.965418811495, 0.006, 0.776, 0.644, 192.0, 0.0, 0.0, 0.0, 0.0, 0.0, 0.0, 0.0, 0.0, 0.0, 1.6541568655808976E9, 0.0, 2022-06-02 10:01:05.580
75.0, 25363.06087530385, 12353.384477303563, -71192.51891285407, -53218.6094783079, -37149.985092876566, -45008.63492591798, -9729.557899183977, -45385.150061267625, 0.006, 0.776, 0.644, 192.0, 0.0, 0.0, 0.0, 0.0, 0.0, 0.0, 0.0, 0.0, 0.0, 1.6541568655809028E9, 0.0, 2022-06-02 10:01:05.580
76.0, 25369.63228817371, 12352.15513135852, -71191.51308435359, -53220.41996960878, -37140.73147067207, -45016.74860915526, -9732.620088174353, -45387.20642175751, 0.006, 0.776, 0.644, 192.0, 0.0, 0.0, 0.0, 0.0, 0.0, 0.0, 0.0, 0.0, 0.0, 1.6541568655809083E9, 0.0, 2022-06-02 10:01:05.580
77.0, 25362.278564247914, 12340.487520752851, -71185.88044475084, -53220.55408007552, -37148.39811902024, -45025.62225170401, -9732.195405029703, -45402.98675334296, 0.006, 0.776, 0.644, 192.0, 0.0, 0.0, 0.0, 0.0, 0.0, 0.0, 0.0, 0.0, 0.0, 1.6541568655809135E9, 0.0, 2022-06-02 10:01:05.580
78.0, 25359.194023513082, 12339.861671908102, -71174.19048240072, -53211.47927182666, -37147.57110447539, -45015.29574576566, -9729.49084395061, -45394.247221260935, 0.008, 0.778, 0.648, 192.0, 0.0, 64.0, 24.0, 80.0, 20.0, 64.0, 0.0, 0.0, 0.0, 1.654156865580919E9, 0.0, 2022-06-02 10:01:05.580
79.0, 25359.283430490905, 12341.78392193126, -71184.74050578363, -53216.15078641782, -37155.12599410129, -45014.58048994309, -9725.579288670933, -45386.200593257025, 0.008, 0.778, 0.648, 192.0, 0.0, 0.0, 0.0, 0.0, 0.0, 0.0, 0.0, 0.0, 0.0, 1.6541568655809245E9, 0.0, 2022-06-02 10:01:05.580
80.0, 25361.20568051406, 12348.422390034484, -71203.76184031508, -53230.925289502775, -37160.602171492836, -45032.08190585159, -9728.574422427944, -45388.18989851355, 0.008, 0.778, 0.648, 192.0, 0.0, 0.0, 0.0, 0.0, 0.0, 0.0, 0.0, 0.0, 0.0, 1.6541568655809298E9, 0.0, 2022-06-02 10:01:05.580
81.0, 25355.394226955683, 12339.034657363256, -71200.96787225817, -53241.20709195222, -37169.609924508324, -45055.12655438502, -9769.746335714619, -45437.877826437696, 0.008, 0.778, 0.648, 192.0, 0.0, 0.0, 0.0, 0.0, 0.0, 0.0, 0.0, 0.0, 0.0, 1.6541568655809355E9, 0.0, 2022-06-02 10:01:05.580
82.0, 25356.02007580043, 12339.235823063353, -71177.051505691, -53222.20810916521, -37150.320369043395, -45027.90212963845, -9746.969908114661, -45390.42507295908, 0.008, 0.778, 0.648, 192.0, 0.0, 0.0, 0.0, 0.0, 0.0, 0.0, 0.0, 0.0, 0.0, 1.6541568655809407E9, 0.0, 2022-06-02 10:01:05.580
83.0, 25356.333000222803, 12337.78295967376, -71164.62393577385, -53210.13816715934, -37136.79756364794, -45011.31713525261, -9704.322779693935, -45352.69532831852, 0.008, 0.778, 0.648, 192.0, 0.0, 0.0, 0.0, 0.0, 0.0, 0.0, 0.0, 0.0, 0.0, 1.6541568655809464E9, 0.0, 2022-06-02 10:01:05.580
84.0, 25356.91414557864, 12335.771302672782, -71173.18465390023, -53217.62600155187, -37141.33496777236, -45027.94683312736, -9728.440311961213, -45390.55918342581, 0.008, 0.778, 0.648, 192.0, 0.0, 0.0, 0.0, 0.0, 0.0, 0.0, 0.0, 0.0, 0.0, 1.654156865580952E9, 0.0, 2022-06-02 10:01:05.580
85.0, 25366.056009060863, 12345.24844232183, -71183.91349123878, -53226.611402822906, -37143.25721779552, -45046.25291183626, -9752.446085506212, -45438.39191656017, 0.008, 0.778, 0.648, 192.0, 0.0, 0.0, 0.0, 0.0, 0.0, 0.0, 0.0, 0.0, 0.0, 1.6541568655809596E9, 0.0, 2022-06-02 10:01:05.580
86.0, 25360.982163069508, 12337.626497462572, -71192.78713378754, -53234.233347682166, -37158.232886580576, -45048.5327897707, -9761.297376310513, -45426.120808854204, 0.008, 0.778, 0.648, 192.0, 0.0, 0.0, 0.0, 0.0, 0.0, 0.0, 0.0, 0.0, 0.0, 1.654156865580968E9, 0.0, 2022-06-02 10:01:05.580
87.0, 25362.725599137022, 12336.73242768436, -71178.88434873633, -53221.00111496462, -37145.00065386303, -45027.90212963845, -9723.344114225401, -45379.428014687066, 0.006, 0.78, 0.646, 192.0, 0.0, 48.0, 24.0, 96.0, 20.0, 48.0, 0.0, 0.0, 0.0, 1.6541568655809755E9, 0.0, 2022-06-02 10:01:05.580
88.0, 25349.35925595275, 12327.188232801942, -71175.57629055694, -53217.91657422979, -37135.858790380815, -45018.760266156234, -9703.49576514909, -45363.58062786825, 0.006, 0.78, 0.646, 192.0, 0.0, 0.0, 0.0, 0.0, 0.0, 0.0, 0.0, 0.0, 0.0, 1.6541568655809865E9, 0.0, 2022-06-02 10:01:05.580
89.0, 25350.141567008683, 12334.385494516551, -71178.77259001405, -53214.96614396169, -37132.77424964598, -45007.4726352063, -9707.899058806785, -45374.801203584815, 0.006, 0.78, 0.646, 192.0, 0.0, 0.0, 0.0, 0.0, 0.0, 0.0, 0.0, 0.0, 0.0, 1.6541568655809946E9, 0.0, 2022-06-02 10:01:05.580
90.0, 25355.550689166867, 12338.006477118312, -71201.057279236, -53230.88058601387, -37158.7693284475, -45023.588242958576, -9761.319728054968, -45420.51052099592, 0.006, 0.78, 0.646, 192.0, 0.0, 0.0, 0.0, 0.0, 0.0, 0.0, 0.0, 0.0, 0.0, 1.6541568655810025E9, 0.0, 2022-06-02 10:01:05.581
91.0, 25353.091997276784, 12331.703285181915, -71206.33229092744, -53239.329545417975, -37173.58853502137, -45035.56877798662, -9760.604472232399, -45417.42598026109, 0.006, 0.78, 0.646, 192.0, 0.0, 0.0, 0.0, 0.0, 0.0, 0.0, 0.0, 0.0, 0.0, 1.6541568655810108E9, 0.0, 2022-06-02 10:01:05.581
92.0, 25350.476843175515, 12332.932631126956, -71189.76964828606, -53227.59487957894, -37153.00257837804, -45027.85742614954, -9713.68816062071, -45388.79339561384, 0.006, 0.78, 0.646, 192.0, 0.0, 0.0, 0.0, 0.0, 0.0, 0.0, 0.0, 0.0, 0.0, 1.6541568655810227E9, 0.0, 2022-06-02 10:01:05.581
93.0, 25355.01424729994, 12338.028828862767, -71171.03888643252, -53210.76401600409, -37140.97733986108, -45011.09361780806, -9714.425768187735, -45376.29877046332, 0.006, 0.78, 0.646, 192.0, 0.0, 0.0, 0.0, 0.0, 0.0, 0.0, 0.0, 0.0, 0.0, 1.6541568655810287E9, 0.0, 2022-06-02 10:01:05.581
94.0, 25356.333000222803, 12343.281488809764, -71174.68222077873, -53209.9593532037, -37146.78879341946, -45010.356010241034, -9745.561748213977, -45402.74088415395, 0.006, 0.78, 0.646, 192.0, 0.0, 0.0, 0.0, 0.0, 0.0, 0.0, 0.0, 0.0, 0.0, 1.654156865581034E9, 0.0, 2022-06-02 10:01:05.581
95.0, 25354.67897113311, 12339.928727141469, -71198.46447687918, -53229.80770228001, -37167.28534308497, -45026.941004626875, -9775.513085784089, -45421.18107332958, 0.006, 0.78, 0.646, 192.0, 0.0, 0.0, 0.0, 0.0, 0.0, 0.0, 0.0, 0.0, 0.0, 1.6541568655810418E9, 0.0, 2022-06-02 10:01:05.581
96.0, 25359.77516886892, 12336.82183466218, -71191.82600877596, -53233.20516743722, -37168.51468903002, -45035.16644658642, -9755.30710879649, -45406.74184641145, 0.006, 0.78, 0.646, 192.0, 0.0, 0.0, 0.0, 0.0, 0.0, 0.0, 0.0, 0.0, 0.0, 1.6541568655810473E9, 0.0, 2022-06-02 10:01:05.581
97.0, 25369.87815736272, 12347.39420978954, -71168.73665675362, -53216.37430386237, -37145.02300560749, -45030.092600595075, -9742.186634801226, -45419.90702389563, 0.006, 0.788, 0.652, 192.0, 0.0, 48.0, 24.0, 160.0, 20.0, 96.0, 0.0, 0.0, 0.0, 1.6541568655810525E9, 0.0, 2022-06-02 10:01:05.581
98.0, 25360.378665969216, 12343.952041143422, -71160.51121479407, -53212.52980381606, -37134.40592699122, -45030.517283739726, -9726.071027048949, -45412.01685810291, 0.006, 0.788, 0.652, 192.0, 0.0, 0.0, 0.0, 0.0, 0.0, 0.0, 0.0, 0.0, 0.0, 1.654156865581058E9, 0.0, 2022-06-02 10:01:05.581
99.0, 25355.43893044459, 12343.773227187781, -71164.8474532184, -53213.84855673892, -37130.98611008956, -45019.587280701075, -9702.981675026616, -45388.569878169284, 0.006, 0.788, 0.652, 192.0, 0.0, 0.0, 0.0, 0.0, 0.0, 0.0, 0.0, 0.0, 0.0, 1.654156865581064E9, 0.0, 2022-06-02 10:01:05.581
100.0, 25365.854843360765, 12353.540939514749, -71177.99027895812, -53218.74358877463, -37137.28930202595, -45017.93325161139, -9713.866974576351, -45374.06359601779, 0.006, 0.788, 0.652, 192.0, 0.0, 0.0, 0.0, 0.0, 0.0, 0.0, 0.0, 0.0, 0.0, 1.6541568655810697E9, 0.0, 2022-06-02 10:01:05.581
101.0, 25367.084189305806, 12350.568157502194, -71181.65596504879, -53222.118702187385, -37145.782964918966, -45024.638774947976, -9735.011724831073, -45373.30363670631, 0.006, 0.788, 0.652, 192.0, 0.0, 0.0, 0.0, 0.0, 0.0, 0.0, 0.0, 0.0, 0.0, 1.654156865581075E9, 0.0, 2022-06-02 10:01:05.581
102.0, 25356.377703711714, 12332.373837515574, -71178.03498244703, -53226.611402822906, -37155.95300864613, -45038.630966977, -9726.652172404787, -45399.11990155219, 0.006, 0.788, 0.652, 192.0, 0.0, 0.0, 0.0, 0.0, 0.0, 0.0, 0.0, 0.0, 0.0, 1.6541568655810804E9, 0.0, 2022-06-02 10:01:05.581
103.0, 25350.901526320165, 12322.941401355434, -71171.88825272182, -53223.795083021534, -37154.50014525654, -45041.31317631164, -9711.005951286072, -45400.952744597525, 0.006, 0.788, 0.652, 192.0, 0.0, 0.0, 0.0, 0.0, 0.0, 0.0, 0.0, 0.0, 0.0, 1.6541568655810857E9, 0.0, 2022-06-02 10:01:05.581
104.0, 25353.695494377076, 12332.932631126956, -71170.43538933223, -53217.782463763055, -37144.374805018284, -45027.81272266063, -9721.712436880165, -45384.4124537006, 0.006, 0.788, 0.652, 192.0, 0.0, 0.0, 0.0, 0.0, 0.0, 0.0, 0.0, 0.0, 0.0, 1.6541568655810912E9, 0.0, 2022-06-02 10:01:05.581
105.0, 25353.606087399257, 12337.58179397366, -71193.7035553102, -53234.6133273379, -37154.455441767626, -45044.04008913518, -9751.68612619473, -45415.99546861595, 0.006, 0.788, 0.652, 192.0, 0.0, 0.0, 0.0, 0.0, 0.0, 0.0, 0.0, 0.0, 0.0, 1.6541568660595798E9, 0.0, 2022-06-02 10:01:06.059
106.0, 25348.86751757473, 12329.24459329183, -71197.7045175677, -53240.089504729454, -37163.23967733856, -45048.622196748525, -9738.967983599661, -45398.449349218536, 0.006, 0.788, 0.652, 192.0, 0.0, 0.0, 0.0, 0.0, 0.0, 0.0, 0.0, 0.0, 0.0, 1.6541568660598109E9, 0.0, 2022-06-02 10:01:06.059
107.0, 25357.651753145667, 12337.626497462572, -71168.78136024253, -53216.79898700702, -37140.6644154387, -45021.33071676859, -9707.340265195402, -45358.48443013244, 0.012, 0.778, 0.656, 192.0, 0.0, 96.0, 24.0, 80.0, 20.0, 128.0, 0.0, 0.0, 0.0, 1.654156866059826E9, 0.0, 2022-06-02 10:01:06.059
108.0, 25353.360218210248, 12339.973430630378, -71159.3489240824, -53206.8077572355, -37124.72762164207, -45005.393922971954, -9696.231448201115, -45362.574799367765, 0.012, 0.778, 0.656, 192.0, 0.0, 0.0, 0.0, 0.0, 0.0, 0.0, 0.0, 0.0, 0.0, 1.654156866059832E9, 0.0, 2022-06-02 10:01:06.059
109.0, 25338.183383725096, 12329.937497369945, -71181.9465377267, -53222.34221963194, -37136.77521190348, -45009.28312650718, -9708.860183818362, -45381.55143041032, 0.012, 0.778, 0.656, 192.0, 0.0, 0.0, 0.0, 0.0, 0.0, 0.0, 0.0, 0.0, 0.0, 1.6541568660598388E9, 0.0, 2022-06-02 10:01:06.059
110.0, 25325.778165552398, 12314.671255906971, -71224.88423882535, -53257.25564447113, -37175.130805388784, -45041.06730712263, -9760.537416999034, -45419.214119817516, 0.012, 0.778, 0.656, 192.0, 0.0, 0.0, 0.0, 0.0, 0.0, 0.0, 0.0, 0.0, 0.0, 1.654156866059847E9, 0.0, 2022-06-02 10:01:06.059
111.0, 25328.616837098223, 12312.212564016887, -71224.43720393625, -53259.78139159458, -37181.098721158356, -45049.27039733773, -9787.180696389758, -45426.92547165459, 0.012, 0.778, 0.656, 192.0, 0.0, 0.0, 0.0, 0.0, 0.0, 0.0, 0.0, 0.0, 0.0, 1.6541568660598528E9, 0.0, 2022-06-02 10:01:06.059
112.0, 25339.725654092512, 12322.67318042197, -71194.53056985505, -53235.127417460375, -37161.02685463749, -45025.376382515, -9770.193370603725, -45409.15583481263, 0.012, 0.778, 0.656, 192.0, 0.0, 0.0, 0.0, 0.0, 0.0, 0.0, 0.0, 0.0, 0.0, 1.6541568660598595E9, 0.0, 2022-06-02 10:01:06.059
113.0, 25336.462299402036, 12326.383570001552, -71187.48977035163, -53225.87379525588, -37163.77611920549, -45021.19660630186, -9772.853228193908, -45413.35796277022, 0.012, 0.778, 0.656, 192.0, 0.0, 0.0, 0.0, 0.0, 0.0, 0.0, 0.0, 0.0, 0.0, 1.6541568660598712E9, 0.0, 2022-06-02 10:01:06.059
114.0, 25336.752872079956, 12326.115349068088, -71186.77451452905, -53226.70080980073, -37158.63521798077, -45025.62225170401, -9753.4519140067, -45403.09851206523, 0.012, 0.778, 0.656, 192.0, 0.0, 0.0, 0.0, 0.0, 0.0, 0.0, 0.0, 0.0, 0.0, 1.6541568660598795E9, 0.0, 2022-06-02 10:01:06.059
115.0, 25340.30679944835, 12330.540994470239, -71201.03492749154, -53243.08463848646, -37162.36795930481, -45041.31317631164, -9751.50731223909, -45420.33170704028, 0.012, 0.778, 0.656, 192.0, 0.0, 0.0, 0.0, 0.0, 0.0, 0.0, 0.0, 0.0, 0.0, 1.654156866059888E9, 0.0, 2022-06-02 10:01:06.059
116.0, 25358.16584326814, 12345.24844232183, -71189.16615118577, -53236.89320527235, -37160.535116259474, -45035.121743097516, -9745.248823791602, -45391.453253204025, 0.012, 0.778, 0.656, 192.0, 0.0, 0.0, 0.0, 0.0, 0.0, 0.0, 0.0, 0.0, 0.0, 1.6541568660598965E9, 0.0, 2022-06-02 10:01:06.059
117.0, 25352.488500176492, 12337.358276529107, -71183.48880809413, -53238.99426925115, -37171.68863674267, -45039.99442338877, -9762.258501322092, -45388.8157473583, 0.01, 0.774, 0.656, 192.0, 0.0, 80.0, 24.0, 48.0, 20.0, 128.0, 0.0, 0.0, 0.0, 1.6541568660599065E9, 0.0, 2022-06-02 10:01:06.059
118.0, 25350.454491431057, 12338.386456774051, -71164.8474532184, -53226.745513289636, -37159.84221218136, -45033.04303086317, -9736.621050431855, -45390.112148536704, 0.01, 0.774, 0.656, 192.0, 0.0, 0.0, 0.0, 0.0, 0.0, 0.0, 0.0, 0.0, 0.0, 1.654156866059916E9, 0.0, 2022-06-02 10:01:06.059
119.0, 25369.989916084996, 12357.407791305517, -71149.42474954424, -53208.95352470321, -37132.48367696806, -45011.4735974638, -9690.040014986995, -45359.80318305531, 0.01, 0.774, 0.656, 192.0, 0.0, 0.0, 0.0, 0.0, 0.0, 0.0, 0.0, 0.0, 0.0, 1.6541568660599215E9, 0.0, 2022-06-02 10:01:06.059
120.0, 25370.481654463012, 12360.760552973814, -71179.93488072573, -53230.76882729159, -37156.914133657716, -45034.89822565296, -9728.954402083684, -45404.797244643836, 0.01, 0.774, 0.656, 192.0, 0.0, 0.0, 0.0, 0.0, 0.0, 0.0, 0.0, 0.0, 0.0, 1.654156866059927E9, 0.0, 2022-06-02 10:01:06.059
121.0, 25350.34273270878, 12343.326192298675, -71195.91637801127, -53251.712411846216, -37160.021026137, -45065.29659811218, -9751.68612619473, -45422.075143107795, 0.01, 0.774, 0.656, 192.0, 0.0, 0.0, 0.0, 0.0, 0.0, 0.0, 0.0, 0.0, 0.0, 1.6541568660599325E9, 0.0, 2022-06-02 10:01:06.059
122.0, 25348.86751757473, 12340.711038197403, -71177.72205802465, -53240.2683186851, -37149.47100275409, -45054.143077628985, -9739.459721977679, -45402.5173667094, 0.01, 0.774, 0.656, 192.0, 0.0, 0.0, 0.0, 0.0, 0.0, 0.0, 0.0, 0.0, 0.0, 1.6541568660599384E9, 0.0, 2022-06-02 10:01:06.059
123.0, 25355.796558355876, 12349.741142957348, -71158.67837174874, -53219.52589983057, -37131.76842114549, -45035.747591942265, -9708.860183818362, -45380.679712376565, 0.01, 0.774, 0.656, 192.0, 0.0, 0.0, 0.0, 0.0, 0.0, 0.0, 0.0, 0.0, 0.0, 1.654156866059944E9, 0.0, 2022-06-02 10:01:06.059
124.0, 25352.957886810054, 12349.651735979527, -71158.83483395992, -53216.84369049594, -37129.51089495551, -45023.34237376957, -9707.362616939858, -45364.0053110129, 0.01, 0.774, 0.656, 192.0, 0.0, 0.0, 0.0, 0.0, 0.0, 0.0, 0.0, 0.0, 0.0, 1.6541568660599494E9, 0.0, 2022-06-02 10:01:06.059
125.0, 25352.64496238768, 12344.600241732627, -71186.01455521758, -53238.45782738422, -37152.17556383319, -45040.24029257778, -9753.228396562148, -45396.30358175082, 0.01, 0.774, 0.656, 192.0, 0.0, 0.0, 0.0, 0.0, 0.0, 0.0, 0.0, 0.0, 0.0, 1.654156866059955E9, 0.0, 2022-06-02 10:01:06.059
126.0, 25351.907354820654, 12334.988991616845, -71192.92124425426, -53249.92427228979, -37171.509822787026, -45058.09933639757, -9773.903760183306, -45409.89344237965, 0.01, 0.774, 0.656, 192.0, 0.0, 0.0, 0.0, 0.0, 0.0, 0.0, 0.0, 0.0, 0.0, 1.65415686605996E9, 0.0, 2022-06-02 10:01:06.059
127.0, 25341.804366326855, 12329.021075847279, -71176.58211905744, -53242.1682169638, -37155.75184294604, -45054.07602239562, -9740.644364433809, -45393.621372416186, 0.008, 0.77, 0.652, 192.0, 0.0, 64.0, 24.0, 16.0, 20.0, 96.0, 0.0, 0.0, 0.0, 1.6541568660599656E9, 0.0, 2022-06-02 10:01:06.059
128.0, 25346.274715217914, 12336.285392795253, -71155.30325833599, -53223.81743476599, -37129.287377510955, -45034.11591459703, -9721.466567691155, -45374.46592741799, 0.008, 0.77, 0.652, 192.0, 0.0, 0.0, 0.0, 0.0, 0.0, 0.0, 0.0, 0.0, 0.0, 1.6541568660599768E9, 0.0, 2022-06-02 10:01:06.059
129.0, 25355.036599044397, 12348.087113867656, -71160.91354619426, -53221.984591720655, -37126.068726309386, -45031.545463984665, -9729.647306161798, -45406.27245977789, 0.008, 0.77, 0.652, 192.0, 0.0, 0.0, 0.0, 0.0, 0.0, 0.0, 0.0, 0.0, 0.0, 1.6541568660599823E9, 0.0, 2022-06-02 10:01:06.059
130.0, 25353.807253099356, 12348.623555734583, -71187.6015290739, -53244.559853620514, -37132.12604905678, -45050.633853749496, -9725.78045437103, -45431.41817229011, 0.008, 0.77, 0.652, 192.0, 0.0, 0.0, 0.0, 0.0, 0.0, 0.0, 0.0, 0.0, 0.0, 1.6541568660599878E9, 0.0, 2022-06-02 10:01:06.059
131.0, 25347.548764651867, 12339.884023652558, -71198.12920071236, -53258.77556309409, -37150.36507253231, -45050.76796421623, -9730.764893384563, -45411.167491813605, 0.008, 0.77, 0.652, 192.0, 0.0, 0.0, 0.0, 0.0, 0.0, 0.0, 0.0, 0.0, 0.0, 1.6541568660599933E9, 0.0, 2022-06-02 10:01:06.059
132.0, 25346.565287895835, 12331.278602037264, -71183.3994011163, -53248.60551936692, -37148.95691263162, -45023.521187725215, -9716.526832166533, -45353.276473674356, 0.008, 0.77, 0.652, 192.0, 0.0, 0.0, 0.0, 0.0, 0.0, 0.0, 0.0, 0.0, 0.0, 1.6541568660599985E9, 0.0, 2022-06-02 10:01:06.059
133.0, 25347.25819197395, 12334.072570094177, -71173.02819168904, -53237.13907446135, -37146.1182410858, -45015.09458006556, -9730.586079428922, -45358.14915396561, 0.008, 0.77, 0.652, 192.0, 0.0, 0.0, 0.0, 0.0, 0.0, 0.0, 0.0, 0.0, 0.0, 1.654156866060004E9, 0.0, 2022-06-02 10:01:06.060
134.0, 25354.701322877565, 12343.840282421146, -71171.97765969964, -53230.67942031377, -37138.719813671094, -45005.818606116605, -9719.812538601464, -45357.03156674285, 0.008, 0.77, 0.652, 192.0, 0.0, 0.0, 0.0, 0.0, 0.0, 0.0, 0.0, 0.0, 0.0, 1.6541568660600092E9, 0.0, 2022-06-02 10:01:06.060
135.0, 25361.272735747425, 12348.310631312208, -71184.76285752808, -53242.65995534181, -37143.8160114069, -45013.865234120516, -9697.617256357344, -45378.28807571984, 0.008, 0.77, 0.652, 192.0, 0.0, 0.0, 0.0, 0.0, 0.0, 0.0, 0.0, 0.0, 0.0, 1.6541568660600145E9, 0.0, 2022-06-02 10:01:06.060
136.0, 25366.72656139452, 12351.10459936912, -71184.69580229471, -53246.593862365946, -37153.896648156246, -45018.80496964514, -9706.602657628377, -45370.889648305136, 0.008, 0.77, 0.652, 192.0, 0.0, 0.0, 0.0, 0.0, 0.0, 0.0, 0.0, 0.0, 0.0, 1.65415686606002E9, 0.0, 2022-06-02 10:01:06.060
137.0, 25372.716828908546, 12355.977279660377, -71172.11177016638, -53235.283879671566, -37154.00840687852, -45018.84967313405, -9750.769704672064, -45381.28320947686, 0.008, 0.78, 0.646, 192.0, 0.0, 64.0, 24.0, 96.0, 20.0, 48.0, 0.0, 0.0, 0.0, 1.6541568660600255E9, 0.0, 2022-06-02 10:01:06.060
138.0, 25367.15124453917, 12353.317422070197, -71162.7463892396, -53232.28874591455, -37151.34854928834, -45020.12372256801, -9734.11765505286, -45365.14524998012, 0.008, 0.78, 0.646, 192.0, 0.0, 0.0, 0.0, 0.0, 0.0, 0.0, 0.0, 0.0, 0.0, 1.6541568660600307E9, 0.0, 2022-06-02 10:01:06.060
139.0, 25366.659506161155, 12357.1172186276, -71164.69099100721, -53235.08271397147, -37139.12214507129, -45030.53963548418, -9716.035093788516, -45379.27155247588, 0.008, 0.78, 0.646, 192.0, 0.0, 0.0, 0.0, 0.0, 0.0, 0.0, 0.0, 0.0, 0.0, 1.6541568660600362E9, 0.0, 2022-06-02 10:01:06.060
140.0, 25368.939384095596, 12362.34752683014, -71184.87461625035, -53252.047688013045, -37149.78392717647, -45056.020624163226, -9754.524797740556, -45423.41624777511, 0.008, 0.78, 0.646, 192.0, 0.0, 0.0, 0.0, 0.0, 0.0, 0.0, 0.0, 0.0, 0.0, 1.6541568660600417E9, 0.0, 2022-06-02 10:01:06.060
141.0, 25375.242576031993, 12369.075401911188, -71184.02524996105, -53251.08656300147, -37158.5234592585, -45062.949664944375, -9782.486830054144, -45431.61933799021, 0.008, 0.78, 0.646, 192.0, 0.0, 0.0, 0.0, 0.0, 0.0, 0.0, 0.0, 0.0, 0.0, 1.654156866060047E9, 0.0, 2022-06-02 10:01:06.060
142.0, 25371.599241685777, 12364.649756509038, -71173.63168878933, -53243.48696988666, -37153.56137198942, -45057.92052244193, -9775.93776892874, -45426.14316059866, 0.008, 0.78, 0.646, 192.0, 0.0, 0.0, 0.0, 0.0, 0.0, 0.0, 0.0, 0.0, 0.0, 1.6541568660600524E9, 0.0, 2022-06-02 10:01:06.060
143.0, 25360.937459580597, 12355.284375582263, -71171.28475562153, -53240.55889136301, -37140.59736020534, -45049.73978397129, -9736.621050431855, -45389.39689271413, 0.008, 0.78, 0.646, 192.0, 0.0, 0.0, 0.0, 0.0, 0.0, 0.0, 0.0, 0.0, 0.0, 1.6541568660600576E9, 0.0, 2022-06-02 10:01:06.060
144.0, 25354.88013683321, 12350.568157502194, -71180.27015689255, -53246.37034492139, -37146.43116550818, -45054.120725884524, -9738.140969054815, -45392.74965438243, 0.008, 0.78, 0.646, 192.0, 0.0, 0.0, 0.0, 0.0, 0.0, 0.0, 0.0, 0.0, 0.0, 1.654156866060063E9, 0.0, 2022-06-02 10:01:06.060
145.0, 25377.365991755247, 12372.383460090574, -71184.80756101699, -53244.0681152425, -37151.19208707716, -45056.24414160778, -9755.955309385696, -45421.0693146073, 0.008, 0.78, 0.646, 192.0, 0.0, 0.0, 0.0, 0.0, 0.0, 0.0, 0.0, 0.0, 0.0, 1.6541568660600684E9, 0.0, 2022-06-02 10:01:06.060
146.0, 25390.665279706154, 12388.968454476411, -71175.86686323487, -53231.93111800327, -37150.16390683221, -45037.04399312067, -9763.443143778222, -45395.54362243934, 0.008, 0.78, 0.646, 192.0, 0.0, 0.0, 0.0, 0.0, 0.0, 0.0, 0.0, 0.0, 0.0, 1.6541568660600753E9, 0.0, 2022-06-02 10:01:06.060
147.0, 25379.26589003395, 12382.77702126229, -71169.60837478738, -53226.99138247864, -37159.01519763651, -45028.79619941666, -9771.914454926784, -45386.40175895712, 0.004, 0.784, 0.648, 192.0, 0.0, 32.0, 24.0, 128.0, 20.0, 64.0, 0.0, 0.0, 0.0, 1.6541568660600803E9, 0.0, 2022-06-02 10:01:06.060
148.0, 25368.090017806295, 12376.183256647975, -71160.89119444981, -53222.275164398576, -37134.9647206026, -45024.9293476259, -9722.986486314117, -45376.477584418964, 0.004, 0.784, 0.648, 192.0, 0.0, 0.0, 0.0, 0.0, 0.0, 0.0, 0.0, 0.0, 0.0, 1.6541568660600858E9, 0.0, 2022-06-02 10:01:06.060
149.0, 25365.676029405124, 12376.697346770448, -71164.53452879602, -53224.59974582193, -37130.337909500355, -45026.40456275995, -9710.4918611636, -45382.46785193299, 0.004, 0.784, 0.648, 192.0, 0.0, 0.0, 0.0, 0.0, 0.0, 0.0, 0.0, 0.0, 0.0, 1.6541568660600913E9, 0.0, 2022-06-02 10:01:06.060
150.0, 25370.615764929746, 12381.994710206356, -71183.28764239403, -53236.9155570168, -37145.224171307585, -45034.60765297504, -9734.318820752958, -45413.62618370369, 0.004, 0.784, 0.648, 192.0, 0.0, 0.0, 0.0, 0.0, 0.0, 0.0, 0.0, 0.0, 0.0, 1.6541568660600991E9, 0.0, 2022-06-02 10:01:06.060
151.0, 25352.242630987483, 12366.862579210112, -71200.56554085798, -53253.45584791373, -37172.78387222098, -45050.142115371484, -9761.543245499523, -45421.002259373934, 0.004, 0.784, 0.648, 192.0, 0.0, 0.0, 0.0, 0.0, 0.0, 0.0, 0.0, 0.0, 0.0, 1.6541568660601046E9, 0.0, 2022-06-02 10:01:06.060
152.0, 25343.659561116645, 12358.01128840581, -71185.67927905075, -53250.6171763679, -37160.199840092646, -45051.79614446117, -9751.395553516812, -45403.523195209884, 0.004, 0.784, 0.648, 192.0, 0.0, 0.0, 0.0, 0.0, 0.0, 0.0, 0.0, 0.0, 0.0, 1.65415686606011E9, 0.0, 2022-06-02 10:01:06.060
153.0, 25347.906392563153, 12360.984070418368, -71168.46843582016, -53234.72508606018, -37139.18920030465, -45029.019716861214, -9723.612335158865, -45363.468869145974, 0.004, 0.784, 0.648, 192.0, 0.0, 0.0, 0.0, 0.0, 0.0, 0.0, 0.0, 0.0, 0.0, 1.654156866060115E9, 0.0, 2022-06-02 10:01:06.060
154.0, 25360.311610735847, 12373.568102546706, -71154.38683681331, -53219.03416145255, -37116.23395874906, -45009.90897535193, -9700.679445347721, -45351.22011318447, 0.004, 0.784, 0.648, 192.0, 0.0, 0.0, 0.0, 0.0, 0.0, 0.0, 0.0, 0.0, 0.0, 1.6541568660601208E9, 0.0, 2022-06-02 10:01:06.060
155.0, 25359.64105840219, 12373.54575080225, -71175.19631090121, -53236.803798294524, -37133.31069151291, -45025.64460344847, -9730.161396284271, -45394.42603521658, 0.004, 0.784, 0.648, 192.0, 0.0, 0.0, 0.0, 0.0, 0.0, 0.0, 0.0, 0.0, 0.0, 1.6541568660601268E9, 0.0, 2022-06-02 10:01:06.060
