%OpenBCI Raw EEG Data
%Number of channels = 8
%Sample Rate = 250 Hz
%Board = OpenBCI_GUI$BoardCytonSerial
Sample Index, EXG Channel 0, EXG Channel 1, EXG Channel 2, EXG Channel 3, EXG Channel 4, EXG Channel 5, EXG Channel 6, EXG Channel 7, Accel Channel 0, Accel Channel 1, Accel Channel 2, Other, Other, Other, Other, Other, Other, Other, Analog Channel 0, Analog Channel 1, Analog Channel 2, Timestamp, Other, Timestamp (Formatted)
83.0, 35946.32130221383, 41223.50111287846, -34537.55790442919, -21659.443874292836, -21440.754406542113, -26992.01130771772, -8954.689974151846, -29340.397338914558, 0.0, 0.0, 0.0, 192.0, 0.0, 0.0, 0.0, 0.0, 0.0, 0.0, 0.0, 0.0, 0.0, 1.651844401605482E9, 0.0, 2022-05-06 15:40:01.605
84.0, 35931.99383401797, 41229.26786294793, -34490.01574397275, -21674.91128145591, -21439.43565361925, -26936.46722274628, -8962.58013994457, -29331.546048110253, 0.0, 0.0, 0.0, 192.0, 0.0, 0.0, 0.0, 0.0, 0.0, 0.0, 0.0, 0.0, 0.0, 1.6518444016054888E9, 0.0, 2022-05-06 15:40:01.605
85.0, 35909.73149654049, 41250.45731669156, -34411.51641744571, -21633.404092002405, -21397.973167654654, -26827.614227248938, -8955.606395674515, -29277.45482652841, 0.0, 0.0, 0.0, 192.0, 0.0, 0.0, 0.0, 0.0, 0.0, 0.0, 0.0, 0.0, 0.0, 1.6518444016054945E9, 0.0, 2022-05-06 15:40:01.605
86.0, 35916.77229604391, 41279.26871529445, -34341.91308521188, -21592.768620582658, -21371.642812686303, -26752.847642045934, -8941.301279223118, -29238.607494665088, 0.0, 0.0, 0.0, 192.0, 0.0, 0.0, 0.0, 0.0, 0.0, 0.0, 0.0, 0.0, 0.0, 1.6518444016055012E9, 0.0, 2022-05-06 15:40:01.605
87.0, 35931.72561308451, 41275.93830537061, -34322.95880591378, -21612.639321403425, -21394.508647264083, -26748.9137350218, -8964.569445201094, -29264.155538577503, 0.0, 0.0, 0.0, 192.0, 0.0, 0.0, 0.0, 0.0, 0.0, 0.0, 0.0, 0.0, 0.0, 1.651844401605507E9, 0.0, 2022-05-06 15:40:01.605
88.0, 35959.73234888701, 41261.633188919215, -34305.70325919429, -21622.80936513059, -21427.94685696922, -26740.397720384328, -8994.341968815563, -29302.958166951918, 0.12, 0.846, 0.498, 192.0, 3.0, 192.0, 26.0, 112.0, 15.0, 144.0, 0.0, 0.0, 0.0, 1.651844401605513E9, 0.0, 2022-05-06 15:40:01.605
89.0, 35961.654598910165, 41245.85285733377, -34271.57214541103, -21623.502269208704, -21430.38319711485, -26730.361787123897, -8997.44886129485, -29328.41680388651, 0.12, 0.846, 0.498, 192.0, 0.0, 0.0, 0.0, 0.0, 0.0, 0.0, 0.0, 0.0, 0.0, 1.6518444016055186E9, 0.0, 2022-05-06 15:40:01.605
90.0, 35958.50300294197, 41278.620514705246, -34220.498409330656, -21598.065984018565, -21409.529019538048, -26691.827379682945, -9011.619867279514, -29298.063134916203, 0.12, 0.846, 0.498, 192.0, 0.0, 0.0, 0.0, 0.0, 0.0, 0.0, 0.0, 0.0, 0.0, 1.651844401605524E9, 0.0, 2022-05-06 15:40:01.605
91.0, 35955.19494476258, 41306.26962259646, -34170.74342617315, -21569.299288904585, -21379.42121975675, -26648.733216373115, -8944.34111646904, -29257.897050130017, 0.12, 0.846, 0.498, 192.0, 0.0, 0.0, 0.0, 0.0, 0.0, 0.0, 0.0, 0.0, 0.0, 1.6518444016055295E9, 0.0, 2022-05-06 15:40:01.605
92.0, 35979.96067761906, 41309.55532903139, -34167.56947846049, -21559.777445766624, -21390.10535360639, -26657.740969388604, -8985.267160566707, -29303.5169605633, 0.12, 0.846, 0.498, 192.0, 0.0, 0.0, 0.0, 0.0, 0.0, 0.0, 0.0, 0.0, 0.0, 1.6518444016055348E9, 0.0, 2022-05-06 15:40:01.605
93.0, 35987.8955469007, 41282.956753129576, -34202.54995853305, -21575.46837037425, -21437.647514062824, -26693.257891328085, -9033.323411145617, -29360.424501946512, 0.12, 0.846, 0.498, 192.0, 0.0, 0.0, 0.0, 0.0, 0.0, 0.0, 0.0, 0.0, 0.0, 1.6518444016055408E9, 0.0, 2022-05-06 15:40:01.605
94.0, 35976.29499152839, 41327.9061112292, -34205.70155450125, -21548.914497961345, -21439.25683966361, -26687.60289998089, -9041.906481016455, -29363.307876981245, 0.12, 0.846, 0.498, 192.0, 0.0, 0.0, 0.0, 0.0, 0.0, 0.0, 0.0, 0.0, 0.0, 1.6518444016055462E9, 0.0, 2022-05-06 15:40:01.605
95.0, 35948.95880805955, 41336.37742237776, -34176.06314135351, -21484.0720872965, -21398.12962986584, -26645.760434360556, -9001.092195641064, -29331.3225306657, 0.12, 0.846, 0.498, 192.0, 0.0, 0.0, 0.0, 0.0, 0.0, 0.0, 0.0, 0.0, 0.0, 1.6518444016055515E9, 0.0, 2022-05-06 15:40:01.605
96.0, 35939.436964921595, 41330.8565414973, -34149.57632417397, -21424.527040067558, -21378.258929045074, -26604.700279796158, -8956.791038130646, -29315.408088613523, 0.12, 0.846, 0.498, 192.0, 0.0, 0.0, 0.0, 0.0, 0.0, 0.0, 0.0, 0.0, 0.0, 1.651844401605557E9, 0.0, 2022-05-06 15:40:01.605
97.0, 35951.2833894829, 41319.97124194756, -34183.372161790394, -21436.015836717586, -21401.460039789683, -26611.674024066215, -8956.053430563621, -29315.22927465788, 0.12, 0.846, 0.498, 192.0, 0.0, 0.0, 0.0, 0.0, 0.0, 0.0, 0.0, 0.0, 0.0, 1.6518444016055624E9, 0.0, 2022-05-06 15:40:01.605
98.0, 35953.29504648388, 41290.355180544284, -34233.10479320345, -21484.653232652337, -21435.97113322868, -26647.74973961708, -9000.868678196512, -29341.291408692767, 0.108, 0.838, 0.49, 192.0, 3.0, 96.0, 26.0, 48.0, 15.0, 80.0, 0.0, 0.0, 0.0, 1.651844401605568E9, 0.0, 2022-05-06 15:40:01.605
99.0, 35951.57396216082, 41288.611744476766, -34220.61016805293, -21484.742639630156, -21419.699063265212, -26650.56605941845, -9023.108663929543, -29341.894905793062, 0.108, 0.838, 0.49, 192.0, 0.0, 0.0, 0.0, 0.0, 0.0, 0.0, 0.0, 0.0, 0.0, 1.6518444016055734E9, 0.0, 2022-05-06 15:40:01.605
100.0, 35937.1347352427, 41304.57089001786, -34191.6199554944, -21484.697936141245, -21400.655376989293, -26633.9363615437, -9041.638260082991, -29331.3225306657, 0.108, 0.838, 0.49, 192.0, 0.0, 0.0, 0.0, 0.0, 0.0, 0.0, 0.0, 0.0, 0.0, 1.651844401605579E9, 0.0, 2022-05-06 15:40:01.605
101.0, 35920.750906556954, 41318.33956460233, -34173.82796690798, -21504.032195095086, -21393.681632719235, -26628.773108574525, -9029.456559354849, -29324.728766051387, 0.108, 0.838, 0.49, 192.0, 0.0, 0.0, 0.0, 0.0, 0.0, 0.0, 0.0, 0.0, 0.0, 1.6518444016055849E9, 0.0, 2022-05-06 15:40:01.605
102.0, 35943.81790683483, 41339.03727996794, -34156.527716699566, -21541.136090890897, -21383.89156864781, -26635.70214935567, -9017.632486537992, -29328.774431797796, 0.108, 0.838, 0.49, 192.0, 0.0, 0.0, 0.0, 0.0, 0.0, 0.0, 0.0, 0.0, 0.0, 1.65184440160559E9, 0.0, 2022-05-06 15:40:01.605
103.0, 35980.251250296984, 41343.82055328137, -34163.34499875844, -21606.51494342267, -21404.72339448016, -26672.00138235109, -9014.30207661415, -29353.96484779893, 0.108, 0.838, 0.49, 192.0, 0.0, 0.0, 0.0, 0.0, 0.0, 0.0, 0.0, 0.0, 0.0, 1.6518444016055963E9, 0.0, 2022-05-06 15:40:01.605
104.0, 35983.6934189431, 41322.78756174893, -34158.24880102263, -21677.66054602391, -21420.928409210257, -26705.797219967513, -9014.883221969989, -29383.893833624585, 0.108, 0.838, 0.49, 192.0, 0.0, 0.0, 0.0, 0.0, 0.0, 0.0, 0.0, 0.0, 0.0, 1.6518444016056015E9, 0.0, 2022-05-06 15:40:01.605
105.0, 35966.70609315707, 41327.16850366217, -34114.81936154597, -21724.196877979863, -21383.399830269795, -26689.011059881577, -8973.376032516484, -29325.511077107323, 0.108, 0.838, 0.49, 192.0, 0.0, 0.0, 0.0, 0.0, 0.0, 0.0, 0.0, 0.0, 0.0, 1.6518444016056142E9, 0.0, 2022-05-06 15:40:01.605
106.0, 35976.38439850621, 41369.59211463835, -34055.02844512802, -21759.31146851915, -21341.60206813837, -26622.536971871494, -8934.841625075534, -29234.807698107685, 0.108, 0.838, 0.49, 192.0, 0.0, 0.0, 0.0, 0.0, 0.0, 0.0, 0.0, 0.0, 0.0, 1.6518444016056209E9, 0.0, 2022-05-06 15:40:01.605
107.0, 36004.03350639743, 41367.44634717063, -34036.94588386368, -21838.302533424205, -21351.07920778742, -26602.018070461523, -8948.766761871191, -29232.863096340072, 0.108, 0.838, 0.49, 192.0, 0.0, 0.0, 0.0, 0.0, 0.0, 0.0, 0.0, 0.0, 0.0, 1.6518444016056263E9, 0.0, 2022-05-06 15:40:01.605
108.0, 36036.33177713535, 41298.960602159576, -34026.3288052474, -21922.635665254078, -21357.024771812532, -26606.89075075278, -8985.177753588887, -29243.100195300605, 0.17200000000000001, 0.882, 0.514, 192.0, 5.0, 96.0, 27.0, 144.0, 16.0, 16.0, 0.0, 0.0, 0.0, 1.651844401605632E9, 0.0, 2022-05-06 15:40:01.605
109.0, 36029.112163676284, 41271.08797682381, -34011.5766539069, -21997.40225045708, -21357.449454957183, -26629.84599230838, -9014.771463247713, -29261.27216354277, 0.17200000000000001, 0.882, 0.514, 192.0, 0.0, 0.0, 0.0, 0.0, 0.0, 0.0, 0.0, 0.0, 0.0, 1.6518444016056376E9, 0.0, 2022-05-06 15:40:01.605
110.0, 36015.075268158354, 41265.43298547661, -33973.89161275526, -22021.40802400208, -21337.13171924731, -26592.228006390098, -9003.081500897588, -29234.651235896497, 0.17200000000000001, 0.882, 0.514, 192.0, 0.0, 0.0, 0.0, 0.0, 0.0, 0.0, 0.0, 0.0, 0.0, 1.651844401605643E9, 0.0, 2022-05-06 15:40:01.605
111.0, 36015.768172236465, 41272.00439834647, -33944.1637926297, -22033.746186941407, -21318.579771349403, -26562.947221153645, -8985.043643122155, -29225.26350322527, 0.17200000000000001, 0.882, 0.514, 192.0, 0.0, 0.0, 0.0, 0.0, 0.0, 0.0, 0.0, 0.0, 0.0, 1.6518444016056485E9, 0.0, 2022-05-06 15:40:01.605
112.0, 36036.89057074673, 41281.906221140176, -33936.56419951489, -22046.12905336965, -21316.54576260397, -26558.09689260684, -8976.259407551219, -29224.794116591707, 0.17200000000000001, 0.882, 0.514, 192.0, 0.0, 0.0, 0.0, 0.0, 0.0, 0.0, 0.0, 0.0, 0.0, 1.651844401605654E9, 0.0, 2022-05-06 15:40:01.605
113.0, 36057.45417564562, 41260.225029018526, -33965.956743473624, -22072.057076937806, -21349.626344397824, -26592.65268953475, -9024.44976859686, -29272.895070659528, 0.17200000000000001, 0.882, 0.514, 192.0, 0.0, 0.0, 0.0, 0.0, 0.0, 0.0, 0.0, 0.0, 0.0, 1.6518444016056595E9, 0.0, 2022-05-06 15:40:01.605
114.0, 36050.54748660892, 41243.75179335497, -33992.55531937544, -22071.364172859692, -21372.447475486693, -26610.802306032456, -9041.258280427252, -29293.27986160277, 0.17200000000000001, 0.882, 0.514, 192.0, 0.0, 0.0, 0.0, 0.0, 0.0, 0.0, 0.0, 0.0, 0.0, 1.6518444016056647E9, 0.0, 2022-05-06 15:40:01.605
115.0, 36026.675823530655, 41256.58169467231, -33989.82840655189, -22034.573201486255, -21355.102521789377, -26588.137637154778, -9014.682056269892, -29269.788178180243, 0.17200000000000001, 0.882, 0.514, 192.0, 0.0, 0.0, 0.0, 0.0, 0.0, 0.0, 0.0, 0.0, 0.0, 1.6518444016056705E9, 0.0, 2022-05-06 15:40:01.605
116.0, 36030.34150962133, 41288.79055843241, -33974.58451683337, -21981.666622360543, -21326.17936446421, -26565.249450832544, -8997.78413746168, -29248.106986058592, 0.17200000000000001, 0.882, 0.514, 192.0, 0.0, 0.0, 0.0, 0.0, 0.0, 0.0, 0.0, 0.0, 0.0, 1.651844401605676E9, 0.0, 2022-05-06 15:40:01.605
117.0, 36051.44155638714, 41304.70500048459, -33999.95374679015, -21973.083552489705, -21342.496137916583, -26584.27078536401, -9008.043588166665, -29267.910631645995, 0.17200000000000001, 0.882, 0.514, 192.0, 0.0, 0.0, 0.0, 0.0, 0.0, 0.0, 0.0, 0.0, 0.0, 1.6518444016056812E9, 0.0, 2022-05-06 15:40:01.605
118.0, 36069.43471067366, 41298.02182889245, -34029.54745644897, -21969.663735588045, -21359.08113230242, -26607.8295240199, -9035.960916991344, -29311.273015889292, 0.16, 0.87, 0.544, 192.0, 5.0, 0.0, 27.0, 48.0, 17.0, 0.0, 0.0, 0.0, 0.0, 1.651844401605687E9, 0.0, 2022-05-06 15:40:01.605
119.0, 36069.14413799574, 41309.62238426476, -34035.873000129825, -21951.67058130152, -21360.735161392113, -26614.132715956297, -9045.438056640394, -29317.285635147768, 0.16, 0.87, 0.544, 192.0, 0.0, 0.0, 0.0, 0.0, 0.0, 0.0, 0.0, 0.0, 0.0, 1.6518444016056924E9, 0.0, 2022-05-06 15:40:01.605
120.0, 36043.305521405404, 41313.33277384434, -34035.42596524071, -21919.796993708253, -21355.12487353383, -26623.87807653881, -9029.523614588215, -29326.919237008005, 0.16, 0.87, 0.544, 192.0, 0.0, 0.0, 0.0, 0.0, 0.0, 0.0, 0.0, 0.0, 0.0, 1.651844401605698E9, 0.0, 2022-05-06 15:40:01.605
121.0, 36024.08302117384, 41295.27256432445, -34033.906046617754, -21879.407391477514, -21336.125890746822, -26611.249340921564, -9049.371963664527, -29341.961961026427, 0.16, 0.87, 0.544, 192.0, 0.0, 0.0, 0.0, 0.0, 0.0, 0.0, 0.0, 0.0, 0.0, 1.6518444016057036E9, 0.0, 2022-05-06 15:40:01.605
122.0, 36030.095640432315, 41287.11417759826, -34055.095500361385, -21865.594013404134, -21347.726446119126, -26616.74787005757, -9067.990966795798, -29345.80646107274, 0.16, 0.87, 0.544, 192.0, 0.0, 0.0, 0.0, 0.0, 0.0, 0.0, 0.0, 0.0, 0.0, 1.6518444016057093E9, 0.0, 2022-05-06 15:40:01.605
123.0, 36038.142268436226, 41287.494157254005, -34089.45013158919, -21861.503644168813, -21368.222995784643, -26633.534030143506, -9049.148446219975, -29336.798708057253, 0.16, 0.87, 0.544, 192.0, 0.0, 0.0, 0.0, 0.0, 0.0, 0.0, 0.0, 0.0, 0.0, 1.6518444016057148E9, 0.0, 2022-05-06 15:40:01.605
124.0, 36038.52224809197, 41293.97616314604, -34099.910747994276, -21827.193716429916, -21368.93825160721, -26626.046195750976, -9047.181492707909, -29334.362367911624, 0.16, 0.87, 0.544, 192.0, 0.0, 0.0, 0.0, 0.0, 0.0, 0.0, 0.0, 0.0, 0.0, 1.651844401605721E9, 0.0, 2022-05-06 15:40:01.605
125.0, 36015.902282703195, 41295.093750368804, -34090.41125660077, -21783.808980442165, -21354.76724562255, -26621.754660815557, -9052.322393932629, -29335.502306878843, 0.16, 0.87, 0.544, 192.0, 0.0, 0.0, 0.0, 0.0, 0.0, 0.0, 0.0, 0.0, 0.0, 1.6518444016057265E9, 0.0, 2022-05-06 15:40:01.605
126.0, 36007.81095121038, 41321.64762278171, -34066.65135224478, -21731.34943620556, -21332.214335467143, -26598.330032626396, -9040.878300771512, -29317.307986892225, 0.16, 0.87, 0.544, 192.0, 0.0, 0.0, 0.0, 0.0, 0.0, 0.0, 0.0, 0.0, 0.0, 1.6518444016057346E9, 0.0, 2022-05-06 15:40:01.605
127.0, 36018.11510540427, 41330.87889324175, -34074.36270408186, -21707.991863249765, -21341.535012905006, -26606.734288541593, -9035.625640824514, -29316.27980664728, 0.16, 0.87, 0.544, 192.0, 0.0, 0.0, 0.0, 0.0, 0.0, 0.0, 0.0, 0.0, 0.0, 1.65184440160574E9, 0.0, 2022-05-06 15:40:01.605
128.0, 36033.76132652299, 41332.756439776, -34091.81941650146, -21711.501087129247, -21358.27646950203, -26637.26677146754, -9042.97936475031, -29330.674330076497, 0.156, 0.8160000000000001, 0.5660000000000001, 192.0, 4.0, 224.0, 25.0, 128.0, 17.0, 176.0, 0.0, 0.0, 0.0, 1.6518444016057453E9, 0.0, 2022-05-06 15:40:01.605
129.0, 36033.20253291161, 41344.51345735949, -34101.14009393932, -21694.513761343213, -21370.927556863735, -26652.0412745525, -9056.904501545967, -29344.867687805618, 0.156, 0.8160000000000001, 0.5660000000000001, 192.0, 0.0, 0.0, 0.0, 0.0, 0.0, 0.0, 0.0, 0.0, 0.0, 1.6518444016057508E9, 0.0, 2022-05-06 15:40:01.605
130.0, 36017.69042225962, 41369.92739080518, -34095.149826425295, -21655.0629323796, -21370.592280696903, -26645.738082616102, -9064.682908616413, -29346.275847706303, 0.156, 0.8160000000000001, 0.5660000000000001, 192.0, 0.0, 0.0, 0.0, 0.0, 0.0, 0.0, 0.0, 0.0, 0.0, 1.6518444016057563E9, 0.0, 2022-05-06 15:40:01.605
131.0, 36011.87896870124, 41370.50853616101, -34076.15084363829, -21609.331263224038, -21349.42517869773, -26618.960692758643, -9041.593556594082, -29317.93383573697, 0.156, 0.8160000000000001, 0.5660000000000001, 192.0, 0.0, 0.0, 0.0, 0.0, 0.0, 0.0, 0.0, 0.0, 0.0, 1.6518444016057615E9, 0.0, 2022-05-06 15:40:01.605
132.0, 36021.37846009475, 41386.78060612448, -34083.88454721982, -21591.6957368488, -21356.51068169006, -26618.156029958252, -9035.804454780156, -29313.061155445717, 0.156, 0.8160000000000001, 0.5660000000000001, 192.0, 0.0, 0.0, 0.0, 0.0, 0.0, 0.0, 0.0, 0.0, 0.0, 1.6518444016057675E9, 0.0, 2022-05-06 15:40:01.605
133.0, 36068.205364728616, 41381.930277577674, -34090.90299497879, -21569.209881926763, -21363.03739107101, -26620.301797425964, -9059.094972502586, -29323.70058580644, 0.156, 0.8160000000000001, 0.5660000000000001, 192.0, 0.0, 0.0, 0.0, 0.0, 0.0, 0.0, 0.0, 0.0, 0.0, 1.651844401605773E9, 0.0, 2022-05-06 15:40:01.605
134.0, 36042.92554174966, 41355.08583248685, -34109.74551555461, -21566.728838292223, -21385.635004715325, -26639.300780212972, -9088.018129827755, -29349.00276052985, 0.156, 0.8160000000000001, 0.5660000000000001, 192.0, 0.0, 0.0, 0.0, 0.0, 0.0, 0.0, 0.0, 0.0, 0.0, 1.6518444016057785E9, 0.0, 2022-05-06 15:40:01.605
135.0, 35988.230823067526, 41331.527093830955, -34106.66097481978, -21550.50147181767, -21373.90033887629, -26637.624399378827, -9017.58778304908, -29312.61412055661, 0.156, 0.8160000000000001, 0.5660000000000001, 192.0, 0.0, 0.0, 0.0, 0.0, 0.0, 0.0, 0.0, 0.0, 0.0, 1.6518444016057837E9, 0.0, 2022-05-06 15:40:01.605
136.0, 35977.34552351779, 41353.99059700854, -34069.0429889015, -21500.63472993788, -21329.107442987854, -26605.102611196355, -8963.876541122978, -29271.59866948112, 0.156, 0.8160000000000001, 0.5660000000000001, 192.0, 0.0, 0.0, 0.0, 0.0, 0.0, 0.0, 0.0, 0.0, 0.0, 1.6518444016057892E9, 0.0, 2022-05-06 15:40:01.605
137.0, 36014.20355012459, 41376.85643158632, -34075.77086398254, -21497.505485714137, -21335.120062246333, -26616.83727703539, -9007.21657362182, -29300.253605872826, 0.156, 0.8160000000000001, 0.5660000000000001, 192.0, 0.0, 0.0, 0.0, 0.0, 0.0, 0.0, 0.0, 0.0, 0.0, 1.651844401605795E9, 0.0, 2022-05-06 15:40:01.605
138.0, 36054.10141397732, 41393.396722483245, -34101.07303870595, -21506.714404429724, -21360.6904579032, -26642.74294885909, -9041.414742638439, -29332.507173121834, 0.152, 0.78, 0.5700000000000001, 192.0, 4.0, 192.0, 24.0, 96.0, 17.0, 208.0, 0.0, 0.0, 0.0, 1.6518444016058016E9, 0.0, 2022-05-06 15:40:01.605
139.0, 36014.11414314677, 41379.203364754125, -34103.37526838485, -21489.682375154778, -21352.152091521275, -26634.629265621814, -9002.25448635274, -29313.597597312644, 0.152, 0.78, 0.5700000000000001, 192.0, 0.0, 0.0, 0.0, 0.0, 0.0, 0.0, 0.0, 0.0, 0.0, 1.6518444016058073E9, 0.0, 2022-05-06 15:40:01.605
140.0, 35955.55257267387, 41356.985730765555, -34100.15661718328, -21472.560938902014, -21338.94221054819, -26623.162820716243, -8972.258445293719, -29298.84544597214, 0.152, 0.78, 0.5700000000000001, 192.0, 0.0, 0.0, 0.0, 0.0, 0.0, 0.0, 0.0, 0.0, 0.0, 1.6518444016058133E9, 0.0, 2022-05-06 15:40:01.605
141.0, 35945.382528946706, 41380.29860023244, -34072.73102673662, -21430.606714559402, -21309.9296462452, -26595.26784363602, -8952.477151450772, -29277.253660828315, 0.152, 0.78, 0.5700000000000001, 192.0, 0.0, 0.0, 0.0, 0.0, 0.0, 0.0, 0.0, 0.0, 0.0, 1.6518444016058185E9, 0.0, 2022-05-06 15:40:01.605
142.0, 35971.01997983694, 41419.45885651813, -34074.809738970966, -21428.371540113872, -21310.80136427896, -26602.17453267271, -9020.851137739557, -29319.096126448647, 0.152, 0.78, 0.5700000000000001, 192.0, 0.0, 0.0, 0.0, 0.0, 0.0, 0.0, 0.0, 0.0, 0.0, 1.651844401605824E9, 0.0, 2022-05-06 15:40:01.605
143.0, 35978.03842759591, 41406.606603456334, -34125.011757017586, -21474.684354625268, -21354.36491422235, -26635.880963311312, -9068.88503657401, -29368.09115029468, 0.152, 0.78, 0.5700000000000001, 192.0, 0.0, 0.0, 0.0, 0.0, 0.0, 0.0, 0.0, 0.0, 0.0, 1.6518444016058297E9, 0.0, 2022-05-06 15:40:01.605
144.0, 35969.634171680715, 41366.73109134807, -34127.82807681896, -21473.902043569335, -21342.02675128302, -26623.8333730499, -9018.12422491601, -29327.18745794147, 0.152, 0.78, 0.5700000000000001, 192.0, 0.0, 0.0, 0.0, 0.0, 0.0, 0.0, 0.0, 0.0, 0.0, 1.6518444016058357E9, 0.0, 2022-05-06 15:40:01.605
145.0, 35957.36306397475, 41361.165506978694, -34100.31307939447, -21432.461909349193, -21310.30962590094, -26580.046305661956, -8974.270102294697, -29255.348951262113, 0.152, 0.78, 0.5700000000000001, 192.0, 0.0, 0.0, 0.0, 0.0, 0.0, 0.0, 0.0, 0.0, 0.0, 1.651844401605841E9, 0.0, 2022-05-06 15:40:01.605
146.0, 35943.01324403444, 41373.59307689584, -34084.42098908675, -21410.087813149432, -21307.761527033035, -26549.78204366947, -8982.272026809696, -29229.130355016037, 0.152, 0.78, 0.5700000000000001, 192.0, 0.0, 0.0, 0.0, 0.0, 0.0, 0.0, 0.0, 0.0, 0.0, 1.6518444016058464E9, 0.0, 2022-05-06 15:40:01.605
147.0, 35944.600217890766, 41390.58040268188, -34083.66102977527, -21403.8516764464, -21314.757623047546, -26555.034703616468, -9003.416777064416, -29253.2031837944, 0.152, 0.78, 0.5700000000000001, 192.0, 0.0, 0.0, 0.0, 0.0, 0.0, 0.0, 0.0, 0.0, 0.0, 1.6518444016058547E9, 0.0, 2022-05-06 15:40:01.605
148.0, 35957.43011920811, 41393.10614980533, -34104.49285560761, -21414.848734718413, -21341.244440227085, -26571.664401491216, -9023.376884863006, -29268.625887468566, 0.14200000000000002, 0.804, 0.58, 192.0, 4.0, 112.0, 25.0, 32.0, 18.0, 32.0, 0.0, 0.0, 0.0, 1.65184440160586E9, 0.0, 2022-05-06 15:40:01.605
149.0, 35967.37664549072, 41384.947763079144, -34117.725088325155, -21418.804993487, -21365.518434705547, -26585.25426212004, -9050.847178798578, -29288.31777433369, 0.14200000000000002, 0.804, 0.58, 192.0, 0.0, 0.0, 0.0, 0.0, 0.0, 0.0, 0.0, 0.0, 0.0, 1.6518444016058655E9, 0.0, 2022-05-06 15:40:01.605
150.0, 35939.436964921595, 41385.6183154128, -34104.40344862979, -21392.273472818553, -21360.26577475855, -26578.816959716914, -9043.7840275507, -29270.92811714746, 0.14200000000000002, 0.804, 0.58, 192.0, 0.0, 0.0, 0.0, 0.0, 0.0, 0.0, 0.0, 0.0, 0.0, 1.6518444016058707E9, 0.0, 2022-05-06 15:40:01.605
151.0, 35916.86170302173, 41405.489016233565, -34073.043951158994, -21336.908201802755, -21336.349408191374, -26562.43313103117, -9017.006637693243, -29262.590916465633, 0.14200000000000002, 0.804, 0.58, 192.0, 0.0, 0.0, 0.0, 0.0, 0.0, 0.0, 0.0, 0.0, 0.0, 1.6518444016058764E9, 0.0, 2022-05-06 15:40:01.605
152.0, 35929.02105200542, 41423.459818775635, -34072.52986103653, -21322.424271395717, -21341.37855069382, -26573.58665151437, -9027.579012820604, -29279.444131784934, 0.14200000000000002, 0.804, 0.58, 192.0, 0.0, 0.0, 0.0, 0.0, 0.0, 0.0, 0.0, 0.0, 0.0, 1.6518444016058817E9, 0.0, 2022-05-06 15:40:01.605
153.0, 35961.45343321007, 41422.990432142076, -34084.26452687556, -21306.710995043635, -21355.08017004492, -26593.792628501968, -9047.025030496721, -29291.447018557432, 0.14200000000000002, 0.804, 0.58, 192.0, 0.0, 0.0, 0.0, 0.0, 0.0, 0.0, 0.0, 0.0, 0.0, 1.6518444016058872E9, 0.0, 2022-05-06 15:40:01.605
154.0, 35963.24157276649, 41416.91075765023, -34086.65616353228, -21288.06964016791, -21367.977126595633, -26603.35917512884, -9046.399181651972, -29296.677326759975, 0.14200000000000002, 0.804, 0.58, 192.0, 0.0, 0.0, 0.0, 0.0, 0.0, 0.0, 0.0, 0.0, 0.0, 1.6518444016058948E9, 0.0, 2022-05-06 15:40:01.605
155.0, 35940.9345318001, 41428.13133336679, -34060.057587630465, -21245.891898380745, -21349.514585675548, -26579.621622517305, -9028.607193065547, -29270.995172380826, 0.14200000000000002, 0.804, 0.58, 192.0, 0.0, 0.0, 0.0, 0.0, 0.0, 0.0, 0.0, 0.0, 0.0, 1.6518444016059003E9, 0.0, 2022-05-06 15:40:01.605
156.0, 35939.995758532976, 41441.564731784434, -34030.06154657144, -21212.319578208873, -21317.328073659908, -26557.202822828633, -9002.030968908188, -29256.846518140617, 0.14200000000000002, 0.804, 0.58, 192.0, 0.0, 0.0, 0.0, 0.0, 0.0, 0.0, 0.0, 0.0, 0.0, 1.651844401605906E9, 0.0, 2022-05-06 15:40:01.605
157.0, 35951.19398250509, 41447.97968244311, -34028.519276204024, -21202.462458904083, -21310.9801782346, -26556.711084450613, -8993.604361248537, -29253.963143105884, 0.14200000000000002, 0.804, 0.58, 192.0, 0.0, 0.0, 0.0, 0.0, 0.0, 0.0, 0.0, 0.0, 0.0, 1.6518444016059115E9, 0.0, 2022-05-06 15:40:01.605
158.0, 35958.01126456395, 41432.065240390926, -34058.82824168542, -21219.986226557045, -21334.091882001387, -26585.298965608952, -9020.247640639263, -29283.02041089778, 0.126, 0.804, 0.5720000000000001, 192.0, 3.0, 240.0, 25.0, 32.0, 17.0, 224.0, 0.0, 0.0, 0.0, 1.6518444016059172E9, 0.0, 2022-05-06 15:40:01.605
159.0, 35956.066662796344, 41421.53756875248, -34065.086730132905, -21220.612075401794, -21336.125890746822, -26593.0773726794, -9024.226251152308, -29294.08452440316, 0.126, 0.804, 0.5720000000000001, 192.0, 0.0, 0.0, 0.0, 0.0, 0.0, 0.0, 0.0, 0.0, 0.0, 1.651844401605924E9, 0.0, 2022-05-06 15:40:01.605
160.0, 35942.923837056616, 41442.05647016245, -34032.40847973925, -21185.832761029335, -21298.64201529527, -26563.126035109286, -8985.893009411457, -29261.47332924287, 0.126, 0.804, 0.5720000000000001, 192.0, 0.0, 0.0, 0.0, 0.0, 0.0, 0.0, 0.0, 0.0, 0.0, 1.6518444016059308E9, 0.0, 2022-05-06 15:40:01.605
161.0, 35938.87817131021, 41459.11085118185, -34014.59413940837, -21148.773568722438, -21274.815055705913, -26545.311694778407, -8963.027174833676, -29242.36258773358, 0.126, 0.804, 0.5720000000000001, 192.0, 0.0, 0.0, 0.0, 0.0, 0.0, 0.0, 0.0, 0.0, 0.0, 1.6518444016059368E9, 0.0, 2022-05-06 15:40:01.605
162.0, 35950.54578191588, 41460.92134248273, -34022.305491245446, -21130.176917335622, -21274.34566907235, -26547.144537823744, -8968.123372569487, -29247.905820358494, 0.126, 0.804, 0.5720000000000001, 192.0, 0.0, 0.0, 0.0, 0.0, 0.0, 0.0, 0.0, 0.0, 0.0, 1.6518444016059432E9, 0.0, 2022-05-06 15:40:01.605
163.0, 35958.39124421969, 41436.736754982085, -34066.38313131132, -21167.66079278717, -21311.851896268356, -26582.41559057422, -9012.849213224556, -29292.09521914664, 0.126, 0.804, 0.5720000000000001, 192.0, 0.0, 0.0, 0.0, 0.0, 0.0, 0.0, 0.0, 0.0, 0.0, 1.6518444016059492E9, 0.0, 2022-05-06 15:40:01.605
164.0, 35955.75373837397, 41419.43650477368, -34093.831073502435, -21180.71421154907, -21330.783823822003, -26607.114268197332, -9038.576071092615, -29316.3692136251, 0.126, 0.804, 0.5720000000000001, 192.0, 0.0, 0.0, 0.0, 0.0, 0.0, 0.0, 0.0, 0.0, 0.0, 1.651844401605955E9, 0.0, 2022-05-06 15:40:01.605
165.0, 35927.99287176048, 41433.316938080425, -34085.76209375406, -21161.223490384044, -21309.54966658946, -26589.322279610908, -9008.40121607795, -29286.50728303281, 0.126, 0.804, 0.5720000000000001, 192.0, 0.0, 0.0, 0.0, 0.0, 0.0, 0.0, 0.0, 0.0, 0.0, 1.6518444016059604E9, 0.0, 2022-05-06 15:40:01.605
166.0, 35914.20184543155, 41483.76482531605, -34055.20725908366, -21128.142908590187, -21275.77618071749, -26558.141596095753, -8956.63457591946, -29249.06811107017, 0.126, 0.804, 0.5720000000000001, 192.0, 0.0, 0.0, 0.0, 0.0, 0.0, 0.0, 0.0, 0.0, 0.0, 1.6518444016059656E9, 0.0, 2022-05-06 15:40:01.605
167.0, 35937.09003175378, 41465.72696754062, -34068.88652669031, -21135.317818560343, -21286.996756434055, -26569.898613679245, -8965.77643940168, -29263.529689732753, 0.126, 0.804, 0.5720000000000001, 192.0, 0.0, 0.0, 0.0, 0.0, 0.0, 0.0, 0.0, 0.0, 0.0, 1.6518444016059728E9, 0.0, 2022-05-06 15:40:01.605
168.0, 35966.70609315707, 41428.89129267827, -34105.81160853048, -21162.76576075146, -21319.295027171975, -26599.380564615796, -8983.546076243649, -29287.826035955673, 0.124, 0.8320000000000001, 0.55, 192.0, 3.0, 224.0, 26.0, 0.0, 17.0, 48.0, 0.0, 0.0, 0.0, 1.6518444016059785E9, 0.0, 2022-05-06 15:40:01.605
169.0, 35967.823680379835, 41413.401533770746, -34128.18570473024, -21171.9970312115, -21336.572925635926, -26616.54670435747, -8990.318654813607, -29298.398411083035, 0.124, 0.8320000000000001, 0.55, 192.0, 0.0, 0.0, 0.0, 0.0, 0.0, 0.0, 0.0, 0.0, 0.0, 1.6518444016059864E9, 0.0, 2022-05-06 15:40:01.605
170.0, 35959.21825876454, 41431.59585375737, -34107.42093413126, -21136.502461016473, -21313.03653872449, -26592.138599412276, -8963.675375422881, -29273.476216015366, 0.124, 0.8320000000000001, 0.55, 192.0, 0.0, 0.0, 0.0, 0.0, 0.0, 0.0, 0.0, 0.0, 0.0, 1.6518444016059923E9, 0.0, 2022-05-06 15:40:01.605
171.0, 35954.323226728826, 41445.94567369767, -34098.9496229827, -21123.09141434329, -21302.464163597127, -26570.971497413102, -8956.612224175004, -29263.46263449939, 0.124, 0.8320000000000001, 0.55, 192.0, 0.0, 0.0, 0.0, 0.0, 0.0, 0.0, 0.0, 0.0, 0.0, 1.6518444016059992E9, 0.0, 2022-05-06 15:40:01.605
172.0, 35967.533107701915, 41453.6346737903, -34104.82813177444, -21128.008798123457, -21309.97434973411, -26576.045343404454, -8973.44308774985, -29289.301251089724, 0.124, 0.8320000000000001, 0.55, 192.0, 0.0, 0.0, 0.0, 0.0, 0.0, 0.0, 0.0, 0.0, 0.0, 1.6518444016060047E9, 0.0, 2022-05-06 15:40:01.606
173.0, 35994.936346404116, 41462.24009540559, -34120.02731800405, -21149.19825186709, -21325.9334952752, -26580.91802369571, -8979.858038408523, -29298.934852949962, 0.124, 0.8320000000000001, 0.55, 192.0, 0.0, 0.0, 0.0, 0.0, 0.0, 0.0, 0.0, 0.0, 0.0, 1.6518444016060112E9, 0.0, 2022-05-06 15:40:01.606
174.0, 36008.1015238883, 41453.12058366783, -34135.89705656732, -21183.217606928065, -21340.819757082434, -26582.527349296495, -8971.051451093132, -29288.764809222797, 0.124, 0.8320000000000001, 0.55, 192.0, 0.0, 0.0, 0.0, 0.0, 0.0, 0.0, 0.0, 0.0, 0.0, 1.6518444016060169E9, 0.0, 2022-05-06 15:40:01.606
175.0, 35992.41059928067, 41442.81642947393, -34120.69787033771, -21191.95713901009, -21328.481594143104, -26566.255279333032, -8935.355715198006, -29250.520974459767, 0.124, 0.8320000000000001, 0.55, 192.0, 0.0, 0.0, 0.0, 0.0, 0.0, 0.0, 0.0, 0.0, 0.0, 1.6518444016060224E9, 0.0, 2022-05-06 15:40:01.606
176.0, 35990.51070100197, 41453.522915068024, -34082.923422208245, -21188.33615640833, -21292.987023948077, -26523.29522648993, -8883.387909339417, -29204.811657048664, 0.124, 0.8320000000000001, 0.55, 192.0, 0.0, 0.0, 0.0, 0.0, 0.0, 0.0, 0.0, 0.0, 0.0, 1.6518444016060283E9, 0.0, 2022-05-06 15:40:01.606
177.0, 36002.40182905219, 41440.82712421741, -34092.422913601746, -21246.24952629203, -21303.469992097616, -26526.960912580602, -8890.0487291871, -29216.07693625414, 0.15, 0.872, 0.522, 192.0, 4.0, 176.0, 27.0, 64.0, 16.0, 80.0, 0.0, 0.0, 0.0, 1.6518444016060336E9, 0.0, 2022-05-06 15:40:01.606
178.0, 36023.27835837345, 41429.31597582292, -34111.75717255559, -21309.236742167086, -21326.447585397673, -26553.738302438058, -8922.168185969376, -29240.775613877253, 0.15, 0.872, 0.522, 192.0, 0.0, 0.0, 0.0, 0.0, 0.0, 0.0, 0.0, 0.0, 0.0, 1.6518444016060417E9, 0.0, 2022-05-06 15:40:01.606
179.0, 36027.01109969748, 41409.758199424534, -34130.68910010924, -21365.04904807199, -21346.295934473987, -26580.381581828784, -8949.750238627224, -29262.03212285425, 0.15, 0.872, 0.522, 192.0, 0.0, 0.0, 0.0, 0.0, 0.0, 0.0, 0.0, 0.0, 0.0, 1.6518444016060483E9, 0.0, 2022-05-06 15:40:01.606
180.0, 36015.56700653637, 41407.14304532326, -34105.83396027493, -21371.262833030563, -21319.697358572168, -26568.266936334006, -8942.843549590534, -29252.42087273847, 0.15, 0.872, 0.522, 192.0, 0.0, 0.0, 0.0, 0.0, 0.0, 0.0, 0.0, 0.0, 0.0, 1.6518444016060553E9, 0.0, 2022-05-06 15:40:01.606
181.0, 36010.873140200754, 41416.128446594295, -34078.20720412817, -21364.959641094167, -21305.928683987702, -26542.67418893268, -8938.417904188384, -29235.947637074907, 0.15, 0.872, 0.522, 192.0, 0.0, 0.0, 0.0, 0.0, 0.0, 0.0, 0.0, 0.0, 0.0, 1.651844401606063E9, 0.0, 2022-05-06 15:40:01.606
182.0, 36027.234617142036, 41419.481208262594, -34068.35008482338, -21377.7448389226, -21307.672120055213, -26538.136784808255, -8925.43154065985, -29226.045814281206, 0.15, 0.872, 0.522, 192.0, 0.0, 0.0, 0.0, 0.0, 0.0, 0.0, 0.0, 0.0, 0.0, 1.651844401606069E9, 0.0, 2022-05-06 15:40:01.606
183.0, 36044.221942928074, 41388.85931835882, -34097.049724704, -21423.655322033803, -21344.194870495186, -26579.44280856166, -8964.614148690003, -29269.69877120242, 0.15, 0.872, 0.522, 192.0, 0.0, 0.0, 0.0, 0.0, 0.0, 0.0, 0.0, 0.0, 0.0, 1.6518444016060755E9, 0.0, 2022-05-06 15:40:01.606
184.0, 36046.50182086251, 41369.99444603854, -34114.931120268244, -21456.9147177833, -21366.45720797267, -26603.49328559557, -8990.54217225816, -29293.235158113857, 0.15, 0.872, 0.522, 192.0, 0.0, 0.0, 0.0, 0.0, 0.0, 0.0, 0.0, 0.0, 0.0, 1.6518444016060812E9, 0.0, 2022-05-06 15:40:01.606
185.0, 36040.9585882376, 41392.72617014959, -34082.632849530324, -21431.56783957098, -21330.22503021062, -26558.901555407236, -8939.066104777588, -29241.021483066263, 0.15, 0.872, 0.522, 192.0, 0.0, 0.0, 0.0, 0.0, 0.0, 0.0, 0.0, 0.0, 0.0, 1.6518444016060867E9, 0.0, 2022-05-06 15:40:01.606
186.0, 36031.772021266464, 41408.081818590385, -34061.957485909166, -21407.316196836975, -21308.566189833426, -26519.42837469916, -8919.910659779389, -29210.39959316249, 0.15, 0.872, 0.522, 192.0, 0.0, 0.0, 0.0, 0.0, 0.0, 0.0, 0.0, 0.0, 0.0, 1.6518444016060927E9, 0.0, 2022-05-06 15:40:01.606
187.0, 36042.63496907175, 41405.89134763376, -34068.305381334474, -21417.03920567503, -21306.129849687797, -26518.91428457669, -8905.47143286126, -29208.700860583886, 0.162, 0.886, 0.5, 192.0, 5.0, 16.0, 27.0, 176.0, 15.0, 160.0, 0.0, 0.0, 0.0, 1.651844401606099E9, 0.0, 2022-05-06 15:40:01.606
188.0, 36066.57368738338, 41394.64842017274, -34100.6483555613, -21448.778682801567, -21334.494213401584, -26544.238811044554, -8931.064180262587, -29240.954427832894, 0.162, 0.886, 0.5, 192.0, 0.0, 0.0, 0.0, 0.0, 0.0, 0.0, 0.0, 0.0, 0.0, 1.651844401606105E9, 0.0, 2022-05-06 15:40:01.606
189.0, 36062.77389082598, 41374.15187050723, -34131.359652442894, -21477.29950872654, -21358.499986946583, -26574.815997459413, -8957.841570120045, -29269.162329335493, 0.162, 0.886, 0.5, 192.0, 0.0, 0.0, 0.0, 0.0, 0.0, 0.0, 0.0, 0.0, 0.0, 1.6518444016061108E9, 0.0, 2022-05-06 15:40:01.606
190.0, 36042.344396393826, 41375.96236180811, -34125.12351573986, -21462.502653897125, -21344.66425712875, -26561.40495078623, -8908.041883473621, -29235.54530567471, 0.162, 0.886, 0.5, 192.0, 0.0, 0.0, 0.0, 0.0, 0.0, 0.0, 0.0, 0.0, 0.0, 1.6518444016061213E9, 0.0, 2022-05-06 15:40:01.606
191.0, 36043.663149316686, 41397.97883009659, -34089.18191065573, -21424.14706041182, -21308.610893322337, -26525.977435824567, -8874.13428713492, -29210.757221073774, 0.162, 0.886, 0.5, 192.0, 0.0, 0.0, 0.0, 0.0, 0.0, 0.0, 0.0, 0.0, 0.0, 1.6518444016061268E9, 0.0, 2022-05-06 15:40:01.606
192.0, 36076.69902762163, 41426.29849032146, -34095.06041944747, -21430.38319711485, -21321.999588251067, -26536.818031885392, -8900.397586869907, -29242.451994711402, 0.162, 0.886, 0.5, 192.0, 0.0, 0.0, 0.0, 0.0, 0.0, 0.0, 0.0, 0.0, 0.0, 1.6518444016061325E9, 0.0, 2022-05-06 15:40:01.606
193.0, 36096.63678367576, 41414.2732518045, -34112.71829756717, -21452.109092725408, -21341.490309416095, -26553.693598949147, -8917.72018882277, -29254.41017799499, 0.162, 0.886, 0.5, 192.0, 0.0, 0.0, 0.0, 0.0, 0.0, 0.0, 0.0, 0.0, 0.0, 1.651844401606138E9, 0.0, 2022-05-06 15:40:01.606
194.0, 36080.83410034586, 41393.37437073879, -34126.64343436282, -21456.221813705186, -21351.772111865535, -26555.772311183493, -8914.680351576848, -29234.204201007393, 0.162, 0.886, 0.5, 192.0, 0.0, 0.0, 0.0, 0.0, 0.0, 0.0, 0.0, 0.0, 0.0, 1.6518444016061442E9, 0.0, 2022-05-06 15:40:01.606
195.0, 36073.435672931155, 41417.58130998389, -34090.45596008968, -21427.34335986893, -21319.40678589425, -26525.329235235364, -8870.960339422267, -29198.799037790184, 0.162, 0.886, 0.5, 192.0, 0.0, 0.0, 0.0, 0.0, 0.0, 0.0, 0.0, 0.0, 0.0, 1.6518444016061504E9, 0.0, 2022-05-06 15:40:01.606
196.0, 36063.019760014984, 41439.195446872174, -34062.65038998728, -21399.917769422267, -21302.777088019502, -26497.322499432863, -8855.381173536918, -29180.180034658915, 0.162, 0.886, 0.5, 192.0, 0.0, 0.0, 0.0, 0.0, 0.0, 0.0, 0.0, 0.0, 0.0, 1.6518444016061563E9, 0.0, 2022-05-06 15:40:01.606
197.0, 36076.25199273253, 41441.34121433988, -34084.89037572031, -21421.889534221835, -21325.575867363914, -26520.009520055, -8875.631854013427, -29215.093459498104, 0.164, 0.874, 0.5, 192.0, 5.0, 32.0, 27.0, 80.0, 15.0, 160.0, 0.0, 0.0, 0.0, 1.6518444016061625E9, 0.0, 2022-05-06 15:40:01.606
198.0, 36104.23637679057, 41440.46949630613, -34094.546329325, -21436.373464628872, -21332.37079767833, -26536.013369085, -8886.584208796527, -29236.484078941834, 0.164, 0.874, 0.5, 192.0, 0.0, 0.0, 0.0, 0.0, 0.0, 0.0, 0.0, 0.0, 0.0, 1.651844401606169E9, 0.0, 2022-05-06 15:40:01.606
199.0, 36105.84570239135, 41426.879635677295, -34095.93213748123, -21442.85547052091, -21343.680780372713, -26541.578953454373, -8886.383043096428, -29235.54530567471, 0.164, 0.874, 0.5, 192.0, 0.0, 0.0, 0.0, 0.0, 0.0, 0.0, 0.0, 0.0, 0.0, 1.6518444016061747E9, 0.0, 2022-05-06 15:40:01.606
200.0, 36086.53379518197, 41423.169246097714, -34085.4938728206, -21438.608639074402, -21341.914992560745, -26538.33795050835, -8899.168240924864, -29217.86507581056, 0.164, 0.874, 0.5, 192.0, 0.0, 0.0, 0.0, 0.0, 0.0, 0.0, 0.0, 0.0, 0.0, 1.651844401606181E9, 0.0, 2022-05-06 15:40:01.606
201.0, 36065.679617605165, 41450.84070573339, -34052.145070093284, -21398.37549905485, -21306.84510551037, -26506.73258384855, -8884.863124473468, -29199.35783140157, 0.164, 0.874, 0.5, 192.0, 0.0, 0.0, 0.0, 0.0, 0.0, 0.0, 0.0, 0.0, 0.0, 1.6518444016061864E9, 0.0, 2022-05-06 15:40:01.606
202.0, 36083.516309680504, 41480.90380202577, -34034.68835767369, -21383.064554102966, -21289.231930879585, -26482.615051581273, -8867.004080653678, -29187.779627773718, 0.164, 0.874, 0.5, 192.0, 0.0, 0.0, 0.0, 0.0, 0.0, 0.0, 0.0, 0.0, 0.0, 1.651844401606192E9, 0.0, 2022-05-06 15:40:01.606
203.0, 36125.40347878975, 41487.698732340185, -34052.07801485992, -21395.581530997937, -21310.019053223023, -26487.130103961244, -8885.958359951777, -29207.247997194292, 0.164, 0.874, 0.5, 192.0, 0.0, 0.0, 0.0, 0.0, 0.0, 0.0, 0.0, 0.0, 0.0, 1.6518444016061983E9, 0.0, 2022-05-06 15:40:01.606
204.0, 36126.789286945976, 41480.47911888112, -34082.25286987458, -21409.216095115673, -21336.28235295801, -26509.39244143873, -8911.327589908551, -29252.622038438567, 0.164, 0.874, 0.5, 192.0, 0.0, 0.0, 0.0, 0.0, 0.0, 0.0, 0.0, 0.0, 0.0, 1.6518444016062045E9, 0.0, 2022-05-06 15:40:01.606
205.0, 36107.633841947776, 41505.043686037505, -34067.21014585616, -21368.75943765157, -21309.572018333914, -26474.210795666077, -8871.765002222659, -29219.183828733425, 0.164, 0.874, 0.5, 192.0, 0.0, 0.0, 0.0, 0.0, 0.0, 0.0, 0.0, 0.0, 0.0, 1.65184440160621E9, 0.0, 2022-05-06 15:40:01.606
206.0, 36091.9205655957, 41490.559755630464, -34062.65038998728, -21334.02482676802, -21290.26011112453, -26456.061179168366, -8858.689231716304, -29204.610491348565, 0.164, 0.874, 0.5, 192.0, 0.0, 0.0, 0.0, 0.0, 0.0, 0.0, 0.0, 0.0, 0.0, 1.6518444016062155E9, 0.0, 2022-05-06 15:40:01.606
0.0, 0.0, 0.0, 0.0, 0.0, 0.0, 0.0, 0.0, 0.0, 0.168, 0.882, 0.482, 192.0, 5.0, 64.0, 27.0, 144.0, 15.0, 16.0, 0.0, 0.0, 0.0, 1.6518444017214694E9, 0.0, 2022-05-06 15:40:01.721
1.0, 36200.30417445948, 41490.380941674826, -34001.00427877954, -21250.764578672002, -21244.64020069125, -26411.156524557657, -8803.234553722687, -29143.52317375221, 0.168, 0.882, 0.482, 192.0, 0.0, 0.0, 0.0, 0.0, 0.0, 0.0, 0.0, 0.0, 0.0, 1.6518444022039504E9, 0.0, 2022-05-06 15:40:02.203
2.0, 36227.28273001704, 41489.75509283008, -34023.51248544604, -21269.9200236702, -21267.1707591022, -26427.495649754484, -8815.952696317756, -29156.665999491932, 0.168, 0.882, 0.482, 192.0, 0.0, 0.0, 0.0, 0.0, 0.0, 0.0, 0.0, 0.0, 0.0, 1.6518444022039585E9, 0.0, 2022-05-06 15:40:02.203
3.0, 36249.12038434987, 41485.57531661693, -34043.02555835552, -21289.88013146879, -21284.8733407108, -26448.57334477584, -8841.813664652547, -29193.144046442994, 0.168, 0.882, 0.482, 192.0, 0.0, 0.0, 0.0, 0.0, 0.0, 0.0, 0.0, 0.0, 0.0, 1.651844402203964E9, 0.0, 2022-05-06 15:40:02.203
4.0, 36236.44694524371, 41503.993154048105, -34033.838991384386, -21290.573035546906, -21278.950128430144, -26454.295391356398, -8837.343315761485, -29208.92437802844, 0.168, 0.882, 0.482, 192.0, 0.0, 0.0, 0.0, 0.0, 0.0, 0.0, 0.0, 0.0, 0.0, 1.6518444022039793E9, 0.0, 2022-05-06 15:40:02.203
5.0, 36210.27305248655, 41503.25554648108, -34012.91775857422, -21262.722761955592, -21244.371979757783, -26437.442176037097, -8803.368664189418, -29191.35590688657, 0.168, 0.882, 0.482, 192.0, 0.0, 0.0, 0.0, 0.0, 0.0, 0.0, 0.0, 0.0, 0.0, 1.6518444022039845E9, 0.0, 2022-05-06 15:40:02.203
6.0, 36213.91638683276, 41501.132130757826, -33997.763275833524, -21247.769444914993, -21226.20001151562, -26414.621044948228, -8803.033388022588, -29168.11009265305, 0.168, 0.882, 0.482, 192.0, 0.0, 0.0, 0.0, 0.0, 0.0, 0.0, 0.0, 0.0, 0.0, 1.65184440220399E9, 0.0, 2022-05-06 15:40:02.203
7.0, 36233.16123880878, 41493.75605508758, -34016.11405803133, -21267.841311435855, -21256.710142697113, -26416.90092288267, -8825.027504566611, -29149.5804964996, 0.168, 0.882, 0.482, 192.0, 0.0, 0.0, 0.0, 0.0, 0.0, 0.0, 0.0, 0.0, 0.0, 1.6518444022039971E9, 0.0, 2022-05-06 15:40:02.203
8.0, 36235.284654532035, 41480.32265666994, -34046.82535491292, -21300.206637407144, -21296.384489105283, -26443.767719717947, -8836.382190749908, -29172.69220026639, 0.16, 0.894, 0.47200000000000003, 192.0, 5.0, 0.0, 27.0, 240.0, 14.0, 192.0, 0.0, 0.0, 0.0, 1.6518444022040026E9, 0.0, 2022-05-06 15:40:02.204
9.0, 36223.259416015084, 41477.03695023501, -34047.764128180046, -21302.799439763956, -21295.825695493902, -26446.159356374665, -8827.352085989964, -29170.904060709963, 0.16, 0.894, 0.47200000000000003, 192.0, 0.0, 0.0, 0.0, 0.0, 0.0, 0.0, 0.0, 0.0, 0.0, 1.6518444022040088E9, 0.0, 2022-05-06 15:40:02.204
10.0, 36197.55490989148, 41477.10400546837, -34028.675738415215, -21287.35438434534, -21268.511863769516, -26437.106899870265, -8823.820510366024, -29177.050790435173, 0.16, 0.894, 0.47200000000000003, 192.0, 0.0, 0.0, 0.0, 0.0, 0.0, 0.0, 0.0, 0.0, 0.0, 1.6518444022040143E9, 0.0, 2022-05-06 15:40:02.204
11.0, 36181.75222656158, 41489.48687189661, -34015.801133608955, -21279.68773599717, -21249.937564127158, -26434.491745768995, -8805.201507234753, -29170.56878454313, 0.16, 0.894, 0.47200000000000003, 192.0, 0.0, 0.0, 0.0, 0.0, 0.0, 0.0, 0.0, 0.0, 0.0, 1.6518444022040207E9, 0.0, 2022-05-06 15:40:02.204
12.0, 36204.036915783516, 41492.25848820907, -34026.48526745859, -21298.619663550817, -21264.801474189935, -26450.920277943645, -8832.403580236862, -29184.292755638693, 0.16, 0.894, 0.47200000000000003, 192.0, 0.0, 0.0, 0.0, 0.0, 0.0, 0.0, 0.0, 0.0, 0.0, 1.6518444022040267E9, 0.0, 2022-05-06 15:40:02.204
13.0, 36232.71420391968, 41484.010694505065, -34046.89241014629, -21326.9840272646, -21288.382564590283, -26478.479978857038, -8863.159580607366, -29210.153723973483, 0.16, 0.894, 0.47200000000000003, 192.0, 0.0, 0.0, 0.0, 0.0, 0.0, 0.0, 0.0, 0.0, 0.0, 1.6518444022040324E9, 0.0, 2022-05-06 15:40:02.204
14.0, 36226.58982593892, 41465.615208818344, -34054.9390381502, -21338.45047217017, -21290.751849502547, -26493.835627297834, -8879.163429637365, -29248.06228256968, 0.16, 0.894, 0.47200000000000003, 192.0, 0.0, 0.0, 0.0, 0.0, 0.0, 0.0, 0.0, 0.0, 0.0, 1.6518444022040384E9, 0.0, 2022-05-06 15:40:02.204
15.0, 36201.19824423769, 41466.71044429665, -34038.19758155318, -21321.865477784333, -21273.9209859277, -26469.405170608185, -8817.874946340913, -29199.134313957016, 0.16, 0.894, 0.47200000000000003, 192.0, 0.0, 0.0, 0.0, 0.0, 0.0, 0.0, 0.0, 0.0, 0.0, 1.651844402204044E9, 0.0, 2022-05-06 15:40:02.204
16.0, 36198.06900001395, 41497.66761036726, -34017.477514443104, -21309.97434973411, -21257.470102008596, -26438.51505977095, -8787.342463414963, -29150.139290110983, 0.16, 0.894, 0.47200000000000003, 192.0, 0.0, 0.0, 0.0, 0.0, 0.0, 0.0, 0.0, 0.0, 0.0, 1.651844402204049E9, 0.0, 2022-05-06 15:40:02.204
17.0, 36222.208884025684, 41498.87460456784, -34019.82444761091, -21311.069585212423, -21258.766503187002, -26434.60350449127, -8807.526088658105, -29158.163566370436, 0.146, 0.916, 0.464, 192.0, 4.0, 144.0, 28.0, 160.0, 14.0, 128.0, 0.0, 0.0, 0.0, 1.6518444022040548E9, 0.0, 2022-05-06 15:40:02.204
18.0, 36253.21075358519, 41487.83284280692, -34036.02946234101, -21334.002475023568, -21277.20669236263, -26461.358542604274, -8831.80008313657, -29198.374354645533, 0.146, 0.916, 0.464, 192.0, 0.0, 0.0, 0.0, 0.0, 0.0, 0.0, 0.0, 0.0, 0.0, 1.6518444022040603E9, 0.0, 2022-05-06 15:40:02.204
19.0, 36245.700567448206, 41465.123470440325, -34044.254904300564, -21342.22791698312, -21288.270805868007, -26470.410999108673, -8841.23251929671, -29202.73294481432, 0.146, 0.916, 0.464, 192.0, 0.0, 0.0, 0.0, 0.0, 0.0, 0.0, 0.0, 0.0, 0.0, 1.6518444022040656E9, 0.0, 2022-05-06 15:40:02.204
20.0, 36214.40812521078, 41465.52580184052, -34022.14902903426, -21314.489402114083, -21254.07263685139, -26441.42078655014, -8830.302516258063, -29175.888499723496, 0.146, 0.916, 0.464, 192.0, 0.0, 0.0, 0.0, 0.0, 0.0, 0.0, 0.0, 0.0, 0.0, 1.6518444022040708E9, 0.0, 2022-05-06 15:40:02.204
21.0, 36203.88045357233, 41483.25073519358, -33998.16560723372, -21298.68671878418, -21219.449784690118, -26425.439289264596, -8804.486251412183, -29172.267517121738, 0.146, 0.916, 0.464, 192.0, 0.0, 0.0, 0.0, 0.0, 0.0, 0.0, 0.0, 0.0, 0.0, 1.6518444022040763E9, 0.0, 2022-05-06 15:40:02.204
22.0, 36224.95814859369, 41471.717235054646, -34021.72434588961, -21319.74206206108, -21255.123168840786, -26439.833812693814, -8821.227708009208, -29189.72422954133, 0.146, 0.916, 0.464, 192.0, 0.0, 0.0, 0.0, 0.0, 0.0, 0.0, 0.0, 0.0, 0.0, 1.651844402204082E9, 0.0, 2022-05-06 15:40:02.204
23.0, 36254.730672208156, 41476.36639790134, -34038.89048563129, -21337.668161114238, -21275.44090455066, -26454.541260545408, -8810.40946369284, -29187.354944629067, 0.146, 0.916, 0.464, 192.0, 0.0, 0.0, 0.0, 0.0, 0.0, 0.0, 0.0, 0.0, 0.0, 1.6518444022040873E9, 0.0, 2022-05-06 15:40:02.204
24.0, 36240.02322435656, 41485.30709568347, -34035.04598558498, -21333.711902345647, -21271.663459737716, -26450.56265003236, -8798.518335642617, -29164.19853737337, 0.146, 0.916, 0.464, 192.0, 0.0, 0.0, 0.0, 0.0, 0.0, 0.0, 0.0, 0.0, 0.0, 1.6518444022040925E9, 0.0, 2022-05-06 15:40:02.204
25.0, 36200.5947471374, 41477.26046767956, -34023.132505790294, -21325.195887708174, -21261.336953799364, -26437.956266159566, -8804.21803047872, -29153.559107012643, 0.146, 0.916, 0.464, 192.0, 0.0, 0.0, 0.0, 0.0, 0.0, 0.0, 0.0, 0.0, 0.0, 1.651844402204098E9, 0.0, 2022-05-06 15:40:02.204
26.0, 36198.0466482695, 41487.721084084646, -34011.44254344017, -21315.986968992587, -21249.0658460934, -26435.9893126475, -8818.299629485564, -29168.49007230879, 0.146, 0.916, 0.464, 192.0, 0.0, 0.0, 0.0, 0.0, 0.0, 0.0, 0.0, 0.0, 0.0, 1.6518444022041051E9, 0.0, 2022-05-06 15:40:02.204
27.0, 36230.00964284058, 41491.96791553115, -34013.4765521856, -21319.138564960787, -21253.938526384656, -26441.979580161522, -8828.9837633352, -29181.96817421534, 0.134, 0.908, 0.454, 192.0, 4.0, 48.0, 28.0, 96.0, 14.0, 48.0, 0.0, 0.0, 0.0, 1.6518444022041109E9, 0.0, 2022-05-06 15:40:02.204
28.0, 36244.873552903366, 41461.68130179421, -34045.97598862362, -21351.07920778742, -21278.279576096487, -26469.427522352642, -8844.51822573164, -29207.717383827854, 0.134, 0.908, 0.454, 192.0, 0.0, 0.0, 0.0, 0.0, 0.0, 0.0, 0.0, 0.0, 0.0, 1.651844402204116E9, 0.0, 2022-05-06 15:40:02.204
29.0, 36228.62383468435, 41453.2323423901, -34061.175174853226, -21363.819702126944, -21297.703242028147, -26485.163150449178, -8872.90494118988, -29235.657064396986, 0.134, 0.908, 0.454, 192.0, 0.0, 0.0, 0.0, 0.0, 0.0, 0.0, 0.0, 0.0, 0.0, 1.6518444022041216E9, 0.0, 2022-05-06 15:40:02.204
30.0, 36205.80270359549, 41456.33923486939, -34050.35693053686, -21350.676876387224, -21288.941358201668, -26482.168016692165, -8860.142095105899, -29229.30916897168, 0.134, 0.908, 0.454, 192.0, 0.0, 0.0, 0.0, 0.0, 0.0, 0.0, 0.0, 0.0, 0.0, 1.6518444022041268E9, 0.0, 2022-05-06 15:40:02.204
31.0, 36201.19824423769, 41471.292551909995, -34031.49205821658, -21326.9840272646, -21266.388448046262, -26430.781356189415, -8803.100443255955, -29137.801127171653, 0.134, 0.908, 0.454, 192.0, 0.0, 0.0, 0.0, 0.0, 0.0, 0.0, 0.0, 0.0, 0.0, 1.651844402204132E9, 0.0, 2022-05-06 15:40:02.204
32.0, 36237.78804991103, 41484.52478462753, -34027.08876455889, -21330.605009866358, -21252.262145550507, -26423.919370641634, -8783.252094179643, -29133.19666781386, 0.134, 0.908, 0.454, 192.0, 0.0, 0.0, 0.0, 0.0, 0.0, 0.0, 0.0, 0.0, 0.0, 1.6518444022041376E9, 0.0, 2022-05-06 15:40:02.204
33.0, 36261.436195544746, 41477.081653723915, -34045.75247117907, -21356.443626456694, -21269.093009125354, -26452.41784482215, -8796.59608561946, -29175.642630534487, 0.134, 0.908, 0.454, 192.0, 0.0, 0.0, 0.0, 0.0, 0.0, 0.0, 0.0, 0.0, 0.0, 1.6518444022041428E9, 0.0, 2022-05-06 15:40:02.204
34.0, 36251.40026228431, 41459.62494130432, -34047.00416886857, -21358.45528345767, -21278.45839005213, -26463.37019960525, -8814.566888161527, -29190.461837108356, 0.134, 0.908, 0.454, 192.0, 0.0, 0.0, 0.0, 0.0, 0.0, 0.0, 0.0, 0.0, 0.0, 1.6518444022041492E9, 0.0, 2022-05-06 15:40:02.204
35.0, 36209.133113519325, 41452.785307501, -34030.79915413847, -21355.258984000564, -21269.517692270005, -26467.348810118296, -8827.620306923427, -29212.92534028594, 0.134, 0.908, 0.454, 192.0, 0.0, 0.0, 0.0, 0.0, 0.0, 0.0, 0.0, 0.0, 0.0, 1.6518444022041547E9, 0.0, 2022-05-06 15:40:02.204
36.0, 36192.48106390012, 41451.10892666685, -34012.6271858963, -21337.84697506988, -21254.16204382921, -26454.27303961194, -8819.864251597435, -29210.801924562686, 0.134, 0.908, 0.454, 192.0, 0.0, 0.0, 0.0, 0.0, 0.0, 0.0, 0.0, 0.0, 0.0, 1.6518444022041607E9, 0.0, 2022-05-06 15:40:02.204
37.0, 36214.20695951068, 41448.15849639875, -34026.64172966978, -21352.21914675464, -21269.227119592088, -26450.294429098896, -8816.109158528943, -29181.789360259696, 0.136, 0.912, 0.452, 192.0, 4.0, 64.0, 28.0, 128.0, 14.0, 32.0, 0.0, 0.0, 0.0, 1.6518444022041676E9, 0.0, 2022-05-06 15:40:02.204
38.0, 36229.02616608455, 41432.31110957994, -34060.191698097195, -21386.529074493537, -21296.07156468291, -26476.110693944778, -8846.529882732617, -29199.223720934835, 0.136, 0.912, 0.452, 192.0, 0.0, 0.0, 0.0, 0.0, 0.0, 0.0, 0.0, 0.0, 0.0, 1.651844402204173E9, 0.0, 2022-05-06 15:40:02.204
39.0, 36225.20401778269, 41423.50452226454, -34057.50948876256, -21376.80606565548, -21287.667308767715, -26474.166092177165, -8838.595013450982, -29189.277194652226, 0.136, 0.912, 0.452, 192.0, 0.0, 0.0, 0.0, 0.0, 0.0, 0.0, 0.0, 0.0, 0.0, 1.6518444022041793E9, 0.0, 2022-05-06 15:40:02.204
40.0, 36194.20214822318, 41431.39468805727, -34044.27725604502, -21364.0432195715, -21278.01135516302, -26459.078664669833, -8824.781635377603, -29176.11201716805, 0.136, 0.912, 0.452, 192.0, 0.0, 0.0, 0.0, 0.0, 0.0, 0.0, 0.0, 0.0, 0.0, 1.6518444022041855E9, 0.0, 2022-05-06 15:40:02.204
41.0, 36197.532558147024, 41468.900915253274, -34021.679642400704, -21341.266791971542, -21251.815110661402, -26429.596713733285, -8797.98189377569, -29154.6319907465, 0.136, 0.912, 0.452, 192.0, 0.0, 0.0, 0.0, 0.0, 0.0, 0.0, 0.0, 0.0, 0.0, 1.651844402204191E9, 0.0, 2022-05-06 15:40:02.204
42.0, 36233.608273697886, 41476.12052871234, -34024.09363080187, -21343.591373394895, -21243.58966870185, -26426.892152654193, -8783.967350002213, -29151.413339544935, 0.136, 0.912, 0.452, 192.0, 0.0, 0.0, 0.0, 0.0, 0.0, 0.0, 0.0, 0.0, 0.0, 1.6518444022041965E9, 0.0, 2022-05-06 15:40:02.204
43.0, 36250.34973029491, 41475.87465952333, -34035.49302047408, -21356.84595785689, -21261.962802644113, -26443.343036573297, -8809.671856125815, -29181.230566648315, 0.136, 0.912, 0.452, 192.0, 0.0, 0.0, 0.0, 0.0, 0.0, 0.0, 0.0, 0.0, 0.0, 1.6518444022042017E9, 0.0, 2022-05-06 15:40:02.204
44.0, 36229.29438701802, 41444.96219694164, -34056.25779107306, -21379.37651626784, -21286.348555844852, -26463.1466821607, -8845.345240276485, -29201.972985502838, 0.136, 0.912, 0.452, 192.0, 0.0, 0.0, 0.0, 0.0, 0.0, 0.0, 0.0, 0.0, 0.0, 1.6518444022042077E9, 0.0, 2022-05-06 15:40:02.204
45.0, 36195.61030812387, 41439.55307478346, -34046.46772700164, -21371.66516443076, -21275.73147722858, -26454.496557056496, -8847.826283911025, -29193.926357498927, 0.136, 0.912, 0.452, 192.0, 0.0, 0.0, 0.0, 0.0, 0.0, 0.0, 0.0, 0.0, 0.0, 1.651844402204213E9, 0.0, 2022-05-06 15:40:02.204
46.0, 36189.6423923543, 41448.3820138433, -34037.482325730605, -21362.925632348735, -21265.673192223694, -26443.27598133993, -8819.417216708329, -29176.268479379236, 0.136, 0.912, 0.452, 192.0, 0.0, 0.0, 0.0, 0.0, 0.0, 0.0, 0.0, 0.0, 0.0, 1.6518444022042189E9, 0.0, 2022-05-06 15:40:02.204
47.0, 36220.73366889163, 41462.620075061335, -34029.05571807095, -21360.399885225284, -21269.137712614265, -26440.683178983116, -8820.199527764265, -29178.280136380214, 0.136, 0.91, 0.456, 192.0, 4.0, 64.0, 28.0, 112.0, 14.0, 64.0, 0.0, 0.0, 0.0, 1.6518444022042265E9, 0.0, 2022-05-06 15:40:02.204
48.0, 36254.574209996965, 41458.976740715116, -34042.511468233046, -21378.638908700814, -21289.9248349577, -26461.13502515972, -8836.359839005452, -29198.77668604573, 0.136, 0.91, 0.456, 192.0, 0.0, 0.0, 0.0, 0.0, 0.0, 0.0, 0.0, 0.0, 0.0, 1.651844402204232E9, 0.0, 2022-05-06 15:40:02.204
49.0, 36252.98723614064, 41451.51125806705, -34052.52504974903, -21388.13840009432, -21303.827620008902, -26470.746275275502, -8831.308344758552, -29221.910741556974, 0.136, 0.91, 0.456, 192.0, 0.0, 0.0, 0.0, 0.0, 0.0, 0.0, 0.0, 0.0, 0.0, 1.6518444022042375E9, 0.0, 2022-05-06 15:40:02.204
50.0, 36226.79099163902, 41453.27704587902, -34027.9828343371, -21365.697248661192, -21269.49534052555, -26436.771623703436, -8805.179155490297, -29177.00608694626, 0.136, 0.91, 0.456, 192.0, 0.0, 0.0, 0.0, 0.0, 0.0, 0.0, 0.0, 0.0, 0.0, 1.6518444022042427E9, 0.0, 2022-05-06 15:40:02.204
51.0, 36214.0504972995, 41462.329502383414, -34002.77006659151, -21347.838204841402, -21225.283589992952, -26408.407259989654, -8770.176323673288, -29127.921656122406, 0.136, 0.91, 0.456, 192.0, 0.0, 0.0, 0.0, 0.0, 0.0, 0.0, 0.0, 0.0, 0.0, 1.6518444022042482E9, 0.0, 2022-05-06 15:40:02.204
52.0, 36239.196209811715, 41472.41013913276, -34006.81573233792, -21359.21524276915, -21248.037665848457, -26418.018510105434, -8794.293855940563, -29145.870106920018, 0.136, 0.91, 0.456, 192.0, 0.0, 0.0, 0.0, 0.0, 0.0, 0.0, 0.0, 0.0, 0.0, 1.6518444022042537E9, 0.0, 2022-05-06 15:40:02.204
53.0, 36259.335131565946, 41470.53259259851, -34031.24618902757, -21391.625272229347, -21264.801474189935, -26448.1933651201, -8825.943926089278, -29175.86614797904, 0.136, 0.91, 0.456, 192.0, 0.0, 0.0, 0.0, 0.0, 0.0, 0.0, 0.0, 0.0, 0.0, 1.651844402204259E9, 0.0, 2022-05-06 15:40:02.204
54.0, 36253.27780881856, 41478.08748222441, -34028.54162794848, -21386.551426237995, -21253.87147115129, -26446.38287381922, -8816.735007373692, -29165.830214718608, 0.136, 0.91, 0.456, 192.0, 0.0, 0.0, 0.0, 0.0, 0.0, 0.0, 0.0, 0.0, 0.0, 1.6518444022042644E9, 0.0, 2022-05-06 15:40:02.204
55.0, 36217.939700834715, 41457.14389766978, -34024.25009301306, -21376.291975533008, -21260.509939254516, -26441.778414461427, -8808.062530525032, -29170.367618843036, 0.136, 0.91, 0.456, 192.0, 0.0, 0.0, 0.0, 0.0, 0.0, 0.0, 0.0, 0.0, 0.0, 1.6518444022042696E9, 0.0, 2022-05-06 15:40:02.204
56.0, 36211.56945366495, 41460.45195584917, -34004.200578236654, -21349.201661253173, -21239.67811342217, -26422.980597374513, -8801.535821144083, -29169.5853077871, 0.136, 0.91, 0.456, 192.0, 0.0, 0.0, 0.0, 0.0, 0.0, 0.0, 0.0, 0.0, 0.0, 1.6518444022042751E9, 0.0, 2022-05-06 15:40:02.204
57.0, 36241.31962553497, 41471.31490365445, -33997.137426988775, -21343.010228039057, -21227.317598738384, -26417.482068238507, -8793.690358840271, -29155.481357035802, 0.14, 0.908, 0.456, 192.0, 4.0, 96.0, 28.0, 96.0, 14.0, 64.0, 0.0, 0.0, 0.0, 1.651844402204281E9, 0.0, 2022-05-06 15:40:02.204
58.0, 36258.86574493239, 41457.076842436414, -34031.73792740559, -21375.12968482133, -21260.800511932437, -26440.482013283017, -8808.956600303245, -29166.25489786326, 0.14, 0.908, 0.456, 192.0, 0.0, 0.0, 0.0, 0.0, 0.0, 0.0, 0.0, 0.0, 0.0, 1.6518444022042868E9, 0.0, 2022-05-06 15:40:02.204
59.0, 36245.74527093712, 41448.82904873241, -34048.12175609133, -21384.293900048007, -21279.777142974992, -26464.24191763901, -8831.084827314, -29208.902026283984, 0.14, 0.908, 0.456, 192.0, 0.0, 0.0, 0.0, 0.0, 0.0, 0.0, 0.0, 0.0, 0.0, 1.6518444022042923E9, 0.0, 2022-05-06 15:40:02.204
60.0, 36230.00964284058, 41457.68033953671, -34022.46195345664, -21348.642867641793, -21257.984192131065, -26436.302237069875, -8813.069321283021, -29181.29762188168, 0.14, 0.908, 0.456, 192.0, 0.0, 0.0, 0.0, 0.0, 0.0, 0.0, 0.0, 0.0, 0.0, 1.6518444022042985E9, 0.0, 2022-05-06 15:40:02.204
61.0, 36214.16225602177, 41460.586066315904, -34016.89636908726, -21336.08118725791, -21248.909383882212, -26420.723071184526, -8803.614533378426, -29158.767063470732, 0.14, 0.908, 0.456, 192.0, 0.0, 0.0, 0.0, 0.0, 0.0, 0.0, 0.0, 0.0, 0.0, 1.6518444022043037E9, 0.0, 2022-05-06 15:40:02.204
62.0, 36235.26230278758, 41483.7424735716, -34031.112078560844, -21343.591373394895, -21259.817035176402, -26425.193420075586, -8802.608704877937, -29150.47456627781, 0.14, 0.908, 0.456, 192.0, 0.0, 0.0, 0.0, 0.0, 0.0, 0.0, 0.0, 0.0, 0.0, 1.6518444022043097E9, 0.0, 2022-05-06 15:40:02.204
63.0, 36263.246686845625, 41481.10496772587, -34062.47157603164, -21360.377533480827, -21292.092954169864, -26447.053426152877, -8837.566833206038, -29184.806845761163, 0.14, 0.908, 0.456, 192.0, 0.0, 0.0, 0.0, 0.0, 0.0, 0.0, 0.0, 0.0, 0.0, 1.6518444022043152E9, 0.0, 2022-05-06 15:40:02.204
64.0, 36261.48089903365, 41473.61713333335, -34063.23153534312, -21358.41057996876, -21292.65174778125, -26462.56553680486, -8846.060496099055, -29222.894218313006, 0.14, 0.908, 0.456, 192.0, 0.0, 0.0, 0.0, 0.0, 0.0, 0.0, 0.0, 0.0, 0.0, 1.6518444022043204E9, 0.0, 2022-05-06 15:40:02.204
65.0, 36230.188456796226, 41437.6308247603, -34035.9847588521, -21335.008303524053, -21270.232948092576, -26450.18267037662, -8812.197603249264, -29199.35783140157, 0.14, 0.908, 0.456, 192.0, 0.0, 0.0, 0.0, 0.0, 0.0, 0.0, 0.0, 0.0, 0.0, 1.651844402204326E9, 0.0, 2022-05-06 15:40:02.204
66.0, 36211.524750176046, 41438.12256313831, -34009.43088643919, -21298.68671878418, -21245.82484314738, -26411.84942863577, -8799.367701931918, -29144.126670852504, 0.14, 0.908, 0.456, 192.0, 0.0, 0.0, 0.0, 0.0, 0.0, 0.0, 0.0, 0.0, 0.0, 1.651844402204332E9, 0.0, 2022-05-06 15:40:02.204
67.0, 36239.86676214537, 41442.59291202938, -34020.51735168903, -21305.280483398496, -21252.686828695158, -26425.886324153704, -8795.679664096793, -29150.541621511176, 0.126, 0.906, 0.46, 192.0, 3.0, 240.0, 28.0, 80.0, 14.0, 96.0, 0.0, 0.0, 0.0, 1.651844402204338E9, 0.0, 2022-05-06 15:40:02.204
68.0, 36272.187384627745, 41424.26448157603, -34043.51729673354, -21332.191983722685, -21276.714953984614, -26455.681199512626, -8823.351123732464, -29177.050790435173, 0.126, 0.906, 0.46, 192.0, 0.0, 0.0, 0.0, 0.0, 0.0, 0.0, 0.0, 0.0, 0.0, 1.6518444022043457E9, 0.0, 2022-05-06 15:40:02.204
69.0, 36265.4595095467, 41428.89129267827, -34043.427889755716, -21321.59725685087, -21279.285404596976, -26454.47420531204, -8849.972051378734, -29184.046886449683, 0.126, 0.906, 0.46, 192.0, 0.0, 0.0, 0.0, 0.0, 0.0, 0.0, 0.0, 0.0, 0.0, 1.6518444022043514E9, 0.0, 2022-05-06 15:40:02.204
70.0, 36233.40710799779, 41443.44227831868, -34017.902197587755, -21293.411707092728, -21254.407913018218, -26436.726920214525, -8811.951734060256, -29150.38515929999, 0.126, 0.906, 0.46, 192.0, 0.0, 0.0, 0.0, 0.0, 0.0, 0.0, 0.0, 0.0, 0.0, 1.651844402204357E9, 0.0, 2022-05-06 15:40:02.204
71.0, 36223.84056137092, 41464.005883217564, -33992.39885716425, -21262.700410211135, -21227.652874905216, -26414.531637970405, -8764.320166625997, -29133.01785385822, 0.126, 0.906, 0.46, 192.0, 0.0, 0.0, 0.0, 0.0, 0.0, 0.0, 0.0, 0.0, 0.0, 1.651844402204362E9, 0.0, 2022-05-06 15:40:02.204
72.0, 36247.9580936382, 41468.87856350882, -34004.28998521447, -21273.0716196384, -21233.956066841612, -26425.260475308954, -8771.137448684865, -29142.85262141855, 0.126, 0.906, 0.46, 192.0, 0.0, 0.0, 0.0, 0.0, 0.0, 0.0, 0.0, 0.0, 0.0, 1.6518444022043676E9, 0.0, 2022-05-06 15:40:02.204
73.0, 36267.47116654768, 41456.85332499186, -34027.759316892545, -21295.35630886034, -21255.033761862967, -26442.337208072808, -8815.662123639837, -29163.81855771763, 0.126, 0.906, 0.46, 192.0, 0.0, 0.0, 0.0, 0.0, 0.0, 0.0, 0.0, 0.0, 0.0, 1.651844402204373E9, 0.0, 2022-05-06 15:40:02.204
74.0, 36257.92697166526, 41442.39174632928, -34037.16940130823, -21296.78682050548, -21262.745113700046, -26447.94749593109, -8815.03627479509, -29173.183938644404, 0.126, 0.906, 0.46, 192.0, 0.0, 0.0, 0.0, 0.0, 0.0, 0.0, 0.0, 0.0, 0.0, 1.6518444022043784E9, 0.0, 2022-05-06 15:40:02.204
75.0, 36225.33812824942, 41450.4830778221, -34028.184000037196, -21279.620680763805, -21252.887994395256, -26434.80467019137, -8805.782652590591, -29169.227679875814, 0.126, 0.906, 0.46, 192.0, 0.0, 0.0, 0.0, 0.0, 0.0, 0.0, 0.0, 0.0, 0.0, 1.651844402204385E9, 0.0, 2022-05-06 15:40:02.204
76.0, 36212.79879961, 41465.39169137379, -34018.70686038815, -21265.0696951234, -21235.610095931304, -26423.405280519164, -8815.237440495186, -29165.651400762967, 0.126, 0.906, 0.46, 192.0, 0.0, 0.0, 0.0, 0.0, 0.0, 0.0, 0.0, 0.0, 0.0, 1.6518444022043908E9, 0.0, 2022-05-06 15:40:02.204
77.0, 36244.515924992076, 41463.245923906084, -34025.83706686939, -21279.173645874696, -21234.358398241806, -26434.80467019137, -8822.613516165438, -29176.670810779433, 0.112, 0.898, 0.464, 192.0, 3.0, 128.0, 28.0, 16.0, 14.0, 128.0, 0.0, 0.0, 0.0, 1.6518444022043965E9, 0.0, 2022-05-06 15:40:02.204
78.0, 36267.80644271451, 41443.28581610749, -34060.23640158611, -21311.136640445788, -21286.750887245045, -26470.52275783095, -8848.765057178147, -29207.44916289439, 0.112, 0.898, 0.464, 192.0, 0.0, 0.0, 0.0, 0.0, 0.0, 0.0, 0.0, 0.0, 0.0, 1.651844402204402E9, 0.0, 2022-05-06 15:40:02.204
79.0, 36256.116480364384, 41429.763010712035, -34068.238326101105, -21314.31058815844, -21297.479724583594, -26476.870653256257, -8856.31994680404, -29215.719308342854, 0.112, 0.898, 0.464, 192.0, 0.0, 0.0, 0.0, 0.0, 0.0, 0.0, 0.0, 0.0, 0.0, 1.6518444022044075E9, 0.0, 2022-05-06 15:40:02.204
80.0, 36224.377003237845, 41437.8319904604, -34061.06341613095, -21305.101669442854, -21289.88013146879, -26462.9455164606, -8848.742705433691, -29206.4433343939, 0.112, 0.898, 0.464, 192.0, 0.0, 0.0, 0.0, 0.0, 0.0, 0.0, 0.0, 0.0, 0.0, 1.651844402204413E9, 0.0, 2022-05-06 15:40:02.204
81.0, 36214.385773466325, 41461.23426690511, -34045.14897407877, -21287.399087834252, -21270.389410303764, -26444.125347629233, -8821.495928942673, -29186.550281828677, 0.112, 0.898, 0.464, 192.0, 0.0, 0.0, 0.0, 0.0, 0.0, 0.0, 0.0, 0.0, 0.0, 1.6518444022044187E9, 0.0, 2022-05-06 15:40:02.204
82.0, 36249.36625353888, 41464.02823496202, -34038.55520946446, -21287.48849481207, -21262.63335497777, -26440.57142026084, -8814.70099862826, -29180.403552103468, 0.112, 0.898, 0.464, 192.0, 0.0, 0.0, 0.0, 0.0, 0.0, 0.0, 0.0, 0.0, 0.0, 1.651844402204424E9, 0.0, 2022-05-06 15:40:02.204
83.0, 36281.68687602125, 41458.485002337104, -34043.9866833671, -21295.55747456044, -21271.68581148217, -26454.04952216739, -8829.386094735395, -29196.16153194446, 0.112, 0.898, 0.464, 192.0, 0.0, 0.0, 0.0, 0.0, 0.0, 0.0, 0.0, 0.0, 0.0, 1.65184440220443E9, 0.0, 2022-05-06 15:40:02.204
84.0, 36263.29139033453, 41438.144914882774, -34058.98470389661, -21316.098727714867, -21287.220273878607, -26484.447894626606, -8850.933176390312, -29237.087576042126, 0.112, 0.898, 0.464, 192.0, 0.0, 0.0, 0.0, 0.0, 0.0, 0.0, 0.0, 0.0, 0.0, 1.651844402204435E9, 0.0, 2022-05-06 15:40:02.204
85.0, 36226.99215733912, 41448.002034187564, -34051.22864857062, -21304.766393276026, -21276.983174918078, -26468.24287989651, -8844.808798409558, -29217.999186277295, 0.112, 0.898, 0.464, 192.0, 0.0, 0.0, 0.0, 0.0, 0.0, 0.0, 0.0, 0.0, 0.0, 1.651844402204441E9, 0.0, 2022-05-06 15:40:02.204
86.0, 36213.87168334385, 41458.06031919245, -34033.97310185112, -21283.532236043484, -21256.173700830186, -26435.89990566968, -8827.17327203432, -29173.407456088957, 0.112, 0.898, 0.464, 192.0, 0.0, 0.0, 0.0, 0.0, 0.0, 0.0, 0.0, 0.0, 0.0, 1.6518444022044468E9, 0.0, 2022-05-06 15:40:02.204
87.0, 36254.19423034123, 41467.91743849724, -34026.19469478067, -21279.844198208357, -21243.29909602393, -26422.108879340754, -8800.708806599238, -29148.842888932573, 0.114, 0.9, 0.466, 192.0, 3.0, 144.0, 28.0, 32.0, 14.0, 144.0, 0.0, 0.0, 0.0, 1.6518444022044523E9, 0.0, 2022-05-06 15:40:02.204
88.0, 36285.821948745484, 41459.28966513749, -34046.780651424015, -21300.854837996347, -21261.806340432926, -26441.42078655014, -8802.273428711109, -29155.99544715827, 0.114, 0.9, 0.466, 192.0, 0.0, 0.0, 0.0, 0.0, 0.0, 0.0, 0.0, 0.0, 0.0, 1.6518444022044575E9, 0.0, 2022-05-06 15:40:02.204
89.0, 36271.87446020538, 41455.17694415771, -34058.33650330741, -21314.39999513626, -21276.62554700679, -26458.743388503004, -8796.976065275201, -29173.027476433217, 0.114, 0.9, 0.466, 192.0, 0.0, 0.0, 0.0, 0.0, 0.0, 0.0, 0.0, 0.0, 0.0, 1.6518444022044632E9, 0.0, 2022-05-06 15:40:02.204
90.0, 36234.81526789848, 41458.88733373729, -34042.98085486661, -21306.375718876807, -21261.694581710646, -26458.721036758547, -8788.415347148819, -29180.224738147826, 0.114, 0.9, 0.466, 192.0, 0.0, 0.0, 0.0, 0.0, 0.0, 0.0, 0.0, 0.0, 0.0, 1.651844402204471E9, 0.0, 2022-05-06 15:40:02.204
91.0, 36211.92708157624, 41447.666758020736, -34036.20827629665, -21304.36406187583, -21254.184395573666, -26465.38185660623, -8809.470690425718, -29197.748505800788, 0.114, 0.9, 0.466, 192.0, 0.0, 0.0, 0.0, 0.0, 0.0, 0.0, 0.0, 0.0, 0.0, 1.6518444022044764E9, 0.0, 2022-05-06 15:40:02.204
92.0, 36237.877456888855, 41443.732850996596, -34036.96823560813, -21310.287274156486, -21254.407913018218, -26472.80263576539, -8832.202414536765, -29208.67850883943, 0.114, 0.9, 0.466, 192.0, 0.0, 0.0, 0.0, 0.0, 0.0, 0.0, 0.0, 0.0, 0.0, 1.6518444022044816E9, 0.0, 2022-05-06 15:40:02.204
93.0, 36271.82975671646, 41436.80381021545, -34049.37345378083, -21325.59821910837, -21267.72955271358, -26480.04460096891, -8844.294708287085, -29205.459857637867, 0.114, 0.9, 0.466, 192.0, 0.0, 0.0, 0.0, 0.0, 0.0, 0.0, 0.0, 0.0, 0.0, 1.651844402204487E9, 0.0, 2022-05-06 15:40:02.204
94.0, 36267.158242125304, 41442.50350505156, -34052.010959626554, -21325.21823945263, -21280.380640075284, -26480.648098069203, -8866.445287042296, -29219.027366522238, 0.114, 0.9, 0.466, 192.0, 0.0, 0.0, 0.0, 0.0, 0.0, 0.0, 0.0, 0.0, 0.0, 1.6518444022044923E9, 0.0, 2022-05-06 15:40:02.204
95.0, 36240.91729413477, 41440.62595851731, -34038.06347108644, -21305.816925265422, -21260.331125298875, -26449.892097698703, -8856.766981693147, -29188.91956674094, 0.114, 0.9, 0.466, 192.0, 0.0, 0.0, 0.0, 0.0, 0.0, 0.0, 0.0, 0.0, 0.0, 1.6518444022044978E9, 0.0, 2022-05-06 15:40:02.204
96.0, 36224.22054102666, 41450.81835398893, -34016.24816849806, -21283.308718598928, -21237.554697698917, -26417.52677172742, -8816.17621376231, -29146.58536274259, 0.114, 0.9, 0.466, 192.0, 0.0, 0.0, 0.0, 0.0, 0.0, 0.0, 0.0, 0.0, 0.0, 1.6518444022045033E9, 0.0, 2022-05-06 15:40:02.204
97.0, 36233.58592195343, 41438.39078407178, -34026.03823256949, -21296.45154433865, -21251.569241472393, -26430.42372827813, -8803.033388022588, -29156.39777855847, 0.11, 0.9, 0.46, 192.0, 3.0, 112.0, 28.0, 32.0, 14.0, 96.0, 0.0, 0.0, 0.0, 1.6518444022045083E9, 0.0, 2022-05-06 15:40:02.204
98.0, 36257.79286119853, 41440.71536549513, -34048.032349113506, -21319.429137638705, -21270.322355070395, -26459.23512688102, -8824.17813827731, -29181.5881945596, 0.11, 0.9, 0.46, 192.0, 0.0, 0.0, 0.0, 0.0, 0.0, 0.0, 0.0, 0.0, 0.0, 1.6518444022045138E9, 0.0, 2022-05-06 15:40:02.204
99.0, 36251.22144832867, 41450.14780165527, -34054.58141023891, -21327.60987610935, -21283.934567443677, -26472.534414831927, -8838.79617915108, -29198.17318894544, 0.11, 0.9, 0.46, 192.0, 0.0, 0.0, 0.0, 0.0, 0.0, 0.0, 0.0, 0.0, 0.0, 1.651844402204522E9, 0.0, 2022-05-06 15:40:02.204
100.0, 36225.18166603824, 41460.720176782634, -34031.69322391668, -21302.397108363763, -21261.78398868847, -26446.27111509694, -8817.450263196262, -29187.01966846224, 0.11, 0.9, 0.46, 192.0, 0.0, 0.0, 0.0, 0.0, 0.0, 0.0, 0.0, 0.0, 0.0, 1.6518444022045276E9, 0.0, 2022-05-06 15:40:02.204
101.0, 36218.52084619056, 41459.08849943739, -34018.0810115434, -21289.768372746512, -21245.914250125203, -26425.394585775684, -8817.942001574278, -29172.401627588468, 0.11, 0.9, 0.46, 192.0, 0.0, 0.0, 0.0, 0.0, 0.0, 0.0, 0.0, 0.0, 0.0, 1.651844402204533E9, 0.0, 2022-05-06 15:40:02.204
102.0, 36240.02322435656, 41440.7824207285, -34040.65627344326, -21311.583675334892, -21260.085256109865, -26444.99706566299, -8836.583356450004, -29185.700915539375, 0.11, 0.9, 0.46, 192.0, 0.0, 0.0, 0.0, 0.0, 0.0, 0.0, 0.0, 0.0, 0.0, 1.6518444022045383E9, 0.0, 2022-05-06 15:40:02.204
103.0, 36268.11936713688, 41444.11283065234, -34064.48323303262, -21340.59623963788, -21284.69452675516, -26473.62965031024, -8845.74757167668, -29200.944805257895, 0.11, 0.9, 0.46, 192.0, 0.0, 0.0, 0.0, 0.0, 0.0, 0.0, 0.0, 0.0, 0.0, 1.651844402204544E9, 0.0, 2022-05-06 15:40:02.204
104.0, 36265.88419269135, 41452.606493545354, -34065.66787548875, -21348.821681597434, -21293.50111407055, -26475.86482475577, -8842.551272219573, -29185.902081239474, 0.11, 0.9, 0.46, 192.0, 0.0, 0.0, 0.0, 0.0, 0.0, 0.0, 0.0, 0.0, 0.0, 1.6518444022045493E9, 0.0, 2022-05-06 15:40:02.204
105.0, 36236.24577954361, 41454.66285403525, -34043.71846243364, -21331.56613487794, -21277.363154573817, -26461.09032167081, -8828.17910053481, -29173.07217992213, 0.11, 0.9, 0.46, 192.0, 0.0, 0.0, 0.0, 0.0, 0.0, 0.0, 0.0, 0.0, 0.0, 1.6518444022045548E9, 0.0, 2022-05-06 15:40:02.204
106.0, 36215.36925022236, 41446.41506033124, -34014.01299405253, -21316.769280048524, -21256.799549674935, -26446.673446497138, -8802.474594411206, -29156.218964602827, 0.112, 0.904, 0.464, 192.0, 3.0, 128.0, 28.0, 64.0, 14.0, 128.0, 0.0, 0.0, 0.0, 1.6518444022045603E9, 0.0, 2022-05-06 15:40:02.204
107.0, 36232.53538996403, 41443.91166495224, -34017.43281095419, -21320.189096950187, -21250.71987518309, -26454.205984378576, -8813.873984083413, -29170.032342676204, 0.112, 0.904, 0.464, 192.0, 0.0, 0.0, 0.0, 0.0, 0.0, 0.0, 0.0, 0.0, 0.0, 1.6518444022045655E9, 0.0, 2022-05-06 15:40:02.204
108.0, 36260.095090877425, 41435.686222992685, -34035.448316985174, -21340.104501259866, -21261.739285199557, -26476.15539743369, -8831.710676158747, -29196.832084278118, 0.112, 0.904, 0.464, 192.0, 0.0, 0.0, 0.0, 0.0, 0.0, 0.0, 0.0, 0.0, 0.0, 1.651844402204571E9, 0.0, 2022-05-06 15:40:02.204
109.0, 36262.1067478784, 41438.211970116135, -34036.40944199675, -21340.59623963788, -21275.44090455066, -26476.490673600518, -8835.577527949516, -29206.041002993705, 0.112, 0.904, 0.464, 192.0, 0.0, 0.0, 0.0, 0.0, 0.0, 0.0, 0.0, 0.0, 0.0, 1.6518444022045765E9, 0.0, 2022-05-06 15:40:02.204
110.0, 36233.40710799779, 41443.039946918485, -34022.57371217891, -21330.157974977254, -21260.912270654713, -26468.779321763435, -8823.84286211048, -29197.5920435896, 0.112, 0.904, 0.464, 192.0, 0.0, 0.0, 0.0, 0.0, 0.0, 0.0, 0.0, 0.0, 0.0, 1.6518444022045817E9, 0.0, 2022-05-06 15:40:02.204
111.0, 36224.444058471214, 41472.63365657731, -34008.313299216425, -21314.39999513626, -21241.957991356612, -26450.0932633988, -8803.435719422785, -29183.085761438106, 0.112, 0.904, 0.464, 192.0, 0.0, 0.0, 0.0, 0.0, 0.0, 0.0, 0.0, 0.0, 0.0, 1.6518444022045891E9, 0.0, 2022-05-06 15:40:02.204
112.0, 36249.679177961254, 41470.2867234095, -34014.03534579698, -21313.930608502702, -21244.17081405769, -26439.543240015893, -8800.082957754488, -29178.950688713874, 0.112, 0.904, 0.464, 192.0, 0.0, 0.0, 0.0, 0.0, 0.0, 0.0, 0.0, 0.0, 0.0, 1.6518444022045946E9, 0.0, 2022-05-06 15:40:02.204
113.0, 36275.271925362584, 41435.127429381304, -34048.099404346875, -21345.69243737369, -21278.88307319678, -26469.315763630362, -8828.380266234906, -29205.705726826876, 0.112, 0.904, 0.464, 192.0, 0.0, 0.0, 0.0, 0.0, 0.0, 0.0, 0.0, 0.0, 0.0, 1.6518444022046E9, 0.0, 2022-05-06 15:40:02.204
114.0, 36272.29914335003, 41423.77274319801, -34059.45409053017, -21355.951888078678, -21292.11530591432, -26473.29437414341, -8831.934193603302, -29211.204255962883, 0.112, 0.904, 0.464, 192.0, 0.0, 0.0, 0.0, 0.0, 0.0, 0.0, 0.0, 0.0, 0.0, 1.651844402204605E9, 0.0, 2022-05-06 15:40:02.204
115.0, 36250.394433783826, 41434.70274623665, -34030.3297675049, -21324.8829632858, -21263.974459645087, -26425.059309608856, -8779.742870300159, -29152.843851190075, 0.112, 0.904, 0.464, 192.0, 0.0, 0.0, 0.0, 0.0, 0.0, 0.0, 0.0, 0.0, 0.0, 1.6518444022046108E9, 0.0, 2022-05-06 15:40:02.204
116.0, 36243.241875558124, 41455.82514474692, -34004.64761312576, -21303.69350954217, -21234.91719185319, -26406.2838442664, -8771.0703934515, -29134.20249631435, 0.116, 0.91, 0.464, 192.0, 3.0, 160.0, 28.0, 112.0, 14.0, 128.0, 0.0, 0.0, 0.0, 1.6518444022046163E9, 0.0, 2022-05-06 15:40:02.204
117.0, 36252.24962857361, 41470.666703065246, -34014.66119464173, -21311.471916612616, -21245.82484314738, -26414.66574843714, -8792.818640806514, -29136.124746337504, 0.116, 0.91, 0.464, 192.0, 0.0, 0.0, 0.0, 0.0, 0.0, 0.0, 0.0, 0.0, 0.0, 1.6518444022046216E9, 0.0, 2022-05-06 15:40:02.204
118.0, 36271.51683229409, 41455.44516509118, -34042.846744399874, -21342.9878762946, -21270.50116902604, -26448.79686222039, -8830.704847658259, -29164.757330984754, 0.116, 0.91, 0.464, 192.0, 0.0, 0.0, 0.0, 0.0, 0.0, 0.0, 0.0, 0.0, 0.0, 1.6518444022046268E9, 0.0, 2022-05-06 15:40:02.204
119.0, 36265.839489202444, 41416.35196403885, -34066.003151655575, -21369.251176029586, -21292.182361147687, -26475.127217188743, -8876.257702858175, -29208.87967453953, 0.116, 0.91, 0.464, 192.0, 0.0, 0.0, 0.0, 0.0, 0.0, 0.0, 0.0, 0.0, 0.0, 1.6518444022046323E9, 0.0, 2022-05-06 15:40:02.204
120.0, 36238.36919526687, 41424.10801936484, -34045.439546756694, -21354.208452011164, -21271.238776593065, -26469.96396421957, -8860.209150339264, -29218.468572910857, 0.116, 0.91, 0.464, 192.0, 0.0, 0.0, 0.0, 0.0, 0.0, 0.0, 0.0, 0.0, 0.0, 1.651844402204638E9, 0.0, 2022-05-06 15:40:02.204
121.0, 36238.21273305568, 41462.888295994795, -34009.6767556282, -21305.727518287604, -21240.326314011374, -26407.066155322333, -8797.132527486388, -29136.415319015425, 0.116, 0.91, 0.464, 192.0, 0.0, 0.0, 0.0, 0.0, 0.0, 0.0, 0.0, 0.0, 0.0, 1.6518444026845684E9, 0.0, 2022-05-06 15:40:02.684
122.0, 36267.18059386976, 41473.75124380008, -34012.89540682977, -21312.254227668553, -21248.372942015285, -26386.614309145727, -8790.73992857217, -29099.84786508654, 0.116, 0.91, 0.464, 192.0, 0.0, 0.0, 0.0, 0.0, 0.0, 0.0, 0.0, 0.0, 0.0, 1.6518444026846762E9, 0.0, 2022-05-06 15:40:02.684
123.0, 36292.92980348227, 41457.367415114335, -34037.92936061971, -21347.190004252196, -21264.26503232301, -26428.121498599234, -8811.325885215509, -29146.54065925368, 0.116, 0.91, 0.464, 192.0, 0.0, 0.0, 0.0, 0.0, 0.0, 0.0, 0.0, 0.0, 0.0, 1.651844402684794E9, 0.0, 2022-05-06 15:40:02.684
124.0, 36298.18246342927, 41457.926208725716, -34042.7349856776, -21353.13556827731, -21274.748000472548, -26443.47714704003, -8815.237440495186, -29164.086778651093, 0.116, 0.91, 0.464, 192.0, 0.0, 0.0, 0.0, 0.0, 0.0, 0.0, 0.0, 0.0, 0.0, 1.6518444026848009E9, 0.0, 2022-05-06 15:40:02.684
125.0, 36263.91723917928, 41459.87081049333, -34022.663119156736, -21342.518489661037, -21267.573090502392, -26445.46645229655, -8824.803987122057, -29173.96624970034, 0.116, 0.91, 0.464, 192.0, 0.0, 0.0, 0.0, 0.0, 0.0, 0.0, 0.0, 0.0, 0.0, 1.6518444026848075E9, 0.0, 2022-05-06 15:40:02.684
126.0, 36240.02322435656, 41465.45874660716, -34008.08978177187, -21329.375663921317, -21255.749017685535, -26436.302237069875, -8805.939114801778, -29161.404569316455, 0.12, 0.908, 0.466, 192.0, 3.0, 192.0, 28.0, 96.0, 14.0, 144.0, 0.0, 0.0, 0.0, 1.6518444026848135E9, 0.0, 2022-05-06 15:40:02.684
127.0, 36252.58490474044, 41454.86401973534, -34024.69712790217, -21350.878042087323, -21271.30583182643, -26457.223469880042, -8801.26760021062, -29176.715514268344, 0.12, 0.908, 0.466, 192.0, 0.0, 0.0, 0.0, 0.0, 0.0, 0.0, 0.0, 0.0, 0.0, 1.6518444026848197E9, 0.0, 2022-05-06 15:40:02.684
128.0, 36281.776282999075, 41451.95829295615, -34030.7320989051, -21359.774036380535, -21276.44673305115, -26463.839586238813, -8789.890562282868, -29176.804921246163, 0.12, 0.908, 0.466, 192.0, 0.0, 0.0, 0.0, 0.0, 0.0, 0.0, 0.0, 0.0, 0.0, 1.6518444026848252E9, 0.0, 2022-05-06 15:40:02.684
129.0, 36280.926916709774, 41440.46949630613, -34043.74081417809, -21368.111237062363, -21294.73046001559, -26470.90273748669, -8855.470580514739, -29192.942880742896, 0.12, 0.908, 0.466, 192.0, 0.0, 0.0, 0.0, 0.0, 0.0, 0.0, 0.0, 0.0, 0.0, 1.6518444026848342E9, 0.0, 2022-05-06 15:40:02.684
130.0, 36252.24962857361, 41452.87471447882, -34027.66990991472, -21348.821681597434, -21274.9715179171, -26461.09032167081, -8853.458923513761, -29185.656212050464, 0.12, 0.908, 0.466, 192.0, 0.0, 0.0, 0.0, 0.0, 0.0, 0.0, 0.0, 0.0, 0.0, 1.65184440268484E9, 0.0, 2022-05-06 15:40:02.684
131.0, 36236.37989001034, 41471.60547633237, -34002.41243868023, -21321.17257370622, -21240.23690703355, -26431.161335845154, -8811.191774748775, -29157.023627403218, 0.12, 0.908, 0.466, 192.0, 0.0, 0.0, 0.0, 0.0, 0.0, 0.0, 0.0, 0.0, 0.0, 1.6518444026848457E9, 0.0, 2022-05-06 15:40:02.684
132.0, 36257.859916431895, 41456.85332499186, -34023.154857534755, -21346.430044940716, -21264.53325325647, -26449.959152932068, -8827.217975523232, -29168.043037419684, 0.12, 0.908, 0.466, 192.0, 0.0, 0.0, 0.0, 0.0, 0.0, 0.0, 0.0, 0.0, 0.0, 1.6518444026848607E9, 0.0, 2022-05-06 15:40:02.684
133.0, 36293.4662453492, 41446.817391731434, -34047.85353515787, -21363.730295149126, -21297.703242028147, -26476.021286966956, -8860.700888717281, -29212.16538097446, 0.12, 0.908, 0.466, 192.0, 0.0, 0.0, 0.0, 0.0, 0.0, 0.0, 0.0, 0.0, 0.0, 1.6518444026848664E9, 0.0, 2022-05-06 15:40:02.684
134.0, 36286.93953596825, 41454.238170890596, -34046.89241014629, -21356.22010901214, -21296.093916427366, -26462.878461227236, -8832.18006279231, -29197.569691845143, 0.12, 0.908, 0.466, 192.0, 0.0, 0.0, 0.0, 0.0, 0.0, 0.0, 0.0, 0.0, 0.0, 1.651844402684872E9, 0.0, 2022-05-06 15:40:02.684
135.0, 36249.52271575007, 41447.75616499855, -34031.00031983857, -21333.823661067923, -21271.50699752653, -26437.8892109262, -8797.288989697576, -29160.599906516065, 0.12, 0.908, 0.466, 192.0, 0.0, 0.0, 0.0, 0.0, 0.0, 0.0, 0.0, 0.0, 0.0, 1.6518444026848774E9, 0.0, 2022-05-06 15:40:02.684
136.0, 36218.18557002373, 41436.15560962625, -34033.8836948733, -21323.586562107394, -21271.43994229316, -26434.447042280084, -8814.969219561723, -29173.385104344503, 0.114, 0.898, 0.47400000000000003, 192.0, 3.0, 144.0, 28.0, 16.0, 14.0, 208.0, 0.0, 0.0, 0.0, 1.651844402684883E9, 0.0, 2022-05-06 15:40:02.684
137.0, 36242.37015752437, 41460.943694227186, -34030.754450649554, -21323.541858618482, -21263.25920382252, -26428.8367544218, -8790.27054193861, -29165.561993785144, 0.114, 0.898, 0.47400000000000003, 192.0, 0.0, 0.0, 0.0, 0.0, 0.0, 0.0, 0.0, 0.0, 0.0, 1.6518444026848896E9, 0.0, 2022-05-06 15:40:02.684
138.0, 36271.60623927191, 41470.4878891096, -34046.37832002382, -21338.45047217017, -21278.816017963414, -26438.872687682237, -8819.908955086346, -29170.367618843036, 0.114, 0.898, 0.47400000000000003, 192.0, 0.0, 0.0, 0.0, 0.0, 0.0, 0.0, 0.0, 0.0, 0.0, 1.6518444026848953E9, 0.0, 2022-05-06 15:40:02.684
139.0, 36266.822965958476, 41470.06320596495, -34051.47451775963, -21345.580678651415, -21284.046326165953, -26453.8930599562, -8862.489028273705, -29189.388953374502, 0.114, 0.898, 0.47400000000000003, 192.0, 0.0, 0.0, 0.0, 0.0, 0.0, 0.0, 0.0, 0.0, 0.0, 1.6518444026849005E9, 0.0, 2022-05-06 15:40:02.684
140.0, 36240.738480179134, 41467.20218267467, -34042.98085486661, -21335.902373302266, -21268.60127074734, -26434.9387806581, -8790.427004149795, -29154.184955857392, 0.114, 0.898, 0.47400000000000003, 192.0, 0.0, 0.0, 0.0, 0.0, 0.0, 0.0, 0.0, 0.0, 0.0, 1.651844402684906E9, 0.0, 2022-05-06 15:40:02.684
141.0, 36224.242892771115, 41461.413080860744, -34032.989625095084, -21325.039425496987, -21243.92494486868, -26416.52094322693, -8769.729288784181, -29133.688406191875, 0.114, 0.898, 0.47400000000000003, 192.0, 0.0, 0.0, 0.0, 0.0, 0.0, 0.0, 0.0, 0.0, 0.0, 1.6518444026849115E9, 0.0, 2022-05-06 15:40:02.684
142.0, 36254.440099530235, 41490.716217841655, -34019.60093016636, -21317.7304050601, -21230.648008662225, -26411.73766991349, -8774.981948731178, -29134.470717247812, 0.114, 0.898, 0.47400000000000003, 192.0, 0.0, 0.0, 0.0, 0.0, 0.0, 0.0, 0.0, 0.0, 0.0, 1.6518444026849172E9, 0.0, 2022-05-06 15:40:02.684
143.0, 36291.38753311486, 41490.93973528621, -34028.943959348675, -21342.31732396094, -21254.20674731812, -26433.37415854623, -8812.532879416094, -29161.672790249922, 0.114, 0.898, 0.47400000000000003, 192.0, 0.0, 0.0, 0.0, 0.0, 0.0, 0.0, 0.0, 0.0, 0.0, 1.6518444026849227E9, 0.0, 2022-05-06 15:40:02.684
144.0, 36294.44972210524, 41469.884392009306, -34037.07999433041, -21343.74783560608, -21274.323317327897, -26433.150641101678, -8831.46480696974, -29161.7845489722, 0.114, 0.898, 0.47400000000000003, 192.0, 0.0, 0.0, 0.0, 0.0, 0.0, 0.0, 0.0, 0.0, 0.0, 1.651844402684928E9, 0.0, 2022-05-06 15:40:02.684
145.0, 36262.46437578969, 41463.02240646153, -34029.994491338075, -21337.84697506988, -21274.92681442819, -26435.788146947405, -8833.431760481806, -29164.042075162182, 0.114, 0.898, 0.47400000000000003, 192.0, 0.0, 0.0, 0.0, 0.0, 0.0, 0.0, 0.0, 0.0, 0.0, 1.6518444026849334E9, 0.0, 2022-05-06 15:40:02.684
146.0, 36248.89686690532, 41492.14672948679, -33997.2268339666, -21315.964617248133, -21238.672284921682, -26416.09626008228, -8816.55619341805, -29145.132499352992, 0.114, 0.896, 0.466, 192.0, 3.0, 144.0, 28.0, 0.0, 14.0, 144.0, 0.0, 0.0, 0.0, 1.651844402684939E9, 0.0, 2022-05-06 15:40:02.684
147.0, 36284.88317547836, 41505.98245930463, -33982.29586867045, -21307.89563749977, -21218.62277014527, -26407.490838466983, -8785.21904769171, -29126.04410958816, 0.114, 0.896, 0.466, 192.0, 0.0, 0.0, 0.0, 0.0, 0.0, 0.0, 0.0, 0.0, 0.0, 1.6518444026849444E9, 0.0, 2022-05-06 15:40:02.684
148.0, 36314.499236881646, 41492.97374403164, -34012.33661321838, -21328.950980776666, -21260.286421809964, -26440.1914406051, -8813.829280594502, -29167.52894729721, 0.114, 0.896, 0.466, 192.0, 0.0, 0.0, 0.0, 0.0, 0.0, 0.0, 0.0, 0.0, 0.0, 1.65184440268495E9, 0.0, 2022-05-06 15:40:02.684
149.0, 36308.687783323265, 41478.31099966896, -34038.242285042084, -21356.98006832362, -21287.846122723357, -26467.728789774035, -8844.94290887629, -29203.269386681248, 0.114, 0.896, 0.466, 192.0, 0.0, 0.0, 0.0, 0.0, 0.0, 0.0, 0.0, 0.0, 0.0, 1.6518444026849556E9, 0.0, 2022-05-06 15:40:02.684
150.0, 36267.5605735255, 41466.41987161874, -34025.92647384721, -21348.97814380862, -21272.423419049195, -26460.91150771517, -8825.452187711262, -29189.29954639668, 0.114, 0.896, 0.466, 192.0, 0.0, 0.0, 0.0, 0.0, 0.0, 0.0, 0.0, 0.0, 0.0, 1.6518444026849613E9, 0.0, 2022-05-06 15:40:02.684
151.0, 36245.83467791494, 41473.997112989084, -34001.16074099073, -21335.61180062435, -21250.384599016263, -26439.76675746045, -8810.253001481653, -29179.330668369614, 0.114, 0.896, 0.466, 192.0, 0.0, 0.0, 0.0, 0.0, 0.0, 0.0, 0.0, 0.0, 0.0, 1.651844402684967E9, 0.0, 2022-05-06 15:40:02.684
152.0, 36270.5110037936, 41488.481043396125, -33995.617508365816, -21339.590411137393, -21242.226212290076, -26438.403301048675, -8812.532879416094, -29181.029400948217, 0.114, 0.896, 0.466, 192.0, 0.0, 0.0, 0.0, 0.0, 0.0, 0.0, 0.0, 0.0, 0.0, 1.6518444026849723E9, 0.0, 2022-05-06 15:40:02.684
153.0, 36299.05418146303, 41480.859098536865, -34013.4765521856, -21362.545652692992, -21262.052209621932, -26455.636496023715, -8827.061513312045, -29192.652308064975, 0.114, 0.896, 0.466, 192.0, 0.0, 0.0, 0.0, 0.0, 0.0, 0.0, 0.0, 0.0, 0.0, 1.6518444026849775E9, 0.0, 2022-05-06 15:40:02.684
154.0, 36295.99199247265, 41454.61815054633, -34026.865247114336, -21372.872158631344, -21276.491436540062, -26460.442121081607, -8830.302516258063, -29184.940956227896, 0.114, 0.896, 0.466, 192.0, 0.0, 0.0, 0.0, 0.0, 0.0, 0.0, 0.0, 0.0, 0.0, 1.6518444026849852E9, 0.0, 2022-05-06 15:40:02.684
155.0, 36262.37496881187, 41452.53943831199, -34019.60093016636, -21371.41929524175, -21263.72859045608, -26460.196251892598, -8824.669876655325, -29203.4929041258, 0.114, 0.896, 0.466, 192.0, 0.0, 0.0, 0.0, 0.0, 0.0, 0.0, 0.0, 0.0, 0.0, 1.651844402684991E9, 0.0, 2022-05-06 15:40:02.684
156.0, 36226.74628815011, 41451.31009236695, -34019.62328191081, -21378.527149978538, -21259.884090409767, -26462.610240293772, -8815.639771895381, -29209.21495070636, 0.11800000000000001, 0.892, 0.47400000000000003, 192.0, 3.0, 176.0, 27.0, 224.0, 14.0, 208.0, 0.0, 0.0, 0.0, 1.6518444026849961E9, 0.0, 2022-05-06 15:40:02.684
157.0, 36251.422614028765, 41470.867868765345, -34007.19571199366, -21353.448492699685, -21240.68394192266, -26447.56751627535, -8797.132527486388, -29172.803958988665, 0.11800000000000001, 0.892, 0.47400000000000003, 192.0, 0.0, 0.0, 0.0, 0.0, 0.0, 0.0, 0.0, 0.0, 0.0, 1.6518444026850028E9, 0.0, 2022-05-06 15:40:02.685
158.0, 36280.2116608872, 41485.50826138357, -34013.52125567452, -21368.625327184836, -21251.055151349923, -26444.32651332933, -8801.826393822003, -29151.458043033846, 0.11800000000000001, 0.892, 0.47400000000000003, 192.0, 0.0, 0.0, 0.0, 0.0, 0.0, 0.0, 0.0, 0.0, 0.0, 1.6518444026850083E9, 0.0, 2022-05-06 15:40:02.685
159.0, 36293.600355815935, 41490.62681086383, -34013.29773822996, -21363.70794340467, -21264.197977089643, -26440.37025456074, -8801.066434510522, -29156.57659251411, 0.11800000000000001, 0.892, 0.47400000000000003, 192.0, 0.0, 0.0, 0.0, 0.0, 0.0, 0.0, 0.0, 0.0, 0.0, 1.6518444026850145E9, 0.0, 2022-05-06 15:40:02.685
160.0, 36266.688855491746, 41477.48398512411, -34010.10143877285, -21361.361010236862, -21271.01525914851, -26443.9912371625, -8811.661161382337, -29181.074104437128, 0.11800000000000001, 0.892, 0.47400000000000003, 192.0, 0.0, 0.0, 0.0, 0.0, 0.0, 0.0, 0.0, 0.0, 0.0, 1.6518444026850204E9, 0.0, 2022-05-06 15:40:02.685
161.0, 36252.00375938461, 41480.702636325674, -33988.68846758467, -21346.184175751707, -21252.10568333932, -26428.1885538326, -8793.824469307003, -29156.263668091735, 0.11800000000000001, 0.892, 0.47400000000000003, 192.0, 0.0, 0.0, 0.0, 0.0, 0.0, 0.0, 0.0, 0.0, 0.0, 1.651844402685027E9, 0.0, 2022-05-06 15:40:02.685
162.0, 36274.89194570684, 41495.07480801044, -33982.11705471481, -21350.140434520297, -21246.607154203317, -26423.606446219263, -8781.93334125678, -29142.740862696275, 0.11800000000000001, 0.892, 0.47400000000000003, 192.0, 0.0, 0.0, 0.0, 0.0, 0.0, 0.0, 0.0, 0.0, 0.0, 1.6518444026850336E9, 0.0, 2022-05-06 15:40:02.685
163.0, 36309.02305949009, 41488.65985735176, -34014.43767719718, -21378.638908700814, -21275.68677373967, -26452.574307033337, -8808.353103202951, -29177.989563702296, 0.11800000000000001, 0.892, 0.47400000000000003, 192.0, 0.0, 0.0, 0.0, 0.0, 0.0, 0.0, 0.0, 0.0, 0.0, 1.6518444026850393E9, 0.0, 2022-05-06 15:40:02.685
164.0, 36312.48757988067, 41485.53061312802, -34032.654348928256, -21391.08883036242, -21293.031727436988, -26462.677295527137, -8847.692173444293, -29197.279119167226, 0.11800000000000001, 0.892, 0.47400000000000003, 192.0, 0.0, 0.0, 0.0, 0.0, 0.0, 0.0, 0.0, 0.0, 0.0, 1.6518444026850452E9, 0.0, 2022-05-06 15:40:02.685
165.0, 36291.05225694803, 41494.53836614351, -34006.793380593466, -21368.021830084544, -21264.175625345186, -26427.026263120923, -8820.423045208818, -29158.92352568192, 0.11800000000000001, 0.892, 0.47400000000000003, 192.0, 0.0, 0.0, 0.0, 0.0, 0.0, 0.0, 0.0, 0.0, 0.0, 1.6518444026850507E9, 0.0, 2022-05-06 15:40:02.685
166.0, 36273.21556487269, 41507.144750016305, -33982.0723512259, -21352.733236877113, -21237.375883743272, -26409.726012912513, -8808.286047969586, -29161.695141994376, 0.126, 0.896, 0.48, 192.0, 3.0, 240.0, 28.0, 0.0, 15.0, 0.0, 0.0, 0.0, 0.0, 1.6518444026850564E9, 0.0, 2022-05-06 15:40:02.685
167.0, 36292.527472082074, 41509.71520062866, -33989.60488910734, -21371.75457140858, -21234.403101730717, -26425.12636484222, -8829.207280779754, -29193.904005754473, 0.126, 0.896, 0.48, 192.0, 0.0, 0.0, 0.0, 0.0, 0.0, 0.0, 0.0, 0.0, 0.0, 1.6518444026850624E9, 0.0, 2022-05-06 15:40:02.685
168.0, 36323.66345210832, 41501.333296457924, -34014.57178766391, -21407.919693937267, -21253.290325795453, -26438.33624581531, -8832.492987214684, -29175.217947389836, 0.126, 0.896, 0.48, 192.0, 0.0, 0.0, 0.0, 0.0, 0.0, 0.0, 0.0, 0.0, 0.0, 1.6518444026850677E9, 0.0, 2022-05-06 15:40:02.685
169.0, 36316.66735609381, 41492.12437774234, -34028.385165737294, -21424.325874367463, -21275.64207025076, -26445.555859274373, -8820.423045208818, -29149.848717433062, 0.126, 0.896, 0.48, 192.0, 0.0, 0.0, 0.0, 0.0, 0.0, 0.0, 0.0, 0.0, 0.0, 1.651844402685073E9, 0.0, 2022-05-06 15:40:02.685
170.0, 36295.72377153919, 41514.274956497546, -33995.86337755482, -21383.33277503643, -21256.039590363456, -26420.36544327324, -8796.059643752533, -29134.71658643682, 0.126, 0.896, 0.48, 192.0, 0.0, 0.0, 0.0, 0.0, 0.0, 0.0, 0.0, 0.0, 0.0, 1.6518444026850784E9, 0.0, 2022-05-06 15:40:02.685
171.0, 36290.582870314465, 41541.29821554401, -33952.07631016688, -21352.822643854935, -21219.47213643457, -26390.503512680953, -8770.131620184377, -29123.026624086695, 0.126, 0.896, 0.48, 192.0, 0.0, 0.0, 0.0, 0.0, 0.0, 0.0, 0.0, 0.0, 0.0, 1.651844402685084E9, 0.0, 2022-05-06 15:40:02.685
172.0, 36301.490521608655, 41527.99892759311, -33959.98882770405, -21371.1957777972, -21230.983284829057, -26410.687137924095, -8791.678701839293, -29149.356979055046, 0.126, 0.896, 0.48, 192.0, 0.0, 0.0, 0.0, 0.0, 0.0, 0.0, 0.0, 0.0, 0.0, 1.6518444026850896E9, 0.0, 2022-05-06 15:40:02.685
173.0, 36317.53907412757, 41510.65397389579, -33992.22004320861, -21407.76323172608, -21260.77816018798, -26444.32651332933, -8805.98381829069, -29164.332647840103, 0.126, 0.896, 0.48, 192.0, 0.0, 0.0, 0.0, 0.0, 0.0, 0.0, 0.0, 0.0, 0.0, 1.6518444026850948E9, 0.0, 2022-05-06 15:40:02.685
174.0, 36316.75676307163, 41492.43730216471, -33997.49505490006, -21411.495973050114, -21267.39427654675, -26449.914449443157, -8789.242361693665, -29150.072234877618, 0.126, 0.896, 0.48, 192.0, 0.0, 0.0, 0.0, 0.0, 0.0, 0.0, 0.0, 0.0, 0.0, 1.6518444026851008E9, 0.0, 2022-05-06 15:40:02.685
175.0, 36285.57607955648, 41482.58018285992, -33983.659325082226, -21389.747725695102, -21250.183433316164, -26429.194382333088, -8776.658329565327, -29131.00619685724, 0.126, 0.896, 0.48, 192.0, 0.0, 0.0, 0.0, 0.0, 0.0, 0.0, 0.0, 0.0, 0.0, 1.6518444026851091E9, 0.0, 2022-05-06 15:40:02.685
176.0, 36272.25443986111, 41495.85711906637, -33963.721569028094, -21365.920766105744, -21223.20487775861, -26405.83680937729, -8759.134561912366, -29111.895455347953, 0.132, 0.894, 0.482, 192.0, 4.0, 32.0, 27.0, 240.0, 15.0, 16.0, 0.0, 0.0, 0.0, 1.6518444026851149E9, 0.0, 2022-05-06 15:40:02.685
177.0, 36293.53330058257, 41507.770598861054, -33963.98978996155, -21372.64864118679, -21215.71704336608, -26408.496666967472, -8758.598120045439, -29118.220999028803, 0.132, 0.894, 0.482, 192.0, 0.0, 0.0, 0.0, 0.0, 0.0, 0.0, 0.0, 0.0, 0.0, 1.65184440268512E9, 0.0, 2022-05-06 15:40:02.685
178.0, 36308.53132111208, 41478.66862758024, -33996.19865372165, -21418.804993487, -21243.813186146403, -26441.934876672614, -8795.724367585703, -29143.52317375221, 0.132, 0.894, 0.482, 192.0, 0.0, 0.0, 0.0, 0.0, 0.0, 0.0, 0.0, 0.0, 0.0, 1.6518444026851256E9, 0.0, 2022-05-06 15:40:02.685
179.0, 36295.79082677255, 41465.2352291626, -34018.05865979894, -21445.425921133272, -21255.92783164118, -26465.337153117318, -8824.200490021765, -29186.952613228874, 0.132, 0.894, 0.482, 192.0, 0.0, 0.0, 0.0, 0.0, 0.0, 0.0, 0.0, 0.0, 0.0, 1.6518444026851313E9, 0.0, 2022-05-06 15:40:02.685
180.0, 36269.59458227093, 41466.64338906329, -34011.50959867354, -21431.43372910425, -21254.25145080703, -26450.294429098896, -8797.423100164307, -29167.52894729721, 0.132, 0.894, 0.482, 192.0, 0.0, 0.0, 0.0, 0.0, 0.0, 0.0, 0.0, 0.0, 0.0, 1.6518444026851366E9, 0.0, 2022-05-06 15:40:02.685
181.0, 36248.785108183045, 41475.181755445214, -33994.45521765414, -21413.217057373175, -21255.07846535188, -26427.205077076564, -8758.329899111975, -29136.169449826415, 0.132, 0.894, 0.482, 192.0, 0.0, 0.0, 0.0, 0.0, 0.0, 0.0, 0.0, 0.0, 0.0, 1.651844402685142E9, 0.0, 2022-05-06 15:40:02.685
182.0, 36271.18155612726, 41486.64820035079, -33982.96642100411, -21403.874028190858, -21246.271878036485, -26400.27122500792, -8745.63410826136, -29108.453286701835, 0.132, 0.894, 0.482, 192.0, 0.0, 0.0, 0.0, 0.0, 0.0, 0.0, 0.0, 0.0, 0.0, 1.6518444026851475E9, 0.0, 2022-05-06 15:40:02.685
183.0, 36310.83355079097, 41486.64820035079, -34008.11213351633, -21435.077063450466, -21266.58961374636, -26415.001024603967, -8793.623303606904, -29134.224848058802, 0.132, 0.894, 0.482, 192.0, 0.0, 0.0, 0.0, 0.0, 0.0, 0.0, 0.0, 0.0, 0.0, 1.6518444026851532E9, 0.0, 2022-05-06 15:40:02.685
184.0, 36324.73633584217, 41485.821185805944, -34032.34142450588, -21457.9652497727, -21285.9238727002, -26441.13021387222, -8829.788426135592, -29171.06052292115, 0.132, 0.894, 0.482, 192.0, 0.0, 0.0, 0.0, 0.0, 0.0, 0.0, 0.0, 0.0, 0.0, 1.6518444026851585E9, 0.0, 2022-05-06 15:40:02.685
185.0, 36303.50217860963, 41500.30511621298, -34020.87497960031, -21451.505595625116, -21264.53325325647, -26438.582115004316, -8799.926495543301, -29167.081912408106, 0.13, 0.9, 0.47800000000000004, 192.0, 4.0, 16.0, 28.0, 32.0, 14.0, 240.0, 0.0, 0.0, 0.0, 1.6518444026851645E9, 0.0, 2022-05-06 15:40:02.685
186.0, 36284.12321616688, 41509.804607606486, -33996.4221711662, -21423.0071214446, -21241.600363445326, -26422.64532120768, -8791.633998350382, -29169.026514175715, 0.13, 0.9, 0.47800000000000004, 192.0, 0.0, 0.0, 0.0, 0.0, 0.0, 0.0, 0.0, 0.0, 0.0, 1.65184440268517E9, 0.0, 2022-05-06 15:40:02.685
187.0, 36293.51094883811, 41506.80947384948, -34003.082991013885, -21426.359883112895, -21252.57506997288, -26427.22742882102, -8790.047024494055, -29164.82438621812, 0.13, 0.9, 0.47800000000000004, 192.0, 0.0, 0.0, 0.0, 0.0, 0.0, 0.0, 0.0, 0.0, 0.0, 1.6518444026851752E9, 0.0, 2022-05-06 15:40:02.685
188.0, 36330.43603067828, 41512.86679659686, -34015.68937488668, -21445.984714744656, -21270.858796937322, -26450.875574454734, -8807.235515980186, -29179.285964880703, 0.13, 0.9, 0.47800000000000004, 192.0, 0.0, 0.0, 0.0, 0.0, 0.0, 0.0, 0.0, 0.0, 0.0, 1.6518444026851807E9, 0.0, 2022-05-06 15:40:02.685
189.0, 36332.2241702347, 41506.13892151581, -34039.24811354257, -21468.82819757798, -21290.617739035813, -26470.545109575407, -8845.546405976584, -29206.376279160533, 0.13, 0.9, 0.47800000000000004, 192.0, 0.0, 0.0, 0.0, 0.0, 0.0, 0.0, 0.0, 0.0, 0.0, 1.651844402685186E9, 0.0, 2022-05-06 15:40:02.685
190.0, 36297.355448884424, 41489.30805794097, -34033.30254951746, -21454.67954333777, -21286.661480267227, -26456.99995243549, -8868.188723109808, -29186.326764384125, 0.13, 0.9, 0.47800000000000004, 192.0, 0.0, 0.0, 0.0, 0.0, 0.0, 0.0, 0.0, 0.0, 0.0, 1.6518444026851916E9, 0.0, 2022-05-06 15:40:02.685
191.0, 36274.48961430664, 41471.31490365445, -33996.24335721056, -21418.134441153343, -21252.0162763615, -26431.295446311888, -8811.370588704418, -29138.33756903858, 0.13, 0.9, 0.47800000000000004, 192.0, 0.0, 0.0, 0.0, 0.0, 0.0, 0.0, 0.0, 0.0, 0.0, 1.6518444026851988E9, 0.0, 2022-05-06 15:40:02.685
192.0, 36294.27090814959, 41478.132185713315, -33983.90519427123, -21411.451269561207, -21240.013389589, -26429.954341644567, -8785.621379091905, -29137.66701670492, 0.13, 0.9, 0.47800000000000004, 192.0, 0.0, 0.0, 0.0, 0.0, 0.0, 0.0, 0.0, 0.0, 0.0, 1.651844402685207E9, 0.0, 2022-05-06 15:40:02.685
193.0, 36323.48463815268, 41476.61226709036, -34000.80311307945, -21435.747615784123, -21267.55073875794, -26456.351751846287, -8814.812757350535, -29177.609584046553, 0.13, 0.9, 0.47800000000000004, 192.0, 0.0, 0.0, 0.0, 0.0, 0.0, 0.0, 0.0, 0.0, 0.0, 1.6518444026852143E9, 0.0, 2022-05-06 15:40:02.685
194.0, 36321.6741468518, 41466.01754021854, -34023.22191276812, -21464.357848686916, -21290.327166357896, -26492.427467397152, -8858.868045671947, -29233.757166118285, 0.13, 0.9, 0.47800000000000004, 192.0, 0.0, 0.0, 0.0, 0.0, 0.0, 0.0, 0.0, 0.0, 0.0, 1.6518444026852212E9, 0.0, 2022-05-06 15:40:02.685
195.0, 36309.35833565692, 41480.63558109231, -34000.44548516816, -21439.61446757489, -21265.986116646065, -26468.66756304116, -8814.32101897252, -29206.510389627267, 0.132, 0.894, 0.47400000000000003, 192.0, 4.0, 32.0, 27.0, 240.0, 14.0, 208.0, 0.0, 0.0, 0.0, 1.6518444026852322E9, 0.0, 2022-05-06 15:40:02.685
196.0, 36293.443893604745, 41510.27399424005, -33969.19774641964, -21398.688423477226, -21228.368130727784, -26427.830925921313, -8762.062640436012, -29159.929354182408, 0.132, 0.894, 0.47400000000000003, 192.0, 0.0, 0.0, 0.0, 0.0, 0.0, 0.0, 0.0, 0.0, 0.0, 1.651844402685261E9, 0.0, 2022-05-06 15:40:02.685
197.0, 36310.632385090874, 41531.50815147259, -33972.21523192111, -21407.696176492715, -21234.53721219745, -26412.1847048026, -8764.811905004013, -29128.592208456066, 0.132, 0.894, 0.47400000000000003, 192.0, 0.0, 0.0, 0.0, 0.0, 0.0, 0.0, 0.0, 0.0, 0.0, 1.651844402685288E9, 0.0, 2022-05-06 15:40:02.685
198.0, 36341.99188256167, 41513.82792160844, -34000.66900261271, -21441.53671759805, -21262.00750613302, -26434.782318446916, -8795.79142281907, -29148.44055753238, 0.132, 0.894, 0.47400000000000003, 192.0, 0.0, 0.0, 0.0, 0.0, 0.0, 0.0, 0.0, 0.0, 0.0, 1.6518444026853442E9, 0.0, 2022-05-06 15:40:02.685
199.0, 36331.33010045649, 41467.49275535259, -34022.17138077872, -21459.39576141784, -21284.40395407724, -26456.463510568563, -8826.614478422938, -29172.468682821833, 0.132, 0.894, 0.47400000000000003, 192.0, 0.0, 0.0, 0.0, 0.0, 0.0, 0.0, 0.0, 0.0, 0.0, 1.651844402685403E9, 0.0, 2022-05-06 15:40:02.685
200.0, 36303.301012909535, 41469.817336775945, -34004.42409568121, -21449.67275257978, -21257.29128805295, -26450.38383607672, -8814.052798039056, -29174.167415400436, 0.132, 0.894, 0.47400000000000003, 192.0, 0.0, 0.0, 0.0, 0.0, 0.0, 0.0, 0.0, 0.0, 0.0, 1.65184440268541E9, 0.0, 2022-05-06 15:40:02.685
201.0, 36286.380742356865, 41493.91251729876, -33989.40372340724, -21437.021665218075, -21251.122206583288, -26435.05053938038, -8790.35994891643, -29154.654342490954, 0.132, 0.894, 0.47400000000000003, 192.0, 0.0, 0.0, 0.0, 0.0, 0.0, 0.0, 0.0, 0.0, 0.0, 1.6518444026854372E9, 0.0, 2022-05-06 15:40:02.685
202.0, 36299.389457629855, 41503.21084299217, -33992.77883681999, -21446.789377545047, -21255.50314849653, -26422.64532120768, -8785.487268625173, -29150.85454593355, 0.132, 0.894, 0.47400000000000003, 192.0, 0.0, 0.0, 0.0, 0.0, 0.0, 0.0, 0.0, 0.0, 0.0, 1.6518444026854444E9, 0.0, 2022-05-06 15:40:02.685
203.0, 36320.66831835131, 41495.36538068836, -34024.69712790217, -21481.63574715087, -21283.420477321208, -26445.28763834091, -8825.474539455718, -29181.47643583732, 0.132, 0.894, 0.47400000000000003, 192.0, 0.0, 0.0, 0.0, 0.0, 0.0, 0.0, 0.0, 0.0, 0.0, 1.6518444026854498E9, 0.0, 2022-05-06 15:40:02.685
204.0, 36324.17754223079, 41481.149671214785, -34046.89241014629, -21504.63569219538, -21298.485553084083, -26465.0465804394, -8849.256795556164, -29208.16441871696, 0.132, 0.894, 0.47400000000000003, 192.0, 0.0, 0.0, 0.0, 0.0, 0.0, 0.0, 0.0, 0.0, 0.0, 1.6518444026854553E9, 0.0, 2022-05-06 15:40:02.685
205.0, 36290.47111159219, 41471.82899377692, -34036.02946234101, -21482.01572680661, -21282.369945331808, -26434.715263213548, -8810.632981137393, -29169.518252553735, 0.138, 0.894, 0.484, 192.0, 4.0, 80.0, 27.0, 240.0, 15.0, 32.0, 0.0, 0.0, 0.0, 1.651844402685461E9, 0.0, 2022-05-06 15:40:02.685
206.0, 36272.92499219477, 41489.93390678572, -33988.80022630694, -21431.456080848704, -21244.841366391345, -26393.990384815977, -8759.089858423455, -29120.590283941066, 0.138, 0.894, 0.484, 192.0, 0.0, 0.0, 0.0, 0.0, 0.0, 0.0, 0.0, 0.0, 0.0, 1.6518444026854904E9, 0.0, 2022-05-06 15:40:02.685
207.0, 36291.38753311486, 41495.03010452153, -33981.51355761451, -21426.561048812993, -21237.15236629872, -26396.337317983787, -8781.531009856584, -29134.314255036625, 0.138, 0.894, 0.484, 192.0, 0.0, 0.0, 0.0, 0.0, 0.0, 0.0, 0.0, 0.0, 0.0, 1.651844402685577E9, 0.0, 2022-05-06 15:40:02.685
208.0, 36318.63430960588, 41482.177851459724, -34015.667023142225, -21450.38800840235, -21269.942375414656, -26432.234219579008, -8824.93809758879, -29175.687334023398, 0.138, 0.894, 0.484, 192.0, 0.0, 0.0, 0.0, 0.0, 0.0, 0.0, 0.0, 0.0, 0.0, 1.6518444026856337E9, 0.0, 2022-05-06 15:40:02.685
209.0, 36323.28347245258, 41474.80177578948, -34035.31420651844, -21464.894290553846, -21298.798477506458, -26465.292449628407, -8852.386039779907, -29208.67850883943, 0.138, 0.894, 0.484, 192.0, 0.0, 0.0, 0.0, 0.0, 0.0, 0.0, 0.0, 0.0, 0.0, 1.6518444026856427E9, 0.0, 2022-05-06 15:40:02.685
210.0, 36300.66350706381, 41492.951392287185, -34018.9303778327, -21440.03915071954, -21286.460314567128, -26448.550993031382, -8853.36951653594, -29195.6921453109, 0.138, 0.894, 0.484, 192.0, 0.0, 0.0, 0.0, 0.0, 0.0, 0.0, 0.0, 0.0, 0.0, 1.6518444026856492E9, 0.0, 2022-05-06 15:40:02.685
211.0, 36286.58190805696, 41514.56552917547, -33994.566976376416, -21410.981882927645, -21259.995849132043, -26423.69585319708, -8830.682495913803, -29174.189767144893, 0.138, 0.894, 0.484, 192.0, 0.0, 0.0, 0.0, 0.0, 0.0, 0.0, 0.0, 0.0, 0.0, 1.651844402685655E9, 0.0, 2022-05-06 15:40:02.685
212.0, 36309.09011472346, 41522.79097113502, -33980.93241225868, -21383.623347714347, -21242.49443322354, -26414.330472270307, -8805.60383863495, -29150.608676744545, 0.138, 0.894, 0.484, 192.0, 0.0, 0.0, 0.0, 0.0, 0.0, 0.0, 0.0, 0.0, 0.0, 1.651844402685661E9, 0.0, 2022-05-06 15:40:02.685
213.0, 36335.24165573617, 41513.87262509735, -34003.574729391905, -21409.61842651587, -21263.706238711624, -26443.56655401785, -8827.55325169006, -29172.82631073312, 0.138, 0.894, 0.484, 192.0, 0.0, 0.0, 0.0, 0.0, 0.0, 0.0, 0.0, 0.0, 0.0, 1.6518444026856666E9, 0.0, 2022-05-06 15:40:02.685
214.0, 36341.544847672565, 41497.153520244785, -34022.305491245446, -21415.586342285438, -21270.165892859208, -26461.447949582096, -8839.287917529096, -29192.361735387058, 0.138, 0.894, 0.484, 192.0, 0.0, 0.0, 0.0, 0.0, 0.0, 0.0, 0.0, 0.0, 0.0, 1.6518444026856751E9, 0.0, 2022-05-06 15:40:02.685
215.0, 36310.855902535426, 41486.871717795344, -34022.730174390104, -21398.867237432867, -21271.842273693357, -26455.27886811243, -8839.846711140479, -29191.57942433112, 0.146, 0.9, 0.482, 192.0, 4.0, 144.0, 28.0, 32.0, 15.0, 16.0, 0.0, 0.0, 0.0, 1.6518444026856823E9, 0.0, 2022-05-06 15:40:02.685
216.0, 36300.35058264143, 41523.79679963551, -33978.272554668496, -21353.31438223295, -21243.813186146403, -26419.672539195126, -8823.060551054545, -29178.727171269322, 0.146, 0.9, 0.482, 192.0, 0.0, 0.0, 0.0, 0.0, 0.0, 0.0, 0.0, 0.0, 0.0, 1.6518444026856887E9, 0.0, 2022-05-06 15:40:02.685
217.0, 36311.61586184691, 41515.41489546477, -33980.06069422492, -21354.163748522253, -21241.175680300676, -26419.739594428494, -8803.368664189418, -29161.7845489722, 0.146, 0.9, 0.482, 192.0, 0.0, 0.0, 0.0, 0.0, 0.0, 0.0, 0.0, 0.0, 0.0, 1.6518444026856942E9, 0.0, 2022-05-06 15:40:02.685
218.0, 36340.226094749705, 41497.30998245597, -34003.574729391905, -21372.112199319865, -21265.248509079043, -26435.22935333602, -8797.914838542323, -29155.39195005798, 0.146, 0.9, 0.482, 192.0, 0.0, 0.0, 0.0, 0.0, 0.0, 0.0, 0.0, 0.0, 0.0, 1.6518444026857035E9, 0.0, 2022-05-06 15:40:02.685
219.0, 36340.02492904961, 41482.35666541537, -34027.80402038145, -21394.66510947527, -21298.105573428344, -26456.61997277975, -8836.002211094166, -29179.77770325872, 0.146, 0.9, 0.482, 192.0, 0.0, 0.0, 0.0, 0.0, 0.0, 0.0, 0.0, 0.0, 0.0, 1.651844402685709E9, 0.0, 2022-05-06 15:40:02.685
220.0, 36308.77719030109, 41478.556868857966, -34015.84583709787, -21383.779809925534, -21291.40005009175, -26450.85322271028, -8834.83992038249, -29171.731075254807, 0.146, 0.9, 0.482, 192.0, 0.0, 0.0, 0.0, 0.0, 0.0, 0.0, 0.0, 0.0, 0.0, 1.6518444026857145E9, 0.0, 2022-05-06 15:40:02.685
221.0, 36287.006591201614, 41490.4927003971, -33995.43869441017, -21360.064609058456, -21265.0696951234, -26430.982521889513, -8801.401710677352, -29126.20057179935, 0.146, 0.9, 0.482, 192.0, 0.0, 0.0, 0.0, 0.0, 0.0, 0.0, 0.0, 0.0, 0.0, 1.65184440268572E9, 0.0, 2022-05-06 15:40:02.685
222.0, 36305.51383561061, 41514.65493615329, -33987.995563506556, -21351.23566999861, -21241.86858437879, -26420.678367695615, -8768.946977728245, -29113.86240886002, 0.146, 0.9, 0.482, 192.0, 0.0, 0.0, 0.0, 0.0, 0.0, 0.0, 0.0, 0.0, 0.0, 1.6518444026857252E9, 0.0, 2022-05-06 15:40:02.685
223.0, 36335.733394114184, 41503.00967729207, -34007.82156083841, -21372.64864118679, -21261.15813984372, -26430.446080022586, -8782.603893590438, -29150.631028489, 0.146, 0.9, 0.482, 192.0, 0.0, 0.0, 0.0, 0.0, 0.0, 0.0, 0.0, 0.0, 0.0, 1.6518444026857307E9, 0.0, 2022-05-06 15:40:02.685
224.0, 36329.2737399666, 41491.23030796413, -34035.47066872963, -21387.646661716302, -21285.320375599906, -26453.66954251165, -8809.582449147994, -29177.67663927992, 0.146, 0.9, 0.482, 192.0, 0.0, 0.0, 0.0, 0.0, 0.0, 0.0, 0.0, 0.0, 0.0, 1.6518444026857364E9, 0.0, 2022-05-06 15:40:02.685
225.0, 36295.65671630582, 41479.182717702715, -34031.24618902757, -21381.27641454654, -21274.524483027995, -26440.437309794106, -8809.291876470075, -29157.761234970243, 0.136, 0.896, 0.482, 192.0, 4.0, 64.0, 28.0, 0.0, 15.0, 16.0, 0.0, 0.0, 0.0, 1.651844402685742E9, 0.0, 2022-05-06 15:40:02.685
226.0, 36270.26513460459, 41488.10106374038, -34013.364793463326, -21349.671047886735, -21261.62752647728, -26420.164277573145, -8808.93424855879, -29145.5795342421, 0.136, 0.896, 0.482, 192.0, 0.0, 0.0, 0.0, 0.0, 0.0, 0.0, 0.0, 0.0, 0.0, 1.6518444026857471E9, 0.0, 2022-05-06 15:40:02.685
227.0, 36288.52650982458, 41494.47131091014, -34010.3249562174, -21339.813928581945, -21259.191186331653, -26412.475277480517, -8806.07322526851, -29139.879839405996, 0.136, 0.896, 0.482, 192.0, 0.0, 0.0, 0.0, 0.0, 0.0, 0.0, 0.0, 0.0, 0.0, 1.6518444026857548E9, 0.0, 2022-05-06 15:40:02.685
228.0, 36330.994824289664, 41484.48008113862, -34027.267578514526, -21354.18610026671, -21282.906387198735, -26434.894077169192, -8824.89339409988, -29162.81272921714, 0.136, 0.896, 0.482, 192.0, 0.0, 0.0, 0.0, 0.0, 0.0, 0.0, 0.0, 0.0, 0.0, 1.6518444026857605E9, 0.0, 2022-05-06 15:40:02.685
229.0, 36326.85975156543, 41478.73568281361, -34054.603761983366, -21374.772056910046, -21307.113326443832, -26462.364371104763, -8839.422027995828, -29172.91571771094, 0.136, 0.896, 0.482, 192.0, 0.0, 0.0, 0.0, 0.0, 0.0, 0.0, 0.0, 0.0, 0.0, 1.651844402685766E9, 0.0, 2022-05-06 15:40:02.685
230.0, 36300.998783230636, 41487.76578757355, -34041.86326764384, -21353.537899677503, -21289.298986112954, -26449.601525020782, -8806.095577012966, -29159.616429760033, 0.136, 0.896, 0.482, 192.0, 0.0, 0.0, 0.0, 0.0, 0.0, 0.0, 0.0, 0.0, 0.0, 1.6518444026857717E9, 0.0, 2022-05-06 15:40:02.685
231.0, 36277.12712015237, 41482.11079622636, -34021.38906972278, -21333.823661067923, -21262.231023577577, -26441.487841783506, -8807.436681680285, -29167.05956066365, 0.136, 0.896, 0.482, 192.0, 0.0, 0.0, 0.0, 0.0, 0.0, 0.0, 0.0, 0.0, 0.0, 1.6518444026857772E9, 0.0, 2022-05-06 15:40:02.685
232.0, 36286.246631890135, 41489.48687189661, -34013.20833125214, -21328.302780187463, -21264.175625345186, -26437.8892109262, -8822.144129531876, -29175.687334023398, 0.136, 0.896, 0.482, 192.0, 0.0, 0.0, 0.0, 0.0, 0.0, 0.0, 0.0, 0.0, 0.0, 1.6518444026857836E9, 0.0, 2022-05-06 15:40:02.685
233.0, 36317.53907412757, 41487.855194551375, -34023.64659591277, -21340.909164060256, -21280.78297147548, -26445.08647264081, -8822.389998720884, -29153.693217479376, 0.136, 0.896, 0.482, 192.0, 0.0, 0.0, 0.0, 0.0, 0.0, 0.0, 0.0, 0.0, 0.0, 1.6518444026857893E9, 0.0, 2022-05-06 15:40:02.685
234.0, 36330.927769056296, 41482.22255494864, -34027.334633747894, -21342.585544894406, -21285.409782577728, -26452.52960354443, -8815.997399806667, -29149.982827899796, 0.136, 0.896, 0.482, 192.0, 0.0, 0.0, 0.0, 0.0, 0.0, 0.0, 0.0, 0.0, 0.0, 1.6518444026857965E9, 0.0, 2022-05-06 15:40:02.685
235.0, 36313.73927757017, 41494.15838648777, -34007.620395138314, -21317.30572191545, -21266.947241657646, -26436.8386789368, -8789.510582627128, -29135.789470170675, 0.136, 0.888, 0.486, 192.0, 4.0, 64.0, 27.0, 192.0, 15.0, 48.0, 0.0, 0.0, 0.0, 1.651844402685804E9, 0.0, 2022-05-06 15:40:02.685
236.0, 36288.30299238003, 41504.149616259296, -33991.86241529732, -21311.069585212423, -21254.92200314069, -26428.65794046616, -8803.256905467142, -29136.974112626805, 0.136, 0.888, 0.486, 192.0, 0.0, 0.0, 0.0, 0.0, 0.0, 0.0, 0.0, 0.0, 0.0, 1.6518444026858103E9, 0.0, 2022-05-06 15:40:02.685
237.0, 36288.057123191014, 41503.38965694782, -34005.452275926145, -21324.12300397432, -21258.878261909278, -26433.105937612767, -8804.530954901094, -29140.081005106094, 0.136, 0.888, 0.486, 192.0, 0.0, 0.0, 0.0, 0.0, 0.0, 0.0, 0.0, 0.0, 0.0, 1.651844402685818E9, 0.0, 2022-05-06 15:40:02.685
238.0, 36317.4720188942, 41502.808511591975, -34024.58536917989, -21336.28235295801, -21275.060924894922, -26457.60344953578, -8819.238402752686, -29178.39189510249, 0.136, 0.888, 0.486, 192.0, 0.0, 0.0, 0.0, 0.0, 0.0, 0.0, 0.0, 0.0, 0.0, 1.6518444026858282E9, 0.0, 2022-05-06 15:40:02.685
239.0, 36327.709117854734, 41497.10881675587, -34038.44345074218, -21348.151129263777, -21288.807247734934, -26468.421693852153, -8821.205356264754, -29178.794226502687, 0.136, 0.888, 0.486, 192.0, 0.0, 0.0, 0.0, 0.0, 0.0, 0.0, 0.0, 0.0, 0.0, 1.6518444026858375E9, 0.0, 2022-05-06 15:40:02.685
240.0, 36308.59837634544, 41490.26918295255, -34044.65723570075, -21346.966486807643, -21282.727573243094, -26445.84643195229, -8797.244286208665, -29142.29382780717, 0.136, 0.888, 0.486, 192.0, 0.0, 0.0, 0.0, 0.0, 0.0, 0.0, 0.0, 0.0, 0.0, 1.6518444026858432E9, 0.0, 2022-05-06 15:40:02.685
241.0, 36287.14070166835, 41500.55098540199, -34016.53874117598, -21319.697358572168, -21254.25145080703, -26410.55302745736, -8758.486361323163, -29110.95668208083, 0.136, 0.888, 0.486, 192.0, 0.0, 0.0, 0.0, 0.0, 0.0, 0.0, 0.0, 0.0, 0.0, 1.651844403164199E9, 0.0, 2022-05-06 15:40:03.164
242.0, 36286.5148528236, 41512.173892518746, -34004.893482314765, -21322.60308535136, -21246.80831990341, -26409.234274534498, -8779.407594133329, -29120.09854556305, 0.136, 0.888, 0.486, 192.0, 0.0, 0.0, 0.0, 0.0, 0.0, 0.0, 0.0, 0.0, 0.0, 1.6518444031642923E9, 0.0, 2022-05-06 15:40:03.164
243.0, 36321.58473987398, 41510.27399424005, -34018.036308054485, -21340.32801870442, -21260.35347704333, -26429.552010244373, -8808.755434603147, -29156.263668091735, 0.136, 0.888, 0.486, 192.0, 0.0, 0.0, 0.0, 0.0, 0.0, 0.0, 0.0, 0.0, 0.0, 1.6518444031643014E9, 0.0, 2022-05-06 15:40:03.164
244.0, 36338.43795519328, 41491.45382540868, -34024.49596220207, -21346.295934473987, -21268.131884113776, -26434.312931813354, -8817.226745751708, -29149.06640637713, 0.136, 0.888, 0.486, 192.0, 0.0, 0.0, 0.0, 0.0, 0.0, 0.0, 0.0, 0.0, 0.0, 1.6518444031643088E9, 0.0, 2022-05-06 15:40:03.164
245.0, 36308.59837634544, 41474.01946473354, -34021.97021507862, -21343.501966417072, -21261.962802644113, -26437.553934759373, -8809.560097403539, -29144.70781620834, 0.14400000000000002, 0.888, 0.48, 192.0, 4.0, 128.0, 27.0, 192.0, 15.0, 0.0, 0.0, 0.0, 0.0, 1.6518444031643162E9, 0.0, 2022-05-06 15:40:03.164
246.0, 36278.40116958632, 41477.48398512411, -34009.54264516147, -21328.526297632015, -21262.163968344208, -26443.27598133993, -8810.185946248288, -29167.77481648622, 0.14400000000000002, 0.888, 0.48, 192.0, 0.0, 0.0, 0.0, 0.0, 0.0, 0.0, 0.0, 0.0, 0.0, 1.651844403164323E9, 0.0, 2022-05-06 15:40:03.164
247.0, 36300.998783230636, 41506.07186628245, -33987.146197217255, -21310.756660790048, -21256.330163041373, -26422.600617718774, -8812.734045116193, -29151.458043033846, 0.14400000000000002, 0.888, 0.48, 192.0, 0.0, 0.0, 0.0, 0.0, 0.0, 0.0, 0.0, 0.0, 0.0, 1.6518444031643317E9, 0.0, 2022-05-06 15:40:03.164
248.0, 36338.61676914892, 41513.98438381963, -34001.49601715756, -21333.75660583456, -21268.176587602688, -26441.912524928157, -8847.088676344, -29164.645572262478, 0.14400000000000002, 0.888, 0.48, 192.0, 0.0, 0.0, 0.0, 0.0, 0.0, 0.0, 0.0, 0.0, 0.0, 1.6518444031643395E9, 0.0, 2022-05-06 15:40:03.164
249.0, 36341.56719941702, 41499.61221213487, -34022.95369183466, -21351.526242676526, -21291.35534660284, -26470.52275783095, -8858.018679382645, -29187.600813818077, 0.14400000000000002, 0.888, 0.48, 192.0, 0.0, 0.0, 0.0, 0.0, 0.0, 0.0, 0.0, 0.0, 0.0, 1.6518444031643467E9, 0.0, 2022-05-06 15:40:03.164
250.0, 36317.31555668301, 41490.515052141556, -34013.2306829966, -21333.868364556834, -21286.706183756138, -26455.74825474599, -8816.243268995675, -29156.710702980843, 0.14400000000000002, 0.888, 0.48, 192.0, 0.0, 0.0, 0.0, 0.0, 0.0, 0.0, 0.0, 0.0, 0.0, 1.6518444031643543E9, 0.0, 2022-05-06 15:40:03.164
251.0, 36295.90258549483, 41506.295383727, -33979.591307591356, -21301.525390330004, -21250.67517169418, -26426.109841598256, -8784.056756980033, -29119.562103696124, 0.14400000000000002, 0.888, 0.48, 192.0, 0.0, 0.0, 0.0, 0.0, 0.0, 0.0, 0.0, 0.0, 0.0, 1.6518444031643608E9, 0.0, 2022-05-06 15:40:03.164
252.0, 36304.73152455468, 41513.716162886165, -33978.36196164632, -21299.89371298477, -21249.66934319369, -26427.965036388046, -8809.090710769977, -29154.073197135116, 0.14400000000000002, 0.888, 0.48, 192.0, 0.0, 0.0, 0.0, 0.0, 0.0, 0.0, 0.0, 0.0, 0.0, 1.6518444031643677E9, 0.0, 2022-05-06 15:40:03.164
253.0, 36336.87333308141, 41510.40810470678, -34003.284156713984, -21332.348445933872, -21272.334012071373, -26450.786167476916, -8835.309307016052, -29190.77476153073, 0.14400000000000002, 0.888, 0.48, 192.0, 0.0, 0.0, 0.0, 0.0, 0.0, 0.0, 0.0, 0.0, 0.0, 1.651844403164374E9, 0.0, 2022-05-06 15:40:03.164
254.0, 36358.42041473632, 41512.28565124103, -34011.174322506704, -21331.588486622393, -21272.803398704935, -26450.13796688771, -8808.330751458496, -29160.555203027154, 0.14400000000000002, 0.888, 0.48, 192.0, 0.0, 0.0, 0.0, 0.0, 0.0, 0.0, 0.0, 0.0, 0.0, 1.6518444031643808E9, 0.0, 2022-05-06 15:40:03.164
255.0, 36338.77323136011, 41515.817226864965, -34009.56499690592, -21332.08022500041, -21268.534215513973, -26442.583077261817, -8808.800138092058, -29153.559107012643, 0.14, 0.89, 0.47400000000000003, 192.0, 4.0, 96.0, 27.0, 208.0, 14.0, 208.0, 0.0, 0.0, 0.0, 1.6518444031643884E9, 0.0, 2022-05-06 15:40:03.164
0.0, 36318.65666135033, 41524.93673860273, -33993.4717408981, -21308.78970727798, -21236.72768315407, -26415.582169959805, -8787.230704692687, -29138.941066138872, 0.14, 0.89, 0.47400000000000003, 192.0, 0.0, 0.0, 0.0, 0.0, 0.0, 0.0, 0.0, 0.0, 0.0, 1.6518444031643956E9, 0.0, 2022-05-06 15:40:03.164
1.0, 36320.154228228836, 41517.71712514367, -34015.64467139777, -21327.341655175886, -21251.278668794475, -26417.638530449694, -8770.980986473678, -29121.752574652743, 0.14, 0.89, 0.47400000000000003, 192.0, 0.0, 0.0, 0.0, 0.0, 0.0, 0.0, 0.0, 0.0, 0.0, 1.6518444031644049E9, 0.0, 2022-05-06 15:40:03.164
2.0, 36346.1269552859, 41518.43238096624, -34042.62322695532, -21358.187062524208, -21271.64110799326, -26430.84841142278, -8790.136431471878, -29138.71754869432, 0.14, 0.89, 0.47400000000000003, 192.0, 0.0, 0.0, 0.0, 0.0, 0.0, 0.0, 0.0, 0.0, 0.0, 1.651844403164412E9, 0.0, 2022-05-06 15:40:03.164
3.0, 36347.24454250867, 41500.5956888909, -34057.28597131801, -21402.219999101162, -21282.79462847646, -26451.81434772186, -8826.793292378581, -29172.423979332925, 0.14, 0.89, 0.47400000000000003, 192.0, 0.0, 0.0, 0.0, 0.0, 0.0, 0.0, 0.0, 0.0, 0.0, 1.6518444031644192E9, 0.0, 2022-05-06 15:40:03.164
4.0, 36320.154228228836, 41489.57627887443, -34043.07026184443, -21359.79638812499, -21281.632337764782, -26447.723978486538, -8835.242251782687, -29175.419113089934, 0.14, 0.89, 0.47400000000000003, 192.0, 0.0, 0.0, 0.0, 0.0, 0.0, 0.0, 0.0, 0.0, 0.0, 1.6518444031644769E9, 0.0, 2022-05-06 15:40:03.164
5.0, 36302.45164662023, 41510.47515994014, -34006.65927012674, -21320.390262650286, -21251.189261816653, -26416.364481015742, -8790.650521594349, -29135.990635870774, 0.14, 0.89, 0.47400000000000003, 192.0, 0.0, 0.0, 0.0, 0.0, 0.0, 0.0, 0.0, 0.0, 0.0, 1.6518444031644835E9, 0.0, 2022-05-06 15:40:03.164
6.0, 36311.19117870226, 41514.297308242, -34000.06550551242, -21324.100652229867, -21246.07071233639, -26417.57147521633, -8782.536838357073, -29144.57370574161, 0.14, 0.89, 0.47400000000000003, 192.0, 0.0, 0.0, 0.0, 0.0, 0.0, 0.0, 0.0, 0.0, 0.0, 1.65184440316449E9, 0.0, 2022-05-06 15:40:03.164
7.0, 36340.00257730515, 41500.34981970189, -34020.91968308922, -21357.695324146192, -21272.334012071373, -26451.322609343842, -8800.015902521123, -29178.34719161358, 0.14, 0.89, 0.47400000000000003, 192.0, 0.0, 0.0, 0.0, 0.0, 0.0, 0.0, 0.0, 0.0, 0.0, 1.6518444031644967E9, 0.0, 2022-05-06 15:40:03.164
8.0, 36344.18235351829, 41492.68317135372, -34034.755412907056, -21366.61367018386, -21294.372832104305, -26454.831833223325, -8818.970181819222, -29162.410397816944, 0.128, 0.892, 0.47600000000000003, 192.0, 4.0, 0.0, 27.0, 224.0, 14.0, 224.0, 0.0, 0.0, 0.0, 1.6518444031645036E9, 0.0, 2022-05-06 15:40:03.164
9.0, 36325.83157132049, 41507.81530234996, -34004.31233695893, -21340.640943126793, -21258.34182004235, -26417.437364749596, -8794.562076874028, -29117.32692925059, 0.128, 0.892, 0.47600000000000003, 192.0, 0.0, 0.0, 0.0, 0.0, 0.0, 0.0, 0.0, 0.0, 0.0, 1.6518444031645117E9, 0.0, 2022-05-06 15:40:03.164
10.0, 36302.80927453152, 41515.77252337605, -33986.43094139468, -21323.430099896206, -21247.8141484039, -26401.94760584207, -8770.556303329027, -29102.8206470991, 0.128, 0.892, 0.47600000000000003, 192.0, 0.0, 0.0, 0.0, 0.0, 0.0, 0.0, 0.0, 0.0, 0.0, 1.6518444031645224E9, 0.0, 2022-05-06 15:40:03.164
11.0, 36309.80537054603, 41523.68504091323, -33993.91877578721, -21325.21823945263, -21251.949221128132, -26409.167219301133, -8788.996492504655, -29129.396871256457, 0.128, 0.892, 0.47600000000000003, 192.0, 0.0, 0.0, 0.0, 0.0, 0.0, 0.0, 0.0, 0.0, 0.0, 1.65184440316453E9, 0.0, 2022-05-06 15:40:03.164
12.0, 36325.78686783157, 41495.320677199445, -34027.55815119245, -21367.41833298425, -21273.429247549684, -26446.449929052586, -8825.072208055522, -29177.20725264636, 0.128, 0.892, 0.47600000000000003, 192.0, 0.0, 0.0, 0.0, 0.0, 0.0, 0.0, 0.0, 0.0, 0.0, 1.6518444031645389E9, 0.0, 2022-05-06 15:40:03.164
13.0, 36338.549713915556, 41487.65402885128, -34038.59991295337, -21369.7429144076, -21276.893767940255, -26455.435330323617, -8837.589184950493, -29178.146025913484, 0.128, 0.892, 0.47600000000000003, 192.0, 0.0, 0.0, 0.0, 0.0, 0.0, 0.0, 0.0, 0.0, 0.0, 1.6518444031645472E9, 0.0, 2022-05-06 15:40:03.164
14.0, 36326.25625446514, 41491.140900986305, -34034.30837801795, -21370.301708018986, -21286.661480267227, -26454.653019267684, -8841.03135359661, -29174.748560756274, 0.128, 0.892, 0.47600000000000003, 192.0, 0.0, 0.0, 0.0, 0.0, 0.0, 0.0, 0.0, 0.0, 0.0, 1.6518444031645536E9, 0.0, 2022-05-06 15:40:03.164
15.0, 36302.384591386864, 41498.67343886774, -34015.734078375586, -21363.730295149126, -21271.35053531534, -26443.27598133993, -8793.55624837354, -29163.25976410625, 0.128, 0.892, 0.47600000000000003, 192.0, 0.0, 0.0, 0.0, 0.0, 0.0, 0.0, 0.0, 0.0, 0.0, 1.6518444031645675E9, 0.0, 2022-05-06 15:40:03.164
16.0, 36314.40982990382, 41524.42264848026, -34006.59221489337, -21356.287164245507, -21262.365134044307, -26425.394585775684, -8780.748698800648, -29149.513441266234, 0.128, 0.892, 0.47600000000000003, 192.0, 0.0, 0.0, 0.0, 0.0, 0.0, 0.0, 0.0, 0.0, 0.0, 1.6518444031645763E9, 0.0, 2022-05-06 15:40:03.164
17.0, 36346.931618086295, 41512.799741363495, -34026.68643315869, -21380.47175174615, -21286.773238989503, -26437.732748715014, -8812.9799143052, -29160.398740815966, 0.128, 0.892, 0.47600000000000003, 192.0, 0.0, 0.0, 0.0, 0.0, 0.0, 0.0, 0.0, 0.0, 0.0, 1.6518444031645896E9, 0.0, 2022-05-06 15:40:03.164
18.0, 36365.23769679519, 41506.4965494271, -34047.27238980203, -21407.852638703902, -21310.533143345492, -26465.873594984245, -8843.333583275507, -29196.31799415565, 0.132, 0.894, 0.47200000000000003, 192.0, 4.0, 32.0, 27.0, 240.0, 14.0, 192.0, 0.0, 0.0, 0.0, 1.6518444031646E9, 0.0, 2022-05-06 15:40:03.164
19.0, 36349.43501346529, 41513.31383148597, -34030.620340182824, -21388.540731494515, -21294.59634954886, -26452.931934944623, -8849.212092067253, -29204.364622159555, 0.132, 0.894, 0.47200000000000003, 192.0, 0.0, 0.0, 0.0, 0.0, 0.0, 0.0, 0.0, 0.0, 0.0, 1.6518444031646073E9, 0.0, 2022-05-06 15:40:03.164
20.0, 36319.595434617455, 41509.379924461835, -33993.516444387016, -21365.160806794265, -21262.231023577577, -26423.874667152726, -8815.483309684196, -29168.691238008887, 0.132, 0.894, 0.47200000000000003, 192.0, 0.0, 0.0, 0.0, 0.0, 0.0, 0.0, 0.0, 0.0, 0.0, 1.6518444031646154E9, 0.0, 2022-05-06 15:40:03.164
21.0, 36319.41662066181, 41511.25747099608, -33978.83134827988, -21378.258929045074, -21247.992962359545, -26397.99134707348, -8768.79051551706, -29113.683594904378, 0.132, 0.894, 0.47200000000000003, 192.0, 0.0, 0.0, 0.0, 0.0, 0.0, 0.0, 0.0, 0.0, 0.0, 1.651844403164621E9, 0.0, 2022-05-06 15:40:03.164
22.0, 36350.88787685488, 41501.467406924654, -33999.48436015658, -21423.744729011625, -21271.529349270982, -26428.8367544218, -8801.178193232798, -29150.452214533358, 0.132, 0.894, 0.47200000000000003, 192.0, 0.0, 0.0, 0.0, 0.0, 0.0, 0.0, 0.0, 0.0, 0.0, 1.6518444031646273E9, 0.0, 2022-05-06 15:40:03.164
23.0, 36371.116205586935, 41493.17490973174, -34012.20250275165, -21400.99065315612, -21282.079372653887, -26449.84739420979, -8830.816606380535, -29175.597927045575, 0.132, 0.894, 0.47200000000000003, 192.0, 0.0, 0.0, 0.0, 0.0, 0.0, 0.0, 0.0, 0.0, 0.0, 1.651844403164634E9, 0.0, 2022-05-06 15:40:03.164
