%OpenBCI Raw EEG Data
%Number of channels = 8
%Sample Rate = 250 Hz
%Board = OpenBCI_GUI$BoardCytonSerial
Sample Index, EXG Channel 0, EXG Channel 1, EXG Channel 2, EXG Channel 3, EXG Channel 4, EXG Channel 5, EXG Channel 6, EXG Channel 7, Accel Channel 0, Accel Channel 1, Accel Channel 2, Other, Other, Other, Other, Other, Other, Other, Analog Channel 0, Analog Channel 1, Analog Channel 2, Timestamp, Other, Timestamp (Formatted)
0.0, 0.0, 0.0, 0.0, 0.0, 0.0, 0.0, 0.0, 0.0, 0.026000000000000002, 0.92, 0.40800000000000003, 192.0, 0.0, 208.0, 28.0, 192.0, 12.0, 192.0, 0.0, 0.0, 0.0, 1.6521697087888117E9, 0.0, 2022-05-10 10:01:48.788
1.0, 29485.70602961851, 20521.337750117513, -43386.05474067387, -30417.997290849366, -28545.904582250667, -21223.8083748589, -13938.972525474135, -37448.51499182165, 0.026000000000000002, 0.92, 0.40800000000000003, 192.0, 0.0, 0.0, 0.0, 0.0, 0.0, 0.0, 0.0, 0.0, 0.0, 1.6521697088047135E9, 0.0, 2022-05-10 10:01:48.804
2.0, 29502.760410637908, 20518.990816949703, -43398.906993735676, -30430.804840422257, -28551.358407897762, -21226.714101638092, -13929.942420714191, -37431.080631146506, 0.026000000000000002, 0.92, 0.40800000000000003, 192.0, 0.0, 0.0, 0.0, 0.0, 0.0, 0.0, 0.0, 0.0, 0.0, 1.652169709284292E9, 0.0, 2022-05-10 10:01:49.284
3.0, 29501.08402980376, 20515.593351792497, -43413.21211018707, -30445.7358057184, -28567.18344297212, -21234.9618953421, -13915.123214140322, -37451.97951221222, 0.026000000000000002, 0.92, 0.40800000000000003, 192.0, 0.0, 0.0, 0.0, 0.0, 0.0, 0.0, 0.0, 0.0, 0.0, 1.6521697092846217E9, 0.0, 2022-05-10 10:01:49.284
4.0, 29494.825541356273, 20490.02295613563, -43401.07511294784, -30432.8835526566, -28572.480806408028, -21222.847249847324, -13936.938516728702, -37448.98437845521, 0.026000000000000002, 0.92, 0.40800000000000003, 192.0, 0.0, 0.0, 0.0, 0.0, 0.0, 0.0, 0.0, 0.0, 0.0, 1.6521697092850761E9, 0.0, 2022-05-10 10:01:49.285
5.0, 29490.578709909765, 20462.61971743342, -43388.468729075044, -30419.204285049953, -28563.540108625904, -21206.686938606137, -13938.346676629386, -37448.80556449957, 0.026000000000000002, 0.92, 0.40800000000000003, 192.0, 0.0, 0.0, 0.0, 0.0, 0.0, 0.0, 0.0, 0.0, 0.0, 1.6521697092850845E9, 0.0, 2022-05-10 10:01:49.285
6.0, 29478.709933603997, 20437.22813573219, -43392.15676691017, -30415.96328210393, -28570.93853604061, -21199.71319433608, -13926.075568923423, -37454.05822444656, 0.026000000000000002, 0.92, 0.40800000000000003, 192.0, 0.0, 0.0, 0.0, 0.0, 0.0, 0.0, 0.0, 0.0, 0.0, 1.6521697092850919E9, 0.0, 2022-05-10 10:01:49.285
7.0, 29483.336744706245, 20432.578972885487, -43400.65042980319, -30419.003119349854, -28588.03762054892, -21202.99890077101, -13937.51966208454, -37445.3857475979, 0.026000000000000002, 0.92, 0.40800000000000003, 192.0, 0.0, 0.0, 0.0, 0.0, 0.0, 0.0, 0.0, 0.0, 0.0, 1.6521697092850995E9, 0.0, 2022-05-10 10:01:49.285
8.0, 29475.938317291537, 20401.331234136967, -43422.82336030285, -30442.427747539015, -28616.200818562607, -21229.552773183917, -13991.38736622183, -37480.50033813719, -0.028, 0.926, 0.43, 192.0, 255.0, 32.0, 28.0, 240.0, 13.0, 112.0, 0.0, 0.0, 0.0, 1.652169709285107E9, 0.0, 2022-05-10 10:01:49.285
9.0, 29454.994732736915, 20385.61795778489, -43438.20136048811, -30458.49865180238, -28632.316426314883, -21249.334067026863, -14009.000540852612, -37485.194204472806, -0.028, 0.926, 0.43, 192.0, 0.0, 0.0, 0.0, 0.0, 0.0, 0.0, 0.0, 0.0, 0.0, 1.6521697092851148E9, 0.0, 2022-05-10 10:01:49.285
10.0, 29448.825651267252, 20383.338079850448, -43441.040032033925, -30458.588058780202, -28626.77319368997, -21251.479834494574, -13980.211493994177, -37464.9435239963, -0.028, 0.926, 0.43, 192.0, 0.0, 0.0, 0.0, 0.0, 0.0, 0.0, 0.0, 0.0, 0.0, 1.6521697092851222E9, 0.0, 2022-05-10 10:01:49.285
11.0, 29459.800357794807, 20387.60726304141, -43416.96720325556, -30436.526887002816, -28602.990937589522, -21232.972590085577, -13955.535168115517, -37470.151480454384, -0.028, 0.926, 0.43, 192.0, 0.0, 0.0, 0.0, 0.0, 0.0, 0.0, 0.0, 0.0, 0.0, 1.6521697092851295E9, 0.0, 2022-05-10 10:01:49.285
12.0, 29457.945163005017, 20363.445027285223, -43433.283976707935, -30450.832003454212, -28625.8567721673, -21240.88510762276, -13988.548694676007, -37487.74230334071, -0.028, 0.926, 0.43, 192.0, 0.0, 0.0, 0.0, 0.0, 0.0, 0.0, 0.0, 0.0, 0.0, 1.6521697092851367E9, 0.0, 2022-05-10 10:01:49.285
13.0, 29448.11039544468, 20330.431500724735, -43454.048747306915, -30468.691047274002, -28644.408720065203, -21259.995849132043, -14003.613770438884, -37494.96191679977, -0.028, 0.926, 0.43, 192.0, 0.0, 0.0, 0.0, 0.0, 0.0, 0.0, 0.0, 0.0, 0.0, 1.6521697092851446E9, 0.0, 2022-05-10 10:01:49.285
14.0, 29435.1463836606, 20307.431555680225, -43462.31889275538, -30470.32272461924, -28651.740092246546, -21271.50699752653, -14015.72841593366, -37512.731553641745, -0.028, 0.926, 0.43, 192.0, 0.0, 0.0, 0.0, 0.0, 0.0, 0.0, 0.0, 0.0, 0.0, 1.652169709285152E9, 0.0, 2022-05-10 10:01:49.285
15.0, 29423.45642131048, 20300.591921876898, -43469.158526558705, -30473.899003732087, -28667.095740687342, -21276.670250495703, -14036.49318653264, -37521.24756827922, -0.028, 0.926, 0.43, 192.0, 0.0, 0.0, 0.0, 0.0, 0.0, 0.0, 0.0, 0.0, 0.0, 1.6521697092851593E9, 0.0, 2022-05-10 10:01:49.285
16.0, 29426.67507251204, 20294.91457878525, -43482.12253834278, -30485.007820726376, -28681.669078072202, -21278.950128430144, -14055.246300130642, -37523.2592252802, -0.028, 0.926, 0.43, 192.0, 0.0, 0.0, 0.0, 0.0, 0.0, 0.0, 0.0, 0.0, 0.0, 1.6521697092851667E9, 0.0, 2022-05-10 10:01:49.285
17.0, 29417.779078218828, 20284.25279668007, -43494.08072162637, -30497.256576687883, -28688.240490942062, -21289.008413435033, -14049.926584950279, -37530.367080016986, -0.046, 0.9440000000000001, 0.448, 192.0, 254.0, 144.0, 29.0, 128.0, 14.0, 0.0, 0.0, 0.0, 0.0, 1.6521697092851741E9, 0.0, 2022-05-10 10:01:49.285
18.0, 29417.62261600764, 20281.995270490082, -43488.80570993492, -30497.65890808808, -28690.229796198586, -21297.859704239334, -14034.034494642556, -37537.765507431686, -0.046, 0.9440000000000001, 0.448, 192.0, 0.0, 0.0, 0.0, 0.0, 0.0, 0.0, 0.0, 0.0, 0.0, 1.6521697092851815E9, 0.0, 2022-05-10 10:01:49.285
19.0, 29394.086229096203, 20272.272261652026, -43491.733788458565, -30504.252672702394, -28697.315299190916, -21304.54287583147, -14046.998506426635, -37539.799516177125, -0.046, 0.9440000000000001, 0.448, 192.0, 0.0, 0.0, 0.0, 0.0, 0.0, 0.0, 0.0, 0.0, 0.0, 1.652169709285189E9, 0.0, 2022-05-10 10:01:49.285
20.0, 29400.56823498824, 20263.66684003673, -43491.21969833609, -30501.52575987885, -28694.9236625342, -21299.8266577514, -14052.608794284915, -37531.9093503844, -0.046, 0.9440000000000001, 0.448, 192.0, 0.0, 0.0, 0.0, 0.0, 0.0, 0.0, 0.0, 0.0, 0.0, 1.6521697092851963E9, 0.0, 2022-05-10 10:01:49.285
21.0, 29419.3437003307, 20262.169273158226, -43484.35771278831, -30492.85328303019, -28686.452351385637, -21290.863608224823, -14061.750657767137, -37551.9141616719, -0.046, 0.9440000000000001, 0.448, 192.0, 0.0, 0.0, 0.0, 0.0, 0.0, 0.0, 0.0, 0.0, 0.0, 1.6521697092852037E9, 0.0, 2022-05-10 10:01:49.285
22.0, 29432.06184292577, 20259.487063823588, -43488.49278551254, -30497.122466221153, -28686.809979296922, -21285.70035525565, -14040.561204023506, -37517.783047888646, -0.046, 0.9440000000000001, 0.448, 192.0, 0.0, 0.0, 0.0, 0.0, 0.0, 0.0, 0.0, 0.0, 0.0, 1.652169709285221E9, 0.0, 2022-05-10 10:01:49.285
23.0, 29401.708173955463, 20240.91276418123, -43511.40332357923, -30520.83766708823, -28704.087877760874, -21295.222198393607, -14052.1170559069, -37526.05319333711, -0.046, 0.9440000000000001, 0.448, 192.0, 0.0, 0.0, 0.0, 0.0, 0.0, 0.0, 0.0, 0.0, 0.0, 1.6521697092852285E9, 0.0, 2022-05-10 10:01:49.285
24.0, 29362.927897325506, 20222.13729883877, -43520.23226263908, -30532.795850371822, -28714.861418588334, -21309.12498344481, -14069.171436926299, -37551.69064422735, -0.046, 0.9440000000000001, 0.448, 192.0, 0.0, 0.0, 0.0, 0.0, 0.0, 0.0, 0.0, 0.0, 0.0, 1.6521697092852356E9, 0.0, 2022-05-10 10:01:49.285
25.0, 29362.056179291747, 20207.452202731634, -43514.800788736444, -30525.71034737949, -28713.833238343388, -21312.41068987974, -14075.474628862696, -37553.769356461686, -0.046, 0.9440000000000001, 0.448, 192.0, 0.0, 0.0, 0.0, 0.0, 0.0, 0.0, 0.0, 0.0, 0.0, 1.6521697092852433E9, 0.0, 2022-05-10 10:01:49.285
26.0, 29388.967679615937, 20208.61449344331, -43512.23033812408, -30517.529608908848, -28712.02274704251, -21313.125945702308, -14073.842951517458, -37546.214466835794, -0.046, 0.9440000000000001, 0.448, 192.0, 0.0, 0.0, 0.0, 0.0, 0.0, 0.0, 0.0, 0.0, 0.0, 1.6521697092852504E9, 0.0, 2022-05-10 10:01:49.285
27.0, 29421.4447643095, 20232.642618732767, -43515.82896898138, -30512.99220478442, -28712.134505764785, -21300.966596718623, -14073.552378839539, -37553.992873906245, -0.03, 0.936, 0.462, 192.0, 255.0, 16.0, 29.0, 64.0, 14.0, 112.0, 0.0, 0.0, 0.0, 1.6521697092852576E9, 0.0, 2022-05-10 10:01:49.285
28.0, 29402.356374544666, 20213.464821990114, -43546.36145190733, -30545.37988250016, -28736.184982798695, -21341.17738499372, -14099.815678574525, -37585.77705452169, -0.03, 0.936, 0.462, 192.0, 0.0, 0.0, 0.0, 0.0, 0.0, 0.0, 0.0, 0.0, 0.0, 1.6521697092852647E9, 0.0, 2022-05-10 10:01:49.285
29.0, 29386.956022614962, 20190.08489728986, -43548.44016414168, -30549.157327313107, -28736.654369432257, -21366.47955971713, -14078.514466108618, -37585.55353707714, -0.03, 0.936, 0.462, 192.0, 0.0, 0.0, 0.0, 0.0, 0.0, 0.0, 0.0, 0.0, 0.0, 1.6521697092852721E9, 0.0, 2022-05-10 10:01:49.285
30.0, 29392.231034306413, 20187.827371099876, -43527.65304179824, -30520.010652543388, -28719.465877946124, -21347.815853096945, -14046.193843626243, -37557.278580341175, -0.03, 0.936, 0.462, 192.0, 0.0, 0.0, 0.0, 0.0, 0.0, 0.0, 0.0, 0.0, 0.0, 1.6521697092852795E9, 0.0, 2022-05-10 10:01:49.285
31.0, 29374.23788001989, 20188.386164711257, -43523.07093418491, -30508.164227982073, -28712.358023209337, -21333.55544013446, -14053.368753596396, -37540.89475165543, -0.03, 0.936, 0.462, 192.0, 0.0, 0.0, 0.0, 0.0, 0.0, 0.0, 0.0, 0.0, 0.0, 1.652169709285287E9, 0.0, 2022-05-10 10:01:49.285
32.0, 29389.928804627518, 20209.28504577697, -43525.19434990816, -30510.064126260775, -28717.454220945147, -21329.487422643593, -14083.54360861106, -37533.13869632944, -0.03, 0.936, 0.462, 192.0, 0.0, 0.0, 0.0, 0.0, 0.0, 0.0, 0.0, 0.0, 0.0, 1.6521697092852943E9, 0.0, 2022-05-10 10:01:49.285
33.0, 29403.742182700895, 20203.89827536324, -43547.83666704138, -30533.868734105676, -28740.521221223025, -21367.552443450983, -14124.760225386648, -37574.77999624968, -0.03, 0.936, 0.462, 192.0, 0.0, 0.0, 0.0, 0.0, 0.0, 0.0, 0.0, 0.0, 0.0, 1.6521697092853017E9, 0.0, 2022-05-10 10:01:49.285
34.0, 29408.25723508087, 20146.70016130211, -43554.96687352263, -30543.368225499184, -28751.25005856157, -21385.031507615033, -14112.422062447318, -37577.66337128441, -0.03, 0.936, 0.462, 192.0, 0.0, 0.0, 0.0, 0.0, 0.0, 0.0, 0.0, 0.0, 0.0, 1.6521697092853088E9, 0.0, 2022-05-10 10:01:49.285
35.0, 29388.274775537822, 20121.55444878989, -43551.10002173186, -30533.220533516473, -28747.852593404365, -21371.55340570848, -14104.330730954496, -37587.7216562893, -0.03, 0.936, 0.462, 192.0, 0.0, 0.0, 0.0, 0.0, 0.0, 0.0, 0.0, 0.0, 0.0, 1.6521697092853162E9, 0.0, 2022-05-10 10:01:49.285
36.0, 29366.995914816373, 20109.953893417587, -43539.275948915005, -30519.8541903322, -28738.286046777495, -21364.065571315954, -14092.283140693085, -37591.879080757986, -0.03, 0.936, 0.462, 192.0, 0.0, 0.0, 0.0, 0.0, 0.0, 0.0, 0.0, 0.0, 0.0, 1.6521697092853236E9, 0.0, 2022-05-10 10:01:49.285
37.0, 29366.079493293702, 20113.910152186174, -43549.49069613108, -30527.498486935914, -28744.49983173607, -21367.485388217618, -14081.867227776913, -37583.7206940318, -0.03, 0.916, 0.468, 192.0, 255.0, 16.0, 28.0, 160.0, 14.0, 160.0, 0.0, 0.0, 0.0, 1.652169709285332E9, 0.0, 2022-05-10 10:01:49.285
38.0, 29365.67716189351, 20108.92571317264, -43565.94158005018, -30542.250638276415, -28761.755378455568, -21382.70692619168, -14126.168385287332, -37602.74202856327, -0.03, 0.916, 0.468, 192.0, 0.0, 0.0, 0.0, 0.0, 0.0, 0.0, 0.0, 0.0, 0.0, 1.6521697092853396E9, 0.0, 2022-05-10 10:01:49.285
39.0, 29359.10574902365, 20094.30767229887, -43573.69763537617, -30550.453728491513, -28768.21503260315, -21396.632062987337, -14119.149937528366, -37608.218205954814, -0.03, 0.916, 0.468, 192.0, 0.0, 0.0, 0.0, 0.0, 0.0, 0.0, 0.0, 0.0, 0.0, 1.652169709285352E9, 0.0, 2022-05-10 10:01:49.285
40.0, 29371.44391196298, 20092.27366355344, -43565.89687656127, -30544.396405744126, -28758.782596443012, -21388.920711150255, -14097.26757970662, -37599.501025617246, -0.03, 0.916, 0.468, 192.0, 0.0, 0.0, 0.0, 0.0, 0.0, 0.0, 0.0, 0.0, 0.0, 1.6521697092853608E9, 0.0, 2022-05-10 10:01:49.285
41.0, 29381.77041790133, 20100.566160746355, -43558.09611774637, -30535.634521917647, -28751.183003328206, -21372.872158631344, -14090.405594158841, -37597.06468547162, -0.03, 0.916, 0.468, 192.0, 0.0, 0.0, 0.0, 0.0, 0.0, 0.0, 0.0, 0.0, 0.0, 1.6521697092853682E9, 0.0, 2022-05-10 10:01:49.285
42.0, 29372.47209220792, 20090.709041441565, -43565.49454516108, -30544.9104958666, -28765.08578837941, -21366.390152739306, -14102.0285012756, -37599.23280468379, -0.03, 0.916, 0.468, 192.0, 0.0, 0.0, 0.0, 0.0, 0.0, 0.0, 0.0, 0.0, 0.0, 1.6521697092853756E9, 0.0, 2022-05-10 10:01:49.285
43.0, 29372.740313141385, 20088.764439673956, -43568.9367138072, -30546.47511797847, -28776.485178051615, -21361.115141047852, -14100.30741695254, -37577.17163290639, -0.03, 0.916, 0.468, 192.0, 0.0, 0.0, 0.0, 0.0, 0.0, 0.0, 0.0, 0.0, 0.0, 1.6521697092853863E9, 0.0, 2022-05-10 10:01:49.285
44.0, 29353.070778020716, 20068.26789000844, -43581.073711046425, -30557.092196594742, -28785.045896177995, -21371.55340570848, -14122.390940474384, -37585.95586847733, -0.03, 0.916, 0.468, 192.0, 0.0, 0.0, 0.0, 0.0, 0.0, 0.0, 0.0, 0.0, 0.0, 1.6521697092853937E9, 0.0, 2022-05-10 10:01:49.285
45.0, 29349.963885541427, 20076.672145923632, -43581.87837384682, -30558.343894284237, -28778.385076330316, -21380.941138379712, -14138.46184473775, -37618.34354619307, -0.03, 0.916, 0.468, 192.0, 0.0, 0.0, 0.0, 0.0, 0.0, 0.0, 0.0, 0.0, 0.0, 1.652169709285401E9, 0.0, 2022-05-10 10:01:49.285
46.0, 29359.351618212655, 20082.863579137753, -43583.867679103336, -30560.132033840662, -28780.732009498122, -21391.28999606252, -14149.525958243128, -37679.609677745066, -0.03, 0.916, 0.468, 192.0, 0.0, 0.0, 0.0, 0.0, 0.0, 0.0, 0.0, 0.0, 0.0, 1.6521697092854087E9, 0.0, 2022-05-10 10:01:49.285
47.0, 29370.929821840506, 20086.998651861984, -43579.01735055654, -30551.973647114475, -28775.613460017856, -21369.7429144076, -14142.172234317331, -37650.64181693099, -0.03, 0.914, 0.47000000000000003, 192.0, 255.0, 16.0, 28.0, 144.0, 14.0, 176.0, 0.0, 0.0, 0.0, 1.6521697092854161E9, 0.0, 2022-05-10 10:01:49.285
48.0, 29360.53626066879, 20052.733427612, -43597.05520833197, -30570.302077567827, -28797.249948650595, -21364.445550971694, -14163.22757759423, -37627.01602304173, -0.03, 0.914, 0.47000000000000003, 192.0, 0.0, 0.0, 0.0, 0.0, 0.0, 0.0, 0.0, 0.0, 0.0, 1.6521697092854235E9, 0.0, 2022-05-10 10:01:49.285
49.0, 29367.62176366112, 20074.325212755826, -43590.19322278419, -30564.80354843182, -28789.94092821371, -21370.41346674126, -14155.18094959032, -37615.9295577919, -0.03, 0.914, 0.47000000000000003, 192.0, 0.0, 0.0, 0.0, 0.0, 0.0, 0.0, 0.0, 0.0, 0.0, 1.652169709285431E9, 0.0, 2022-05-10 10:01:49.285
50.0, 29369.409903217544, 20095.6934804551, -43570.2331149856, -30543.122356310174, -28761.64361973329, -21358.7905596245, -14113.584353158994, -37614.09671474656, -0.03, 0.914, 0.47000000000000003, 192.0, 0.0, 0.0, 0.0, 0.0, 0.0, 0.0, 0.0, 0.0, 0.0, 1.652169709285438E9, 0.0, 2022-05-10 10:01:49.285
51.0, 29376.674220165518, 20085.948119872584, -43553.55871362194, -30523.56457991178, -28739.291875277984, -21334.002475023568, -14078.31330040852, -37597.91405176092, -0.03, 0.914, 0.47000000000000003, 192.0, 0.0, 0.0, 0.0, 0.0, 0.0, 0.0, 0.0, 0.0, 0.0, 1.6521697092854452E9, 0.0, 2022-05-10 10:01:49.285
52.0, 29372.025057318817, 20053.761607856944, -43565.3827864388, -30530.605379415203, -28755.40748303026, -21333.98012327911, -14085.868190034413, -37586.80523476663, -0.03, 0.914, 0.47000000000000003, 192.0, 0.0, 0.0, 0.0, 0.0, 0.0, 0.0, 0.0, 0.0, 0.0, 1.6521697092854528E9, 0.0, 2022-05-10 10:01:49.285
53.0, 29351.304990208744, 20031.767491312923, -43589.455615217164, -30555.39346401614, -28784.59886128889, -21364.914937605256, -14138.685362182303, -37622.72448810631, -0.03, 0.914, 0.47000000000000003, 192.0, 0.0, 0.0, 0.0, 0.0, 0.0, 0.0, 0.0, 0.0, 0.0, 1.65216970928546E9, 0.0, 2022-05-10 10:01:49.285
54.0, 29345.94057153947, 20039.30002919436, -43589.52267045053, -30555.594629716234, -28787.07990492343, -21365.831359127922, -14140.093522082989, -37619.572892138116, -0.03, 0.914, 0.47000000000000003, 192.0, 0.0, 0.0, 0.0, 0.0, 0.0, 0.0, 0.0, 0.0, 0.0, 1.6521697092854671E9, 0.0, 2022-05-10 10:01:49.285
55.0, 29354.031903032293, 20067.932613841607, -43575.03874004349, -30534.271065505873, -28769.667895992745, -21353.716713633148, -14119.641675906381, -37591.789673780164, -0.03, 0.914, 0.47000000000000003, 192.0, 0.0, 0.0, 0.0, 0.0, 0.0, 0.0, 0.0, 0.0, 0.0, 1.6521697092854743E9, 0.0, 2022-05-10 10:01:49.285
56.0, 29377.367124243632, 20084.785829160908, -43566.99211203958, -30524.011614800886, -28757.977933642618, -21345.22305074013, -14086.136410967876, -37578.78095850718, -0.03, 0.914, 0.47000000000000003, 192.0, 0.0, 0.0, 0.0, 0.0, 0.0, 0.0, 0.0, 0.0, 0.0, 1.6521697092854817E9, 0.0, 2022-05-10 10:01:49.285
57.0, 29369.968696828928, 20057.136721269693, -43588.94152509469, -30548.37501625717, -28780.195567631195, -21377.588376711414, -14112.46676593623, -37628.91592132043, -0.018000000000000002, 0.916, 0.466, 192.0, 255.0, 112.0, 28.0, 160.0, 14.0, 144.0, 0.0, 0.0, 0.0, 1.652169709285489E9, 0.0, 2022-05-10 10:01:49.285
58.0, 29353.495461165367, 20039.098863494262, -43601.279688034025, -30560.422606518583, -28793.83013174893, -21396.632062987337, -14147.916632642346, -37647.378462240515, -0.018000000000000002, 0.916, 0.466, 192.0, 0.0, 0.0, 0.0, 0.0, 0.0, 0.0, 0.0, 0.0, 0.0, 1.6521697092854965E9, 0.0, 2022-05-10 10:01:49.285
59.0, 29358.211679245436, 20050.16297699964, -43583.174775025225, -30540.015463830885, -28781.022582176043, -21379.868254645855, -14147.782522175614, -37618.43295317089, -0.018000000000000002, 0.916, 0.466, 192.0, 0.0, 0.0, 0.0, 0.0, 0.0, 0.0, 0.0, 0.0, 0.0, 1.6521697092855036E9, 0.0, 2022-05-10 10:01:49.285
60.0, 29358.077568778703, 20062.59054691679, -43577.25156274457, -30528.99605381442, -28774.004134417075, -21371.352240008386, -14140.294687783085, -37595.030676726186, -0.018000000000000002, 0.916, 0.466, 192.0, 0.0, 0.0, 0.0, 0.0, 0.0, 0.0, 0.0, 0.0, 0.0, 1.652169709285511E9, 0.0, 2022-05-10 10:01:49.285
61.0, 29359.508080423842, 20062.992878316985, -43580.85019360187, -30528.37020496967, -28768.863233192355, -21364.087923060408, -14094.428908160795, -37561.950094932334, -0.018000000000000002, 0.916, 0.466, 192.0, 0.0, 0.0, 0.0, 0.0, 0.0, 0.0, 0.0, 0.0, 0.0, 1.6521697092855182E9, 0.0, 2022-05-10 10:01:49.285
62.0, 29374.975487586915, 20067.910262097153, -43587.645123916285, -30534.651045161612, -28766.87392793583, -21363.75264689358, -14079.989681242667, -37575.98699045026, -0.018000000000000002, 0.916, 0.466, 192.0, 0.0, 0.0, 0.0, 0.0, 0.0, 0.0, 0.0, 0.0, 0.0, 1.6521697092855256E9, 0.0, 2022-05-10 10:01:49.285
63.0, 29371.80153987426, 20053.292221223383, -43603.179586312726, -30554.879373893666, -28786.387000845316, -21385.500894248595, -14097.491097151173, -37597.01998198271, -0.018000000000000002, 0.916, 0.466, 192.0, 0.0, 0.0, 0.0, 0.0, 0.0, 0.0, 0.0, 0.0, 0.0, 1.6521697092855332E9, 0.0, 2022-05-10 10:01:49.285
64.0, 29360.871536835617, 20037.53424138239, -43603.67132469074, -30559.081501851262, -28793.8971869823, -21381.61169071337, -14102.542591398073, -37578.468034084806, -0.018000000000000002, 0.916, 0.466, 192.0, 0.0, 0.0, 0.0, 0.0, 0.0, 0.0, 0.0, 0.0, 0.0, 1.6521697092855432E9, 0.0, 2022-05-10 10:01:49.285
65.0, 29359.977467057404, 20046.519642653424, -43587.60042042738, -30540.66366442009, -28780.284974609018, -21376.873120888846, -14095.546495383562, -37597.06468547162, -0.018000000000000002, 0.916, 0.466, 192.0, 0.0, 0.0, 0.0, 0.0, 0.0, 0.0, 0.0, 0.0, 0.0, 1.6521697092855504E9, 0.0, 2022-05-10 10:01:49.285
66.0, 29348.220449473913, 20030.716959323523, -43584.47117620363, -30532.415870716082, -28779.346201341894, -21377.722487178147, -14105.403614688352, -37598.91988026141, -0.018000000000000002, 0.916, 0.466, 192.0, 0.0, 0.0, 0.0, 0.0, 0.0, 0.0, 0.0, 0.0, 0.0, 1.6521697092855577E9, 0.0, 2022-05-10 10:01:49.285
67.0, 29355.82004258872, 20030.649904090154, -43586.169908782234, -30530.538324181834, -28783.682439766224, -21377.36485926686, -14127.397731232373, -37617.315365948125, -0.002, 0.906, 0.47400000000000003, 192.0, 255.0, 240.0, 28.0, 80.0, 14.0, 208.0, 0.0, 0.0, 0.0, 1.6521697092855651E9, 0.0, 2022-05-10 10:01:49.285
68.0, 29378.350600999667, 20033.890907036177, -43593.925964108224, -30540.306036508806, -28785.671745022744, -21397.056746131988, -14125.184908531299, -37627.328947464106, -0.002, 0.906, 0.47400000000000003, 192.0, 0.0, 0.0, 0.0, 0.0, 0.0, 0.0, 0.0, 0.0, 0.0, 1.6521697092855725E9, 0.0, 2022-05-10 10:01:49.285
69.0, 29360.3797984576, 20024.369063898215, -43600.3409147669, -30550.85605989171, -28780.530843798024, -21409.327853837953, -14117.786481116591, -37598.98693549477, -0.002, 0.906, 0.47400000000000003, 192.0, 0.0, 0.0, 0.0, 0.0, 0.0, 0.0, 0.0, 0.0, 0.0, 1.6521697092855816E9, 0.0, 2022-05-10 10:01:49.285
70.0, 29350.61208613063, 20040.10469199475, -43584.04649305898, -30540.529553953358, -28763.565869756447, -21391.96054839618, -14094.473611649706, -37569.013246180206, -0.002, 0.906, 0.47400000000000003, 192.0, 0.0, 0.0, 0.0, 0.0, 0.0, 0.0, 0.0, 0.0, 0.0, 1.6521697092855892E9, 0.0, 2022-05-10 10:01:49.285
71.0, 29356.04356003327, 20039.769415827923, -43585.05232155947, -30546.38571100065, -28762.64944823378, -21395.022737386553, -14086.896370279357, -37570.08612991407, -0.002, 0.906, 0.47400000000000003, 192.0, 0.0, 0.0, 0.0, 0.0, 0.0, 0.0, 0.0, 0.0, 0.0, 1.6521697092855968E9, 0.0, 2022-05-10 10:01:49.285
72.0, 29373.72378989742, 20021.753909796942, -43600.519728722546, -30566.14465309914, -28780.352029842383, -21408.925522437756, -14105.291855966076, -37592.19200518036, -0.002, 0.906, 0.47400000000000003, 192.0, 0.0, 0.0, 0.0, 0.0, 0.0, 0.0, 0.0, 0.0, 0.0, 1.6521697092856045E9, 0.0, 2022-05-10 10:01:49.285
73.0, 29373.72378989742, 20033.15329946915, -43617.32824055293, -30584.920118441598, -28798.12166668435, -21423.52121156707, -14134.84086213599, -37616.488351403284, -0.002, 0.906, 0.47400000000000003, 192.0, 0.0, 0.0, 0.0, 0.0, 0.0, 0.0, 0.0, 0.0, 0.0, 1.6521697092856116E9, 0.0, 2022-05-10 10:01:49.285
74.0, 29364.134891526093, 20030.761662812434, -43610.80153117199, -30580.919156184096, -28792.623137548348, -21421.77777549956, -14126.615420176438, -37612.085057745586, -0.002, 0.906, 0.47400000000000003, 192.0, 0.0, 0.0, 0.0, 0.0, 0.0, 0.0, 0.0, 0.0, 0.0, 1.652169709285619E9, 0.0, 2022-05-10 10:01:49.285
75.0, 29358.85987983464, 20032.616857602225, -43595.57999319792, -30568.04455137784, -28782.654259521278, -21410.736013738635, -14104.576600143506, -37588.86159525652, -0.002, 0.906, 0.47400000000000003, 192.0, 0.0, 0.0, 0.0, 0.0, 0.0, 0.0, 0.0, 0.0, 0.0, 1.6521697092856264E9, 0.0, 2022-05-10 10:01:49.285
76.0, 29392.454551750965, 20060.176558515617, -43566.05333877246, -30536.305074251304, -28755.899221408275, -21379.912958134766, -14087.16459121282, -37565.928705445374, -0.002, 0.906, 0.47400000000000003, 192.0, 0.0, 0.0, 0.0, 0.0, 0.0, 0.0, 0.0, 0.0, 0.0, 1.6521697092856338E9, 0.0, 2022-05-10 10:01:49.285
77.0, 29394.332098285213, 20049.648886877167, -43584.82880411492, -30552.823013403777, -28774.56292802846, -21382.75162968059, -14118.837013105991, -37594.76245579272, 0.02, 0.878, 0.484, 192.0, 0.0, 160.0, 27.0, 112.0, 15.0, 32.0, 0.0, 0.0, 0.0, 1.652169709285641E9, 0.0, 2022-05-10 10:01:49.285
78.0, 29379.021153333328, 20026.67129357711, -43615.98713588562, -30587.736438242966, -28803.374326631347, -21415.675749263257, -14123.374417230418, -37643.176334282914, 0.02, 0.878, 0.484, 192.0, 0.0, 0.0, 0.0, 0.0, 0.0, 0.0, 0.0, 0.0, 0.0, 1.6521697092856488E9, 0.0, 2022-05-10 10:01:49.285
79.0, 29375.489577709388, 20034.472052392015, -43612.70142945069, -30583.601365518734, -28805.94477724371, -21406.220961358664, -14098.005187273644, -37616.7789240812, 0.02, 0.878, 0.484, 192.0, 0.0, 0.0, 0.0, 0.0, 0.0, 0.0, 0.0, 0.0, 0.0, 1.652169709285656E9, 0.0, 2022-05-10 10:01:49.285
80.0, 29381.72571441242, 20027.52065986641, -43592.45074897417, -30561.406083274615, -28784.040067677506, -21370.882853374824, -14062.823541500991, -37545.83448718006, 0.02, 0.878, 0.484, 192.0, 0.0, 0.0, 0.0, 0.0, 0.0, 0.0, 0.0, 0.0, 0.0, 1.6521697092856648E9, 0.0, 2022-05-10 10:01:49.285
81.0, 29385.413752247543, 20034.449700647558, -43578.12328077832, -30549.537306968847, -28774.674686750735, -21358.075303801932, -14068.433829359274, -37547.15324010292, 0.02, 0.878, 0.484, 192.0, 0.0, 0.0, 0.0, 0.0, 0.0, 0.0, 0.0, 0.0, 0.0, 1.652169709285672E9, 0.0, 2022-05-10 10:01:49.285
82.0, 29394.175636074026, 20045.5808693863, -43586.14755703778, -30558.321542539783, -28791.259681136573, -21360.75751313657, -14092.461954648728, -37577.77513000669, 0.02, 0.878, 0.484, 192.0, 0.0, 0.0, 0.0, 0.0, 0.0, 0.0, 0.0, 0.0, 0.0, 1.6521697092856793E9, 0.0, 2022-05-10 10:01:49.285
83.0, 29389.459417993956, 20028.079453477796, -43598.843347888396, -30573.67719098058, -28803.731954542633, -21372.55923420897, -14102.74375709817, -37598.24932792775, 0.02, 0.878, 0.484, 192.0, 0.0, 0.0, 0.0, 0.0, 0.0, 0.0, 0.0, 0.0, 0.0, 1.6521697092856867E9, 0.0, 2022-05-10 10:01:49.285
84.0, 29385.14553131408, 20040.7305408395, -43601.92788862323, -30581.746170728944, -28808.537579600525, -21392.161714096273, -14103.861344320936, -37621.383383438995, 0.02, 0.878, 0.484, 192.0, 0.0, 0.0, 0.0, 0.0, 0.0, 0.0, 0.0, 0.0, 0.0, 1.6521697092856941E9, 0.0, 2022-05-10 10:01:49.285
85.0, 29399.67416521003, 20054.387456701694, -43569.07082427393, -30550.6101907027, -28775.255832106574, -21366.188987039208, -14085.845838289957, -37594.49423485926, 0.02, 0.878, 0.484, 192.0, 0.0, 0.0, 0.0, 0.0, 0.0, 0.0, 0.0, 0.0, 0.0, 1.652169709285702E9, 0.0, 2022-05-10 10:01:49.285
86.0, 29410.15713335957, 20029.465261634025, -43560.75597533655, -30544.41875748858, -28762.247116833583, -21352.33090547692, -14074.200579428743, -37570.73433050327, 0.02, 0.878, 0.484, 192.0, 0.0, 0.0, 0.0, 0.0, 0.0, 0.0, 0.0, 0.0, 0.0, 1.6521697092857125E9, 0.0, 2022-05-10 10:01:49.285
87.0, 29392.745124428886, 20014.24372365996, -43574.18937375419, -30560.690827452047, -28776.753398985078, -21356.778902623522, -14081.286082421075, -37587.63224931148, 0.028, 0.872, 0.496, 192.0, 0.0, 224.0, 27.0, 64.0, 15.0, 128.0, 0.0, 0.0, 0.0, 1.65216970928572E9, 0.0, 2022-05-10 10:01:49.285
88.0, 29373.67908640851, 20007.24762764545, -43581.43133895771, -30567.73162695547, -28789.046858435497, -21359.08113230242, -14092.104326737444, -37606.16184546493, 0.028, 0.872, 0.496, 192.0, 0.0, 0.0, 0.0, 0.0, 0.0, 0.0, 0.0, 0.0, 0.0, 1.6521697092857287E9, 0.0, 2022-05-10 10:01:49.285
89.0, 29356.736464111385, 20011.91914223661, -43586.37107448233, -30569.229193833973, -28791.863178236865, -21372.08984757541, -14116.288914238086, -37628.93827306489, 0.028, 0.872, 0.496, 192.0, 0.0, 0.0, 0.0, 0.0, 0.0, 0.0, 0.0, 0.0, 0.0, 1.652169709285736E9, 0.0, 2022-05-10 10:01:49.285
90.0, 29362.927897325506, 20025.464299376526, -43576.37984471081, -30558.120376839684, -28779.03327691952, -21368.222995784643, -14103.548419898561, -37613.42616241291, 0.028, 0.872, 0.496, 192.0, 0.0, 0.0, 0.0, 0.0, 0.0, 0.0, 0.0, 0.0, 0.0, 1.6521697092857437E9, 0.0, 2022-05-10 10:01:49.285
91.0, 29377.970621343928, 20018.021168472907, -43566.36626319483, -30542.116527809685, -28766.091616879898, -21339.45630067066, -14067.226835158686, -37567.29216185715, 0.028, 0.872, 0.496, 192.0, 0.0, 0.0, 0.0, 0.0, 0.0, 0.0, 0.0, 0.0, 0.0, 1.652169709285751E9, 0.0, 2022-05-10 10:01:49.285
92.0, 29389.77234241633, 20015.942456238565, -43572.02125454203, -30546.609228445202, -28773.490044294602, -21339.92568730422, -14071.250149160642, -37578.177461406885, 0.028, 0.872, 0.496, 192.0, 0.0, 0.0, 0.0, 0.0, 0.0, 0.0, 0.0, 0.0, 0.0, 1.6521697092857583E9, 0.0, 2022-05-10 10:01:49.285
93.0, 29370.706304395953, 20008.476973590492, -43597.52459496553, -30572.76076945791, -28802.435553364227, -21362.36683873735, -14104.397786187863, -37599.34456340606, 0.028, 0.872, 0.496, 192.0, 0.0, 0.0, 0.0, 0.0, 0.0, 0.0, 0.0, 0.0, 0.0, 1.6521697092857656E9, 0.0, 2022-05-10 10:01:49.285
94.0, 29366.347714227166, 19993.322490849794, -43605.37005726934, -30579.041609649852, -28813.879646525344, -21374.816760398957, -14122.279181752108, -37613.604976368544, 0.028, 0.872, 0.496, 192.0, 0.0, 0.0, 0.0, 0.0, 0.0, 0.0, 0.0, 0.0, 0.0, 1.6521697092857728E9, 0.0, 2022-05-10 10:01:49.285
95.0, 29384.452627235965, 20007.046461945352, -43592.00371408507, -30567.6645717221, -28802.368498130858, -21379.80119941249, -14111.527992669106, -37621.517493905725, 0.028, 0.872, 0.496, 192.0, 0.0, 0.0, 0.0, 0.0, 0.0, 0.0, 0.0, 0.0, 0.0, 1.6521697092857833E9, 0.0, 2022-05-10 10:01:49.285
96.0, 29387.403057504067, 20018.892886506663, -43575.17285051022, -30556.17577507207, -28785.515282811557, -21374.90616737678, -14092.238437204176, -37620.534017149694, 0.028, 0.872, 0.496, 192.0, 0.0, 0.0, 0.0, 0.0, 0.0, 0.0, 0.0, 0.0, 0.0, 1.6521697092857907E9, 0.0, 2022-05-10 10:01:49.285
97.0, 29380.786941145296, 20023.653808075644, -43578.52561217852, -30557.38276927266, -28789.382134602325, -21358.745856135592, -14087.276349935097, -37571.98602819276, 0.036000000000000004, 0.854, 0.512, 192.0, 1.0, 32.0, 26.0, 176.0, 16.0, 0.0, 0.0, 0.0, 0.0, 1.652169709285798E9, 0.0, 2022-05-10 10:01:49.285
98.0, 29378.842339377683, 20012.96967422601, -43594.30594376397, -30569.72093221199, -28806.883550510833, -21356.35421947887, -14098.720443096214, -37564.07351065559, 0.036000000000000004, 0.854, 0.512, 192.0, 0.0, 0.0, 0.0, 0.0, 0.0, 0.0, 0.0, 0.0, 0.0, 1.6521697092858052E9, 0.0, 2022-05-10 10:01:49.285
99.0, 29390.442894749987, 20025.173726698606, -43574.54700166547, -30556.488699494446, -28788.353954357382, -21355.348390978383, -14080.526123109596, -37591.54380459116, 0.036000000000000004, 0.854, 0.512, 192.0, 0.0, 0.0, 0.0, 0.0, 0.0, 0.0, 0.0, 0.0, 0.0, 1.652169709285813E9, 0.0, 2022-05-10 10:01:49.285
100.0, 29404.949176901482, 20044.865613563732, -43558.16317297974, -30544.754033655412, -28773.825320461434, -21340.32801870442, -14058.39789609884, -37553.05410063912, 0.036000000000000004, 0.854, 0.512, 192.0, 0.0, 0.0, 0.0, 0.0, 0.0, 0.0, 0.0, 0.0, 0.0, 1.6521697092858205E9, 0.0, 2022-05-10 10:01:49.285
101.0, 29404.032755378816, 20056.5332241694, -43539.92414950421, -30521.66468163308, -28754.669875463234, -21301.525390330004, -14012.085081587444, -37500.41574244687, 0.036000000000000004, 0.854, 0.512, 192.0, 0.0, 0.0, 0.0, 0.0, 0.0, 0.0, 0.0, 0.0, 0.0, 1.652169709285828E9, 0.0, 2022-05-10 10:01:49.285
102.0, 29394.86854015214, 20031.45456689055, -43548.19429495267, -30518.870713576165, -28753.865212662844, -21311.918951501724, -14020.623447969372, -37513.33505074204, 0.036000000000000004, 0.854, 0.512, 192.0, 0.0, 0.0, 0.0, 0.0, 0.0, 0.0, 0.0, 0.0, 0.0, 1.6521697092858367E9, 0.0, 2022-05-10 10:01:49.285
103.0, 29395.24851980788, 20005.548895066848, -43556.82206831242, -30525.240960745927, -28767.07509363593, -21329.84505055488, -14046.931451193268, -37548.69551047034, 0.036000000000000004, 0.854, 0.512, 192.0, 0.0, 0.0, 0.0, 0.0, 0.0, 0.0, 0.0, 0.0, 0.0, 1.6521697092858443E9, 0.0, 2022-05-10 10:01:49.285
104.0, 29392.521606984334, 20008.476973590492, -43550.49652463156, -30517.529608908848, -28763.901145923275, -21319.8314690389, -14038.147215622332, -37548.82962093707, 0.036000000000000004, 0.854, 0.512, 192.0, 0.0, 0.0, 0.0, 0.0, 0.0, 0.0, 0.0, 0.0, 0.0, 1.6521697092858522E9, 0.0, 2022-05-10 10:01:49.285
105.0, 29403.742182700895, 20029.15233721165, -43526.93778597567, -30493.680297575036, -28740.320055522927, -21298.865532739823, -14023.484471259651, -37523.147466557915, 0.036000000000000004, 0.854, 0.512, 192.0, 0.0, 0.0, 0.0, 0.0, 0.0, 0.0, 0.0, 0.0, 0.0, 1.6521697092858608E9, 0.0, 2022-05-10 10:01:49.285
106.0, 29419.231941608425, 20057.047314291874, -43508.83287296687, -30471.8426432422, -28719.108250034842, -21268.891843425256, -14004.15021230581, -37489.93277429733, 0.048, 0.872, 0.526, 192.0, 1.0, 128.0, 27.0, 64.0, 16.0, 112.0, 0.0, 0.0, 0.0, 1.6521697092858694E9, 0.0, 2022-05-10 10:01:49.285
107.0, 29436.129860416637, 20076.985070346007, -43523.07093418491, -30477.922317734043, -28727.087822805384, -21269.718857970103, -14013.783814166049, -37505.42253320486, 0.048, 0.872, 0.526, 192.0, 0.0, 0.0, 0.0, 0.0, 0.0, 0.0, 0.0, 0.0, 0.0, 1.6521697092858825E9, 0.0, 2022-05-10 10:01:49.285
108.0, 29445.49524134341, 20085.657547194667, -43532.682184300684, -30481.56565208026, -28733.435718230692, -21275.21738710611, -14004.217267539176, -37505.891919838425, 0.048, 0.872, 0.526, 192.0, 0.0, 0.0, 0.0, 0.0, 0.0, 0.0, 0.0, 0.0, 0.0, 1.6521697092858899E9, 0.0, 2022-05-10 10:01:49.285
109.0, 29416.72854622943, 20054.409808446148, -43532.01163196703, -30485.723076548944, -28736.810831643445, -21289.96953844661, -14009.894610630825, -37511.63631816344, 0.048, 0.872, 0.526, 192.0, 0.0, 0.0, 0.0, 0.0, 0.0, 0.0, 0.0, 0.0, 0.0, 1.652169709285897E9, 0.0, 2022-05-10 10:01:49.285
110.0, 29404.368031545644, 20046.29612520887, -43523.674431285195, -30484.337268392715, -28731.424061229714, -21295.222198393607, -14013.068558343479, -37513.312698997586, 0.048, 0.872, 0.526, 192.0, 0.0, 0.0, 0.0, 0.0, 0.0, 0.0, 0.0, 0.0, 0.0, 1.652169709285906E9, 0.0, 2022-05-10 10:01:49.285
111.0, 29427.949121945992, 20066.39034347419, -43511.78330323497, -30471.037980441808, -28717.901255834255, -21266.567262001903, -14000.037491326035, -37514.47498970926, 0.048, 0.872, 0.526, 192.0, 0.0, 0.0, 0.0, 0.0, 0.0, 0.0, 0.0, 0.0, 0.0, 1.6521697092859154E9, 0.0, 2022-05-10 10:01:49.285
112.0, 29457.699293816007, 20079.332003513813, -43514.26434686951, -30467.640515284602, -28718.571808167915, -21256.330163041373, -13995.254218012598, -37503.924966326354, 0.048, 0.872, 0.526, 192.0, 0.0, 0.0, 0.0, 0.0, 0.0, 0.0, 0.0, 0.0, 0.0, 1.6521697092859235E9, 0.0, 2022-05-10 10:01:49.285
113.0, 29449.384444878633, 20053.180462501106, -43538.158361692236, -30490.908681262576, -28740.275352034016, -21286.437962822674, -14016.421320011774, -37530.009452105696, 0.048, 0.872, 0.526, 192.0, 0.0, 0.0, 0.0, 0.0, 0.0, 0.0, 0.0, 0.0, 0.0, 1.652169709285932E9, 0.0, 2022-05-10 10:01:49.285
114.0, 29438.96853196246, 20062.188215516595, -43534.49267560156, -30484.44902711499, -28742.197602057175, -21290.058945424433, -14012.129785076355, -37526.67904218186, 0.048, 0.872, 0.526, 192.0, 0.0, 0.0, 0.0, 0.0, 0.0, 0.0, 0.0, 0.0, 0.0, 1.6521697092859435E9, 0.0, 2022-05-10 10:01:49.285
115.0, 29451.798433279808, 20075.39809648968, -43519.271137627504, -30462.63372452661, -28730.619398429324, -21269.11536086981, -13992.683767400238, -37506.89774833891, 0.048, 0.872, 0.526, 192.0, 0.0, 0.0, 0.0, 0.0, 0.0, 0.0, 0.0, 0.0, 0.0, 1.6521697092859554E9, 0.0, 2022-05-10 10:01:49.285
116.0, 29473.054942256804, 20090.418468763648, -43506.44123631016, -30442.56185800575, -28719.68939539068, -21247.21065130361, -13975.316461958464, -37484.25543120568, 0.078, 0.904, 0.54, 192.0, 2.0, 112.0, 28.0, 64.0, 16.0, 224.0, 0.0, 0.0, 0.0, 1.6521697092859635E9, 0.0, 2022-05-10 10:01:49.285
117.0, 29489.908157576105, 20099.64973922369, -43509.25755611152, -30442.338340561193, -28723.35508148135, -21243.25439253502, -13983.184276006732, -37480.20976545927, 0.078, 0.904, 0.54, 192.0, 0.0, 0.0, 0.0, 0.0, 0.0, 0.0, 0.0, 0.0, 0.0, 1.6521697092859719E9, 0.0, 2022-05-10 10:01:49.285
118.0, 29481.079218516257, 20086.75278267298, -43523.92030047421, -30455.03413141181, -28742.756395668555, -21250.898689138736, -14003.569066949973, -37511.211635018786, 0.078, 0.904, 0.54, 192.0, 0.0, 0.0, 0.0, 0.0, 0.0, 0.0, 0.0, 0.0, 0.0, 1.65216970928598E9, 0.0, 2022-05-10 10:01:49.285
119.0, 29474.88778530214, 20081.142494814696, -43528.83768425437, -30461.762006492856, -28744.946866625174, -21263.706238711624, -14009.514630975083, -37518.252434522205, 0.078, 0.904, 0.54, 192.0, 0.0, 0.0, 0.0, 0.0, 0.0, 0.0, 0.0, 0.0, 0.0, 1.652169709285988E9, 0.0, 2022-05-10 10:01:49.285
120.0, 29464.427168897055, 20091.044317608397, -43521.66277428422, -30457.023436668333, -28736.900238621267, -21265.226157334586, -13990.649758654805, -37490.93860279782, 0.078, 0.904, 0.54, 192.0, 0.0, 0.0, 0.0, 0.0, 0.0, 0.0, 0.0, 0.0, 0.0, 1.652169709285999E9, 0.0, 2022-05-10 10:01:49.285
121.0, 29463.48839562993, 20073.20762553306, -43521.863939984316, -30455.972904678933, -28736.25203803206, -21261.962802644113, -13969.460304911174, -37487.295268451606, 0.078, 0.904, 0.54, 192.0, 0.0, 0.0, 0.0, 0.0, 0.0, 0.0, 0.0, 0.0, 0.0, 1.652169709286008E9, 0.0, 2022-05-10 10:01:49.286
122.0, 29483.582613895254, 20073.83347437781, -43521.95334696214, -30453.82713721122, -28740.54357296748, -21260.308773554418, -13976.009366036578, -37500.68396338033, 0.078, 0.904, 0.54, 192.0, 0.0, 0.0, 0.0, 0.0, 0.0, 0.0, 0.0, 0.0, 0.0, 1.652169709286017E9, 0.0, 2022-05-10 10:01:49.286
123.0, 29478.329953948254, 20080.15901805866, -43534.60443432384, -30463.773663493834, -28752.88173590681, -21272.512826027018, -13993.667244156271, -37516.1066670545, 0.078, 0.904, 0.54, 192.0, 0.0, 0.0, 0.0, 0.0, 0.0, 0.0, 0.0, 0.0, 0.0, 1.652169709764916E9, 0.0, 2022-05-10 10:01:49.764
124.0, 29455.039436225827, 20086.97630011753, -43532.74923953405, -30467.79697749579, -28751.987666128596, -21285.163913388722, -13992.169677277767, -37512.08335305254, 0.078, 0.904, 0.54, 192.0, 0.0, 0.0, 0.0, 0.0, 0.0, 0.0, 0.0, 0.0, 0.0, 1.652169709764937E9, 0.0, 2022-05-10 10:01:49.764
125.0, 29459.84506128372, 20084.65171869418, -43517.14772190425, -30456.08466340121, -28746.5338404815, -21279.754791230534, -13976.009366036578, -37490.80449233109, 0.078, 0.904, 0.54, 192.0, 0.0, 0.0, 0.0, 0.0, 0.0, 0.0, 0.0, 0.0, 0.0, 1.652169709764947E9, 0.0, 2022-05-10 10:01:49.764
126.0, 29481.16862549408, 20097.951006645086, -43509.43637006717, -30446.473413285425, -28738.956599111152, -21265.11439861231, -13970.354374689387, -37478.89101253641, 0.09, 0.918, 0.548, 192.0, 2.0, 208.0, 28.0, 176.0, 17.0, 32.0, 0.0, 0.0, 0.0, 1.6521697097649655E9, 0.0, 2022-05-10 10:01:49.764
127.0, 29487.717686619486, 20090.865503652753, -43520.23226263908, -30458.811576224754, -28750.87007890583, -21272.602233004836, -13987.207590008687, -37486.60236437349, 0.09, 0.918, 0.548, 192.0, 0.0, 0.0, 0.0, 0.0, 0.0, 0.0, 0.0, 0.0, 0.0, 1.6521697097649946E9, 0.0, 2022-05-10 10:01:49.764
128.0, 29485.147236007124, 20060.467131193534, -43539.74533554856, -30486.70655330498, -28767.253907591574, -21304.095840942366, -14001.065671570977, -37512.99977457521, 0.09, 0.918, 0.548, 192.0, 0.0, 0.0, 0.0, 0.0, 0.0, 0.0, 0.0, 0.0, 0.0, 1.652169709765066E9, 0.0, 2022-05-10 10:01:49.765
129.0, 29469.858642799696, 20050.811177588843, -43560.57716138091, -30506.241977958918, -28777.17808212973, -21327.721634831625, -14016.980113623156, -37531.551722473116, 0.09, 0.918, 0.548, 192.0, 0.0, 0.0, 0.0, 0.0, 0.0, 0.0, 0.0, 0.0, 0.0, 1.652169709765074E9, 0.0, 2022-05-10 10:01:49.765
130.0, 29470.171567222067, 20064.44574170658, -43545.08740247338, -30491.065143473763, -28769.17615761473, -21313.930608502702, -14007.793546652025, -37511.971594330265, 0.09, 0.918, 0.548, 192.0, 0.0, 0.0, 0.0, 0.0, 0.0, 0.0, 0.0, 0.0, 0.0, 1.6521697097650816E9, 0.0, 2022-05-10 10:01:49.765
131.0, 29479.671058615575, 20087.579797217822, -43537.599568080856, -30480.55982357977, -28767.902108180777, -21306.82275376591, -13999.143421547822, -37508.44001870633, 0.09, 0.918, 0.548, 192.0, 0.0, 0.0, 0.0, 0.0, 0.0, 0.0, 0.0, 0.0, 0.0, 1.6521697097650888E9, 0.0, 2022-05-10 10:01:49.765
132.0, 29477.413532425588, 20083.534131471413, -43554.363376422334, -30492.98739349692, -28785.671745022744, -21316.657521326248, -14012.82268915447, -37503.455579692796, 0.09, 0.918, 0.548, 192.0, 0.0, 0.0, 0.0, 0.0, 0.0, 0.0, 0.0, 0.0, 0.0, 1.652169709765096E9, 0.0, 2022-05-10 10:01:49.765
133.0, 29488.522349419876, 20070.54776794288, -43557.313806690436, -30499.581158111236, -28797.026431206043, -21326.380530164308, -14030.145291107332, -37537.1620103314, 0.09, 0.918, 0.548, 192.0, 0.0, 0.0, 0.0, 0.0, 0.0, 0.0, 0.0, 0.0, 0.0, 1.6521697097651055E9, 0.0, 2022-05-10 10:01:49.765
134.0, 29491.74100062144, 20068.960794086554, -43552.99992001056, -30493.50148361939, -28798.70281204019, -21321.88782952879, -14030.882898674357, -37542.593484234036, 0.09, 0.918, 0.548, 192.0, 0.0, 0.0, 0.0, 0.0, 0.0, 0.0, 0.0, 0.0, 0.0, 1.652169709765113E9, 0.0, 2022-05-10 10:01:49.765
135.0, 29457.431072882544, 20078.30382326887, -43545.89206527377, -30488.74056205041, -28793.204282904182, -21317.88686727129, -14014.029683355056, -37516.866626365976, 0.09, 0.918, 0.548, 192.0, 0.0, 0.0, 0.0, 0.0, 0.0, 0.0, 0.0, 0.0, 0.0, 1.652169709765122E9, 0.0, 2022-05-10 10:01:49.765
136.0, 29452.133709446636, 20057.270831736427, -43544.19333269517, -30488.427637628036, -28798.18872191772, -21317.328073659908, -14009.49227923063, -37509.445847206815, 0.10200000000000001, 0.892, 0.55, 192.0, 3.0, 48.0, 27.0, 224.0, 17.0, 48.0, 0.0, 0.0, 0.0, 1.65216970976513E9, 0.0, 2022-05-10 10:01:49.765
137.0, 29468.674000343563, 20048.598354887767, -43552.23996069908, -30495.222567942452, -28808.582283089436, -21313.528277102505, -14022.858622414902, -37517.693640910824, 0.10200000000000001, 0.892, 0.55, 192.0, 0.0, 0.0, 0.0, 0.0, 0.0, 0.0, 0.0, 0.0, 0.0, 1.6521697097651374E9, 0.0, 2022-05-10 10:01:49.765
138.0, 29458.54866010531, 20040.48467165049, -43580.06788254594, -30521.932902566543, -28833.9068095573, -21334.449509912673, -14048.473721560684, -37561.458356554314, 0.10200000000000001, 0.892, 0.55, 192.0, 0.0, 0.0, 0.0, 0.0, 0.0, 0.0, 0.0, 0.0, 0.0, 1.6521697097651465E9, 0.0, 2022-05-10 10:01:49.765
139.0, 29451.97724723545, 20038.718883838523, -43580.76078662405, -30524.033966545343, -28829.86114381089, -21346.56415540745, -14050.708896006216, -37563.93940018885, 0.10200000000000001, 0.892, 0.55, 192.0, 0.0, 0.0, 0.0, 0.0, 0.0, 0.0, 0.0, 0.0, 0.0, 1.6521697097651584E9, 0.0, 2022-05-10 10:01:49.765
140.0, 29463.421340396566, 20045.804386830856, -43561.359472436845, -30502.33042267924, -28817.612387849378, -21324.16770746323, -14030.525270763073, -37540.29125455514, 0.10200000000000001, 0.892, 0.55, 192.0, 0.0, 0.0, 0.0, 0.0, 0.0, 0.0, 0.0, 0.0, 0.0, 1.6521697097651684E9, 0.0, 2022-05-10 10:01:49.765
141.0, 29458.325142660757, 20035.16495647013, -43562.00767302605, -30504.006803513388, -28831.001082778108, -21327.967504020635, -14035.576765009971, -37549.00843489271, 0.10200000000000001, 0.892, 0.55, 192.0, 0.0, 0.0, 0.0, 0.0, 0.0, 0.0, 0.0, 0.0, 0.0, 1.6521697097651768E9, 0.0, 2022-05-10 10:01:49.765
142.0, 29469.07633174376, 20021.15041269665, -43579.44203370119, -30515.808524585787, -28848.927181831263, -21329.17449822122, -14049.54660529454, -37546.6615017249, 0.10200000000000001, 0.892, 0.55, 192.0, 0.0, 0.0, 0.0, 0.0, 0.0, 0.0, 0.0, 0.0, 0.0, 1.652169709765185E9, 0.0, 2022-05-10 10:01:49.765
143.0, 29485.996602296425, 20005.39243285566, -43608.25343230408, -30542.38474874315, -28875.503405988624, -21348.46405368615, -14078.246245175153, -37572.90244971543, 0.10200000000000001, 0.892, 0.55, 192.0, 0.0, 0.0, 0.0, 0.0, 0.0, 0.0, 0.0, 0.0, 0.0, 1.6521697097651944E9, 0.0, 2022-05-10 10:01:49.765
144.0, 29456.134671704134, 19982.817170955797, -43636.48368555113, -30580.33801082826, -28898.61510975541, -21382.52811223604, -14111.84091709148, -37632.87218008902, 0.10200000000000001, 0.892, 0.55, 192.0, 0.0, 0.0, 0.0, 0.0, 0.0, 0.0, 0.0, 0.0, 0.0, 1.6521697097652037E9, 0.0, 2022-05-10 10:01:49.765
145.0, 29416.125049129136, 19980.134961621163, -43659.438927106734, -30612.748040288454, -28923.29143563407, -21400.38715605583, -14130.974010345222, -37643.48925870529, 0.10200000000000001, 0.892, 0.55, 192.0, 0.0, 0.0, 0.0, 0.0, 0.0, 0.0, 0.0, 0.0, 0.0, 1.6521697097652135E9, 0.0, 2022-05-10 10:01:49.765
146.0, 29422.58470327672, 19970.926042905576, -43684.048197752025, -30636.932627789098, -28939.116470708428, -21433.42303436077, -14146.84374890849, -37668.32204679514, 0.096, 0.872, 0.538, 192.0, 3.0, 0.0, 27.0, 64.0, 16.0, 208.0, 0.0, 0.0, 0.0, 1.6521697097652214E9, 0.0, 2022-05-10 10:01:49.765
147.0, 29394.86854015214, 19940.348856490717, -43720.10156155843, -30673.41067474016, -28968.01727628914, -21470.77279934559, -14188.462697084273, -37714.23252990634, 0.096, 0.872, 0.538, 192.0, 0.0, 0.0, 0.0, 0.0, 0.0, 0.0, 0.0, 0.0, 0.0, 1.652169709765231E9, 0.0, 2022-05-10 10:01:49.765
148.0, 29357.138795511582, 19874.858245236665, -43746.074288615506, -30696.880006418232, -29001.768410416655, -21480.562863417013, -14219.017531754678, -37736.76308831729, 0.096, 0.872, 0.538, 192.0, 0.0, 0.0, 0.0, 0.0, 0.0, 0.0, 0.0, 0.0, 0.0, 1.6521697097652397E9, 0.0, 2022-05-10 10:01:49.765
149.0, 29328.193286441958, 19821.929314366498, -43761.67580624531, -30713.129724637238, -29024.83541069453, -21509.73188993119, -14228.874651059468, -37752.23049548036, 0.096, 0.872, 0.538, 192.0, 0.0, 0.0, 0.0, 0.0, 0.0, 0.0, 0.0, 0.0, 0.0, 1.652169709765247E9, 0.0, 2022-05-10 10:01:49.765
150.0, 29331.680158576986, 19830.512384237336, -43751.50576251814, -30709.17346586865, -29013.570131489058, -21521.60066623696, -14206.746424048713, -37747.9613122894, 0.096, 0.872, 0.538, 192.0, 0.0, 0.0, 0.0, 0.0, 0.0, 0.0, 0.0, 0.0, 0.0, 1.6521697097652612E9, 0.0, 2022-05-10 10:01:49.765
151.0, 29347.14756574006, 19865.872843965633, -43736.15011407735, -30699.40575354168, -29006.12700058544, -21513.82225916651, -14220.24687769972, -37727.9565010019, 0.096, 0.872, 0.538, 192.0, 0.0, 0.0, 0.0, 0.0, 0.0, 0.0, 0.0, 0.0, 0.0, 1.6521697097652683E9, 0.0, 2022-05-10 10:01:49.765
152.0, 29343.884211049583, 19856.59687001668, -43737.15594257783, -30704.345489066305, -29010.910273898873, -21519.253733069152, -14251.829892615067, -37753.95157980342, 0.096, 0.872, 0.538, 192.0, 0.0, 0.0, 0.0, 0.0, 0.0, 0.0, 0.0, 0.0, 0.0, 1.6521697097652771E9, 0.0, 2022-05-10 10:01:49.765
153.0, 29319.65492006003, 19837.709645951945, -43755.931407920296, -30725.154963154193, -29020.253303081194, -21531.234268097196, -14283.68112846388, -37768.65902765501, 0.096, 0.872, 0.538, 192.0, 0.0, 0.0, 0.0, 0.0, 0.0, 0.0, 0.0, 0.0, 0.0, 1.6521697097652922E9, 0.0, 2022-05-10 10:01:49.765
154.0, 29310.580111811178, 19847.097378623173, -43757.741899221175, -30732.84396324682, -29026.400032806403, -21540.532593790602, -14275.321576037595, -37779.1196440601, 0.096, 0.872, 0.538, 192.0, 0.0, 0.0, 0.0, 0.0, 0.0, 0.0, 0.0, 0.0, 0.0, 1.6521697097653008E9, 0.0, 2022-05-10 10:01:49.765
155.0, 29306.6685565315, 19853.64643974858, -43733.17733206479, -30716.214265372073, -29010.798515176597, -21537.224535611218, -14231.780377838657, -37764.45689969741, 0.096, 0.872, 0.538, 192.0, 0.0, 0.0, 0.0, 0.0, 0.0, 0.0, 0.0, 0.0, 0.0, 1.652169709765308E9, 0.0, 2022-05-10 10:01:49.765
156.0, 29309.015489699304, 19843.54345125478, -43723.61078543792, -30706.871236189752, -29006.395221518902, -21522.137108103885, -14220.76096782219, -37753.75041410332, 0.07, 0.864, 0.508, 192.0, 2.0, 48.0, 27.0, 0.0, 15.0, 224.0, 0.0, 0.0, 0.0, 1.6521697097653153E9, 0.0, 2022-05-10 10:01:49.765
157.0, 29317.218579914403, 19827.98663711389, -43749.91878866182, -30729.379442856247, -29028.456393296292, -21528.060320384542, -14246.085494290053, -37776.32567600318, 0.07, 0.864, 0.508, 192.0, 0.0, 0.0, 0.0, 0.0, 0.0, 0.0, 0.0, 0.0, 0.0, 1.6521697097653248E9, 0.0, 2022-05-10 10:01:49.765
158.0, 29306.109762920114, 19825.125613823606, -43767.308445848044, -30750.18891694414, -29050.539916818136, -21539.236192612196, -14281.222436573797, -37806.58993799567, 0.07, 0.864, 0.508, 192.0, 0.0, 0.0, 0.0, 0.0, 0.0, 0.0, 0.0, 0.0, 0.0, 1.6521697097653332E9, 0.0, 2022-05-10 10:01:49.765
159.0, 29299.47129481689, 19835.07214010622, -43759.73120447769, -30741.65055056221, -29039.140527145926, -21524.75226220516, -14261.06116307511, -37793.491815744856, 0.07, 0.864, 0.508, 192.0, 0.0, 0.0, 0.0, 0.0, 0.0, 0.0, 0.0, 0.0, 0.0, 1.6521697097653425E9, 0.0, 2022-05-10 10:01:49.765
160.0, 29278.572413751175, 19824.723282423412, -43758.88183818839, -30737.09079469333, -29032.479707298247, -21514.604570222447, -14248.968869324788, -37771.117719545095, 0.07, 0.864, 0.508, 192.0, 0.0, 0.0, 0.0, 0.0, 0.0, 0.0, 0.0, 0.0, 0.0, 1.6521697097653496E9, 0.0, 2022-05-10 10:01:49.765
161.0, 29286.88726268855, 19844.079893121707, -43729.73516341867, -30709.531093779933, -29012.31843379956, -21486.8213518645, -14223.666694601381, -37743.17803897596, 0.07, 0.864, 0.508, 192.0, 0.0, 0.0, 0.0, 0.0, 0.0, 0.0, 0.0, 0.0, 0.0, 1.6521697097653568E9, 0.0, 2022-05-10 10:01:49.765
162.0, 29285.166178365493, 19859.703762495967, -43745.09081185947, -30727.859524233285, -29030.803326464098, -21493.191599034264, -14269.554825968127, -37787.345086019646, 0.07, 0.864, 0.508, 192.0, 0.0, 0.0, 0.0, 0.0, 0.0, 0.0, 0.0, 0.0, 0.0, 1.6521697097653651E9, 0.0, 2022-05-10 10:01:49.765
163.0, 29295.492684303845, 19836.145023840076, -43746.09664035996, -30726.31725386587, -29028.858724696485, -21478.953537816233, -14285.670433720403, -37784.30524877373, 0.07, 0.864, 0.508, 192.0, 0.0, 0.0, 0.0, 0.0, 0.0, 0.0, 0.0, 0.0, 0.0, 1.6521697097653737E9, 0.0, 2022-05-10 10:01:49.765
164.0, 29266.949506634417, 19805.277264747296, -43751.84103868497, -30731.905189979698, -29024.32132057206, -21483.468590196204, -14245.079665789566, -37768.50256544382, 0.07, 0.864, 0.508, 192.0, 0.0, 0.0, 0.0, 0.0, 0.0, 0.0, 0.0, 0.0, 0.0, 1.652169709765383E9, 0.0, 2022-05-10 10:01:49.765
165.0, 29274.21382358239, 19841.800015187266, -43727.812913395515, -30704.636061744222, -28993.87824462393, -21463.888462053357, -14206.254685670698, -37738.08184124015, 0.07, 0.864, 0.508, 192.0, 0.0, 0.0, 0.0, 0.0, 0.0, 0.0, 0.0, 0.0, 0.0, 1.652169709765391E9, 0.0, 2022-05-10 10:01:49.765
166.0, 29289.323602834178, 19873.472437080436, -43721.174445292294, -30694.421314528146, -28988.089142810008, -21450.857395035913, -14204.533601347639, -37730.79517254772, 0.062, 0.874, 0.47800000000000004, 192.0, 1.0, 240.0, 27.0, 80.0, 14.0, 240.0, 0.0, 0.0, 0.0, 1.6521697097654E9, 0.0, 2022-05-10 10:01:49.765
167.0, 29289.927099934474, 19854.24993684887, -43737.71473618922, -30708.815837957365, -29003.89182613991, -21475.734886614668, -14242.598622155027, -37754.689187370444, 0.062, 0.874, 0.47800000000000004, 192.0, 0.0, 0.0, 0.0, 0.0, 0.0, 0.0, 0.0, 0.0, 0.0, 1.6521697097654104E9, 0.0, 2022-05-10 10:01:49.765
168.0, 29284.89795743203, 19834.49099475038, -43737.401811766846, -30702.98203265453, -29012.184323332825, -21467.218871977195, -14253.640383915948, -37754.44331818144, 0.062, 0.874, 0.47800000000000004, 192.0, 0.0, 0.0, 0.0, 0.0, 0.0, 0.0, 0.0, 0.0, 0.0, 1.6521697097654188E9, 0.0, 2022-05-10 10:01:49.765
169.0, 29278.281841073258, 19841.934125654, -43731.83622739747, -30697.483503518524, -29015.715898956765, -21472.9185668133, -14232.29446796113, -37735.71255632789, 0.062, 0.874, 0.47800000000000004, 192.0, 0.0, 0.0, 0.0, 0.0, 0.0, 0.0, 0.0, 0.0, 0.0, 1.6521697097654305E9, 0.0, 2022-05-10 10:01:49.765
170.0, 29308.926082721482, 19890.616225077658, -43705.52822417358, -30672.44954972858, -29002.64012845041, -21460.96038352971, -14225.81246206909, -37719.70870729789, 0.062, 0.874, 0.47800000000000004, 192.0, 0.0, 0.0, 0.0, 0.0, 0.0, 0.0, 0.0, 0.0, 0.0, 1.6521697097654402E9, 0.0, 2022-05-10 10:01:49.765
171.0, 29335.301141178745, 19932.12341453116, -43667.57496208847, -30638.117270245228, -28965.91621231034, -21422.113051666387, -14210.322703161562, -37698.29573610971, 0.062, 0.874, 0.47800000000000004, 192.0, 0.0, 0.0, 0.0, 0.0, 0.0, 0.0, 0.0, 0.0, 0.0, 1.6521697097654562E9, 0.0, 2022-05-10 10:01:49.765
172.0, 29319.319643893203, 19921.08165277024, -43660.288293396035, -30626.6284735952, -28950.62761910291, -21415.8545632189, -14160.590071748504, -37692.52898604023, 0.062, 0.874, 0.47800000000000004, 192.0, 0.0, 0.0, 0.0, 0.0, 0.0, 0.0, 0.0, 0.0, 0.0, 1.6521697097654676E9, 0.0, 2022-05-10 10:01:49.765
173.0, 29290.776466223775, 19870.052620178776, -43697.816872336494, -30661.944229834586, -28972.621735646935, -21467.95647954422, -14206.232333926242, -37742.35102443112, 0.062, 0.874, 0.47800000000000004, 192.0, 0.0, 0.0, 0.0, 0.0, 0.0, 0.0, 0.0, 0.0, 0.0, 1.652169709765479E9, 0.0, 2022-05-10 10:01:49.765
174.0, 29278.30419281771, 19846.62799198961, -43706.39994220733, -30678.68568643161, -28983.417628218845, -21494.666814168315, -14237.77064535268, -37762.95933281891, 0.062, 0.874, 0.47800000000000004, 192.0, 0.0, 0.0, 0.0, 0.0, 0.0, 0.0, 0.0, 0.0, 0.0, 1.6521697097655065E9, 0.0, 2022-05-10 10:01:49.765
175.0, 29283.959184164905, 19863.414152075547, -43684.338770429946, -30655.551630920367, -28961.244697719183, -21489.7717821326, -14197.492801844217, -37719.50754159779, 0.062, 0.874, 0.47800000000000004, 192.0, 0.0, 0.0, 0.0, 0.0, 0.0, 0.0, 0.0, 0.0, 0.0, 1.6521697097655163E9, 0.0, 2022-05-10 10:01:49.765
176.0, 29293.12339939158, 19920.589914392225, -43662.54581958602, -30632.954017276053, -28943.07272947702, -21472.11390401291, -14181.645415025403, -37688.12569238254, 0.036000000000000004, 0.908, 0.45, 192.0, 1.0, 32.0, 28.0, 96.0, 14.0, 16.0, 0.0, 0.0, 0.0, 1.652169709765524E9, 0.0, 2022-05-10 10:01:49.765
177.0, 29331.501344621345, 19930.983475563942, -43629.91227268127, -30601.907444227632, -28916.362394852928, -21446.744674056135, -14169.329603830529, -37675.36284629856, 0.036000000000000004, 0.908, 0.45, 192.0, 0.0, 0.0, 0.0, 0.0, 0.0, 0.0, 0.0, 0.0, 0.0, 1.652169709765534E9, 0.0, 2022-05-10 10:01:49.765
178.0, 29344.063025005227, 19924.12149001616, -43617.43999927521, -30594.039630179363, -28898.279833588582, -21440.262668164098, -14147.581356475515, -37663.941104881895, 0.036000000000000004, 0.908, 0.45, 192.0, 0.0, 0.0, 0.0, 0.0, 0.0, 0.0, 0.0, 0.0, 0.0, 1.6521697097655463E9, 0.0, 2022-05-10 10:01:49.765
179.0, 29338.31862668021, 19939.94652509052, -43612.58967072841, -30589.792798732855, -28893.809484697522, -21438.653342563313, -14158.533711258617, -37658.710796679356, 0.036000000000000004, 0.908, 0.45, 192.0, 0.0, 0.0, 0.0, 0.0, 0.0, 0.0, 0.0, 0.0, 0.0, 1.6521697097655554E9, 0.0, 2022-05-10 10:01:49.765
180.0, 29338.877420291596, 19949.446016484024, -43584.58293492591, -30570.6150019902, -28867.546184962535, -21423.901191222812, -14137.94775461528, -37627.664223630934, 0.036000000000000004, 0.908, 0.45, 192.0, 0.0, 0.0, 0.0, 0.0, 0.0, 0.0, 0.0, 0.0, 0.0, 1.6521697097655675E9, 0.0, 2022-05-10 10:01:49.765
181.0, 29363.062007792236, 19990.461467559515, -43537.06312621393, -30534.069899805774, -28814.863123281375, -21380.114123834865, -14056.989736198157, -37589.39803712345, 0.036000000000000004, 0.908, 0.45, 192.0, 0.0, 0.0, 0.0, 0.0, 0.0, 0.0, 0.0, 0.0, 0.0, 1.652169709765579E9, 0.0, 2022-05-10 10:01:49.765
182.0, 29385.99489760338, 20028.034749988885, -43511.6715445127, -30513.930978051543, -28791.259681136573, -21350.565117664948, -14045.523291292584, -37573.48359507127, 0.036000000000000004, 0.908, 0.45, 192.0, 0.0, 0.0, 0.0, 0.0, 0.0, 0.0, 0.0, 0.0, 0.0, 1.6521697097655892E9, 0.0, 2022-05-10 10:01:49.765
183.0, 29389.191197060492, 20057.87432883672, -43487.37519828978, -30494.350849908693, -28768.639715747802, -21336.63998086929, -14016.622485711872, -37545.05217612412, 0.036000000000000004, 0.908, 0.45, 192.0, 0.0, 0.0, 0.0, 0.0, 0.0, 0.0, 0.0, 0.0, 0.0, 1.6521697097655976E9, 0.0, 2022-05-10 10:01:49.765
184.0, 29385.883138881105, 20072.045334821385, -43466.4092619907, -30480.068085201754, -28747.02557885952, -21330.94028603319, -13998.04818606951, -37509.49055069573, 0.036000000000000004, 0.908, 0.45, 192.0, 0.0, 0.0, 0.0, 0.0, 0.0, 0.0, 0.0, 0.0, 0.0, 1.652169709765607E9, 0.0, 2022-05-10 10:01:49.765
185.0, 29415.074517139736, 20104.522419514946, -43418.01773524496, -30437.77858469231, -28700.221025970106, -21291.19888439165, -13967.2474822101, -37460.00378847167, 0.008, 0.904, 0.434, 192.0, 0.0, 64.0, 28.0, 64.0, 13.0, 144.0, 0.0, 0.0, 0.0, 1.6521697097656202E9, 0.0, 2022-05-10 10:01:49.765
186.0, 29461.00735199539, 20156.42317014017, -43363.81475494084, -30385.050819522243, -28639.42428105167, -21231.229154018063, -13902.427423289708, -37381.88444160038, 0.008, 0.904, 0.434, 192.0, 0.0, 0.0, 0.0, 0.0, 0.0, 0.0, 0.0, 0.0, 0.0, 1.6521697097656324E9, 0.0, 2022-05-10 10:01:49.765
187.0, 29505.777896139374, 20190.353118223324, -43340.6806994296, -30361.447377377437, -28613.496257483515, -21207.24573221752, -13853.164178510211, -37348.4685836397, 0.008, 0.904, 0.434, 192.0, 0.0, 0.0, 0.0, 0.0, 0.0, 0.0, 0.0, 0.0, 0.0, 1.6521697097656431E9, 0.0, 2022-05-10 10:01:49.765
188.0, 29510.36000375271, 20197.840952615854, -43347.095650088275, -30367.124720469084, -28626.7061384566, -21200.920188536667, -13842.748265594038, -37362.25960996862, 0.008, 0.904, 0.434, 192.0, 0.0, 0.0, 0.0, 0.0, 0.0, 0.0, 0.0, 0.0, 0.0, 1.6521697097656517E9, 0.0, 2022-05-10 10:01:49.765
189.0, 29495.876073345673, 20214.515353979514, -43329.23660626848, -30356.552345341726, -28615.954949373598, -21196.606301856795, -13844.715219106105, -37355.82230756549, 0.008, 0.904, 0.434, 192.0, 0.0, 0.0, 0.0, 0.0, 0.0, 0.0, 0.0, 0.0, 0.0, 1.6521697097656615E9, 0.0, 2022-05-10 10:01:49.765
190.0, 29520.194771313047, 20249.071150907417, -43286.74594005894, -30314.732231465845, -28565.685876093612, -21157.75896999347, -13805.040872697935, -37297.685420237234, 0.008, 0.904, 0.434, 192.0, 0.0, 0.0, 0.0, 0.0, 0.0, 0.0, 0.0, 0.0, 0.0, 1.6521697097656732E9, 0.0, 2022-05-10 10:01:49.765
191.0, 29555.912858952626, 20287.136171714803, -43262.94133221404, -30292.492245732814, -28532.471183833026, -21135.56368774935, -13790.668701013174, -37311.118818654875, 0.008, 0.904, 0.434, 192.0, 0.0, 0.0, 0.0, 0.0, 0.0, 0.0, 0.0, 0.0, 0.0, 1.6521697097656827E9, 0.0, 2022-05-10 10:01:49.765
192.0, 29581.170330187124, 20322.809555865475, -43247.51862853988, -30281.785760138722, -28516.154410380652, -21128.679350457114, -13799.609398795295, -37387.740598647666, 0.008, 0.904, 0.434, 192.0, 0.0, 0.0, 0.0, 0.0, 0.0, 0.0, 0.0, 0.0, 0.0, 1.6521697097657027E9, 0.0, 2022-05-10 10:01:49.765
193.0, 29594.447266393578, 20309.443212681203, -43259.29799786783, -30293.296908533208, -28530.034843687397, -21131.786242936403, -13800.749337762516, -37382.979677078685, 0.008, 0.904, 0.434, 192.0, 0.0, 0.0, 0.0, 0.0, 0.0, 0.0, 0.0, 0.0, 0.0, 1.652169709765712E9, 0.0, 2022-05-10 10:01:49.765
194.0, 29584.14311219968, 20272.831055263407, -43267.098756682724, -30291.553472465694, -28551.0901869643, -21118.017568351934, -13802.358663363299, -37296.165501614276, 0.008, 0.904, 0.434, 192.0, 0.0, 0.0, 0.0, 0.0, 0.0, 0.0, 0.0, 0.0, 0.0, 1.6521697097657232E9, 0.0, 2022-05-10 10:01:49.765
195.0, 29594.447266393578, 20267.354877871858, -43251.094907652725, -30277.158949036475, -28534.66165478965, -21093.095373284268, -13765.902968156692, -37267.82348964494, -0.016, 0.884, 0.43, 192.0, 255.0, 128.0, 27.0, 160.0, 13.0, 112.0, 0.0, 0.0, 0.0, 1.6521697097657385E9, 0.0, 2022-05-10 10:01:49.765
196.0, 29609.601749134275, 20278.553101843965, -43244.098811638214, -30274.163815279462, -28530.481878576506, -21090.703736627547, -13766.998203635003, -37283.715579952666, -0.016, 0.884, 0.43, 192.0, 0.0, 0.0, 0.0, 0.0, 0.0, 0.0, 0.0, 0.0, 0.0, 1.6521697097657492E9, 0.0, 2022-05-10 10:01:49.765
197.0, 29636.356787247278, 20295.138096229806, -43248.457401807, -30274.81201586867, -28540.69662579258, -21095.978748319, -13802.045738940924, -37294.95850741369, -0.016, 0.884, 0.43, 192.0, 0.0, 0.0, 0.0, 0.0, 0.0, 0.0, 0.0, 0.0, 0.0, 1.6521697097657633E9, 0.0, 2022-05-10 10:01:49.765
198.0, 29640.380101249233, 20282.844636779384, -43281.158003945115, -30303.95869063839, -28570.42444591814, -21125.259533555454, -13867.715164150617, -37361.5667058905, -0.016, 0.884, 0.43, 192.0, 0.0, 0.0, 0.0, 0.0, 0.0, 0.0, 0.0, 0.0, 0.0, 1.6521697097657769E9, 0.0, 2022-05-10 10:01:49.765
199.0, 29628.33251098782, 20275.177988431216, -43299.59819312074, -30320.029594901753, -28584.12606526924, -21139.676408729127, -13838.45673065862, -37355.934066287766, -0.016, 0.884, 0.43, 192.0, 0.0, 0.0, 0.0, 0.0, 0.0, 0.0, 0.0, 0.0, 0.0, 1.6521697097657928E9, 0.0, 2022-05-10 10:01:49.765
200.0, 29617.693080627094, 20287.225578692625, -43280.889783011655, -30298.37075452456, -28556.052274233374, -21118.12932707421, -13771.893235670716, -37286.71071370968, -0.016, 0.884, 0.43, 192.0, 0.0, 0.0, 0.0, 0.0, 0.0, 0.0, 0.0, 0.0, 0.0, 1.6521697097658072E9, 0.0, 2022-05-10 10:01:49.765
201.0, 29596.749496072473, 20278.15077044377, -43278.38638763266, -30293.788646911224, -28557.058102733863, -21120.90094338667, -13806.1584599207, -37309.33067909845, -0.016, 0.884, 0.43, 192.0, 0.0, 0.0, 0.0, 0.0, 0.0, 0.0, 0.0, 0.0, 0.0, 1.652169709765819E9, 0.0, 2022-05-10 10:01:49.765
202.0, 29605.980766532513, 20277.72608729912, -43276.75471028742, -30293.18514981093, -28555.314666666352, -21125.281885299908, -13835.215727712599, -37352.96128427521, -0.016, 0.884, 0.43, 192.0, 0.0, 0.0, 0.0, 0.0, 0.0, 0.0, 0.0, 0.0, 0.0, 1.6521697097658272E9, 0.0, 2022-05-10 10:01:49.765
203.0, 29616.083755026313, 20302.96120678916, -43262.002558946915, -30283.350382250595, -28530.92891346561, -21115.916504373134, -13791.24984636901, -37334.878723010865, -0.016, 0.884, 0.43, 192.0, 0.0, 0.0, 0.0, 0.0, 0.0, 0.0, 0.0, 0.0, 0.0, 1.6521697097658372E9, 0.0, 2022-05-10 10:01:49.765
204.0, 29608.081830511313, 20308.951474303183, -43256.0122914329, -30282.65747817248, -28521.183552883096, -21117.458774740553, -13788.478230056553, -37336.15277244482, -0.016, 0.884, 0.43, 192.0, 0.0, 0.0, 0.0, 0.0, 0.0, 0.0, 0.0, 0.0, 0.0, 1.6521697097658515E9, 0.0, 2022-05-10 10:01:49.765
205.0, 29609.333528200812, 20301.173067232736, -43238.60028250221, -30265.31252447516, -28515.12623013571, -21099.979710576503, -13776.274177583955, -37295.38319055834, -0.016, 0.88, 0.44, 192.0, 255.0, 128.0, 27.0, 128.0, 13.0, 192.0, 0.0, 0.0, 0.0, 1.6521697097658644E9, 0.0, 2022-05-10 10:01:49.765
206.0, 29617.201342249078, 20328.531602446034, -43194.83556685872, -30214.30584362815, -28469.50631970243, -21041.909878481612, -13701.105260980758, -37203.36105863584, -0.016, 0.88, 0.44, 192.0, 0.0, 0.0, 0.0, 0.0, 0.0, 0.0, 0.0, 0.0, 0.0, 1.65216970976588E9, 0.0, 2022-05-10 10:01:49.765
207.0, 29641.989426850014, 20371.670469244775, -43151.74140354889, -30165.62374420449, -28420.310130156297, -20987.43867724403, -13657.027620914892, -37151.77323243299, -0.016, 0.88, 0.44, 192.0, 0.0, 0.0, 0.0, 0.0, 0.0, 0.0, 0.0, 0.0, 0.0, 1.6521697097658916E9, 0.0, 2022-05-10 10:01:49.765
208.0, 29670.130273119245, 20395.139800922847, -43133.860007984644, -30149.06110156311, -28403.94865321501, -20961.398894953596, -13659.84394071626, -37168.06765414091, -0.016, 0.88, 0.44, 192.0, 0.0, 0.0, 0.0, 0.0, 0.0, 0.0, 0.0, 0.0, 0.0, 1.6521697097659037E9, 0.0, 2022-05-10 10:01:49.765
209.0, 29678.847453456816, 20445.095949780458, -43075.23138227837, -30095.081638703545, -28354.99833285789, -20932.878069028626, -13598.64486439763, -37142.40785150622, -0.016, 0.88, 0.44, 192.0, 0.0, 0.0, 0.0, 0.0, 0.0, 0.0, 0.0, 0.0, 0.0, 1.652169709765918E9, 0.0, 2022-05-10 10:01:49.765
210.0, 29687.385819838742, 20517.314436115557, -42989.40068356999, -30012.76016387465, -28276.946041219955, -20862.09009433867, -13522.000732660383, -37070.994027971516, -0.016, 0.88, 0.44, 192.0, 0.0, 0.0, 0.0, 0.0, 0.0, 0.0, 0.0, 0.0, 0.0, 1.6521697097659318E9, 0.0, 2022-05-10 10:01:49.765
211.0, 29734.50329715053, 20572.120913519968, -42936.89643584448, -29960.390026615863, -28230.767337175294, -20804.243779688335, -13511.920095911039, -37022.44603901458, -0.016, 0.88, 0.44, 192.0, 0.0, 0.0, 0.0, 0.0, 0.0, 0.0, 0.0, 0.0, 0.0, 1.6521697097659392E9, 0.0, 2022-05-10 10:01:49.765
212.0, 29795.076524624412, 20609.716547693795, -42910.40961866494, -29933.098546635934, -28203.073525795167, -20771.34201185012, -13468.960043067938, -36977.31786695932, -0.016, 0.88, 0.44, 192.0, 0.0, 0.0, 0.0, 0.0, 0.0, 0.0, 0.0, 0.0, 0.0, 1.652169709765947E9, 0.0, 2022-05-10 10:01:49.765
213.0, 29824.781993005516, 20627.217963602303, -42902.40769414994, -29927.68942447775, -28191.271804722765, -20761.06020940068, -13418.378045365578, -36947.522991600395, -0.016, 0.88, 0.44, 192.0, 0.0, 0.0, 0.0, 0.0, 0.0, 0.0, 0.0, 0.0, 0.0, 1.652169709765955E9, 0.0, 2022-05-10 10:01:49.765
214.0, 29855.046254998, 20639.04203641916, -42898.20556619234, -29927.35414831092, -28173.122188225054, -20761.641354756517, -13413.237144140858, -36962.31984642981, -0.016, 0.88, 0.44, 192.0, 0.0, 0.0, 0.0, 0.0, 0.0, 0.0, 0.0, 0.0, 0.0, 1.6521697097659707E9, 0.0, 2022-05-10 10:01:49.765
215.0, 29879.432008198743, 20620.51244026571, -42913.69532509987, -29940.87695370638, -28180.72178133986, -20781.132075921545, -13436.237089185368, -36997.18856778009, -0.028, 0.896, 0.458, 192.0, 255.0, 32.0, 28.0, 0.0, 14.0, 80.0, 0.0, 0.0, 0.0, 1.6521697097659783E9, 0.0, 2022-05-10 10:01:49.765
216.0, 29885.24346175712, 20595.2102655423, -42942.21615102484, -29959.74182602666, -28221.670177181983, -20786.764715524285, -13492.898761379573, -37004.47523647252, -0.028, 0.896, 0.458, 192.0, 0.0, 0.0, 0.0, 0.0, 0.0, 0.0, 0.0, 0.0, 0.0, 1.6521697097659862E9, 0.0, 2022-05-10 10:01:49.765
217.0, 29862.399978923797, 20564.297802960613, -42966.847773414585, -29978.338477413476, -28250.77214846279, -20803.64028258804, -13535.38942758911, -37019.51796049094, -0.028, 0.896, 0.458, 192.0, 0.0, 0.0, 0.0, 0.0, 0.0, 0.0, 0.0, 0.0, 0.0, 1.6521697097659938E9, 0.0, 2022-05-10 10:01:49.765
218.0, 29837.790708278502, 20552.49608188821, -42972.994503139795, -29992.889463053878, -28249.051064139734, -20832.675198635483, -13520.816090204251, -37052.28561786242, -0.028, 0.896, 0.458, 192.0, 0.0, 0.0, 0.0, 0.0, 0.0, 0.0, 0.0, 0.0, 0.0, 1.6521697097660024E9, 0.0, 2022-05-10 10:01:49.766
219.0, 29832.33688263141, 20532.938305489817, -42995.9497446954, -30011.84374235198, -28267.2230323819, -20841.235916761867, -13539.256279379879, -37038.51694327795, -0.028, 0.896, 0.458, 192.0, 0.0, 0.0, 0.0, 0.0, 0.0, 0.0, 0.0, 0.0, 0.0, 1.6521697097660105E9, 0.0, 2022-05-10 10:01:49.766
220.0, 29840.696435057693, 20494.605063748964, -43046.44233541994, -30058.00009465219, -28298.69428857497, -20882.027850392802, -13548.06286669527, -37075.88906000723, -0.028, 0.896, 0.458, 192.0, 0.0, 0.0, 0.0, 0.0, 0.0, 0.0, 0.0, 0.0, 0.0, 1.6521697097660189E9, 0.0, 2022-05-10 10:01:49.766
221.0, 29832.582751820417, 20447.085255036982, -43109.742475717365, -30117.992176770233, -28346.728187409426, -20939.427130154032, -13589.055966026302, -37169.766386719515, -0.028, 0.896, 0.458, 192.0, 0.0, 0.0, 0.0, 0.0, 0.0, 0.0, 0.0, 0.0, 0.0, 1.6521697097660277E9, 0.0, 2022-05-10 10:01:49.766
222.0, 29786.828730920402, 20384.70153626222, -43195.103787792184, -30207.9802999473, -28443.690054856546, -21003.509581507395, -13674.059650189836, -37211.74296280658, -0.028, 0.896, 0.458, 192.0, 0.0, 0.0, 0.0, 0.0, 0.0, 0.0, 0.0, 0.0, 0.0, 1.6521697097660372E9, 0.0, 2022-05-10 10:01:49.766
223.0, 29728.334215680865, 20275.78148553151, -43321.83817885377, -30326.9586356829, -28567.049332505387, -21082.74651560146, -13772.764953704473, -37301.30640283899, -0.028, 0.896, 0.458, 192.0, 0.0, 0.0, 0.0, 0.0, 0.0, 0.0, 0.0, 0.0, 0.0, 1.6521697097660491E9, 0.0, 2022-05-10 10:01:49.766
224.0, 29640.335397760322, 20122.962608690574, -43458.92142759817, -30464.332457105218, -28696.376525923795, -21216.81227884439, -13916.285504851998, -37466.17286994134, -0.028, 0.896, 0.458, 192.0, 0.0, 0.0, 0.0, 0.0, 0.0, 0.0, 0.0, 0.0, 0.0, 1.6521697097660573E9, 0.0, 2022-05-10 10:01:49.766
225.0, 29562.439568333575, 20047.480767665, -43538.985376237084, -30543.323522010272, -28769.131454125818, -21302.441811852674, -13997.824668624959, -37563.425310066385, -0.054, 0.882, 0.494, 192.0, 254.0, 80.0, 27.0, 144.0, 15.0, 112.0, 0.0, 0.0, 0.0, 1.6521697097660675E9, 0.0, 2022-05-10 10:01:49.766
226.0, 29503.877997860673, 20016.121270194206, -43586.97457158263, -30574.593612503246, -28805.430687121236, -21329.353312176863, -14035.465006287695, -37582.021961453196, -0.054, 0.882, 0.494, 192.0, 0.0, 0.0, 0.0, 0.0, 0.0, 0.0, 0.0, 0.0, 0.0, 1.652169709766076E9, 0.0, 2022-05-10 10:01:49.766
227.0, 29464.181299708045, 19992.24960711594, -43613.72960969563, -30614.558531589337, -28850.42474870977, -21360.22107126964, -14088.393937157864, -37617.40477292595, -0.054, 0.882, 0.494, 192.0, 0.0, 0.0, 0.0, 0.0, 0.0, 0.0, 0.0, 0.0, 0.0, 1.6521697097660856E9, 0.0, 2022-05-10 10:01:49.766
228.0, 29434.945217960503, 19972.021278383887, -43655.236799149134, -30673.16480555115, -28907.935787193273, -21414.848734718413, -14175.588092278016, -37715.90891074049, -0.054, 0.882, 0.494, 192.0, 0.0, 0.0, 0.0, 0.0, 0.0, 0.0, 0.0, 0.0, 0.0, 1.6521697097660954E9, 0.0, 2022-05-10 10:01:49.766
229.0, 29369.454606706455, 19932.19046976453, -43697.52629965857, -30724.037375931428, -28955.45559590526, -21474.684354625268, -14222.549107378616, -37782.47240572839, -0.054, 0.882, 0.494, 192.0, 0.0, 0.0, 0.0, 0.0, 0.0, 0.0, 0.0, 0.0, 0.0, 1.6521697097661047E9, 0.0, 2022-05-10 10:01:49.766
230.0, 29332.037786488272, 19907.670606097057, -43712.61372716591, -30737.537829582434, -28971.97353505773, -21483.468590196204, -14209.540392105628, -37763.67458864148, -0.054, 0.882, 0.494, 192.0, 0.0, 0.0, 0.0, 0.0, 0.0, 0.0, 0.0, 0.0, 0.0, 1.6521697097661142E9, 0.0, 2022-05-10 10:01:49.766
231.0, 29307.808495498717, 19915.381957934136, -43747.43774502727, -30762.348265927827, -28992.715953912255, -21500.098288070953, -14235.15549125141, -37806.65699322904, -0.054, 0.882, 0.494, 192.0, 0.0, 0.0, 0.0, 0.0, 0.0, 0.0, 0.0, 0.0, 0.0, 1.6521697097661228E9, 0.0, 2022-05-10 10:01:49.766
232.0, 29312.3682513676, 19917.70653935749, -43783.51346057814, -30799.407458234724, -29025.438907794825, -21526.33923606148, -14275.165113826408, -37824.314871348724, -0.054, 0.882, 0.494, 192.0, 0.0, 0.0, 0.0, 0.0, 0.0, 0.0, 0.0, 0.0, 0.0, 1.6521697097661304E9, 0.0, 2022-05-10 10:01:49.766
233.0, 29287.155483622013, 19878.88155923862, -43834.74365886971, -30852.87283097182, -29081.206510210814, -21562.07967544552, -14332.810262776646, -37869.82302305973, -0.054, 0.882, 0.494, 192.0, 0.0, 0.0, 0.0, 0.0, 0.0, 0.0, 0.0, 0.0, 0.0, 1.6521697097661448E9, 0.0, 2022-05-10 10:01:49.766
234.0, 29233.801869607196, 19820.230581787895, -43896.16625263289, -30906.360555453368, -29131.833211402085, -21614.09218479302, -14395.663368184969, -37943.78494546234, -0.054, 0.882, 0.494, 192.0, 0.0, 0.0, 0.0, 0.0, 0.0, 0.0, 0.0, 0.0, 0.0, 1.652169709766153E9, 0.0, 2022-05-10 10:01:49.766
235.0, 29194.529854599223, 19801.20924725643, -43934.946529262845, -30936.64716919031, -29173.29569736668, -21655.84524343553, -14432.722560491868, -37993.3164111753, -0.076, 0.878, 0.526, 192.0, 253.0, 160.0, 27.0, 112.0, 16.0, 112.0, 0.0, 0.0, 0.0, 1.6521697097661684E9, 0.0, 2022-05-10 10:01:49.766
236.0, 29153.223830845815, 19807.57949442619, -43943.14961947795, -30953.008646131595, -29190.953575486372, -21672.832569221566, -14463.366802140094, -38017.45629518703, -0.076, 0.878, 0.526, 192.0, 0.0, 0.0, 0.0, 0.0, 0.0, 0.0, 0.0, 0.0, 0.0, 1.6521697097661772E9, 0.0, 2022-05-10 10:01:49.766
237.0, 29119.04801357365, 19769.78269455227, -43954.9736922948, -30968.051370150017, -29201.235377935813, -21687.182389161873, -14479.303595936728, -38036.2764640184, -0.076, 0.878, 0.526, 192.0, 0.0, 0.0, 0.0, 0.0, 0.0, 0.0, 0.0, 0.0, 0.0, 1.6521697097661872E9, 0.0, 2022-05-10 10:01:49.766
238.0, 29098.976147052785, 19757.891566502043, -43973.2797710037, -30969.16895737278, -29199.894273268495, -21682.75674375972, -14442.982011196855, -38005.40870492563, -0.076, 0.878, 0.526, 192.0, 0.0, 0.0, 0.0, 0.0, 0.0, 0.0, 0.0, 0.0, 0.0, 1.6521697097661982E9, 0.0, 2022-05-10 10:01:49.766
239.0, 29074.65744908541, 19783.685479603468, -43958.237046985276, -30958.84245143443, -29190.126560941528, -21685.461304838813, -14427.022865655765, -37963.34272186074, -0.076, 0.878, 0.526, 192.0, 0.0, 0.0, 0.0, 0.0, 0.0, 0.0, 0.0, 0.0, 0.0, 1.6521697097662067E9, 0.0, 2022-05-10 10:01:49.766
240.0, 29058.675951799865, 19808.96530258242, -43926.989308236756, -30908.036936287517, -29153.648513990465, -21653.43125503436, -14386.163876791463, -37933.01140463488, -0.076, 0.878, 0.526, 192.0, 0.0, 0.0, 0.0, 0.0, 0.0, 0.0, 0.0, 0.0, 0.0, 1.6521697097662137E9, 0.0, 2022-05-10 10:01:49.766
241.0, 29079.172501465382, 19867.728038755424, -43862.191601060826, -30843.932133189697, -29101.591301154054, -21597.618949129457, -14343.60615534856, -37905.205834532484, -0.076, 0.878, 0.526, 192.0, 0.0, 0.0, 0.0, 0.0, 0.0, 0.0, 0.0, 0.0, 0.0, 1.6521697097662244E9, 0.0, 2022-05-10 10:01:49.766
242.0, 29132.235542802282, 19944.215708281485, -43808.636821345906, -30789.930318585673, -29052.66333254139, -21549.585050295, -14312.246657877764, -37875.94740104049, -0.076, 0.878, 0.526, 192.0, 0.0, 0.0, 0.0, 0.0, 0.0, 0.0, 0.0, 0.0, 0.0, 1.6521697097662337E9, 0.0, 2022-05-10 10:01:49.766
243.0, 29147.233563331793, 19967.461522515005, -43816.86226330546, -30775.647553878734, -29052.819794752577, -21533.827070454012, -14285.178695342387, -37843.24679890237, -0.076, 0.878, 0.526, 192.0, 0.0, 0.0, 0.0, 0.0, 0.0, 0.0, 0.0, 0.0, 0.0, 1.6521697102456026E9, 0.0, 2022-05-10 10:01:50.245
244.0, 29131.453231746345, 19971.19426383904, -43760.62527425591, -30729.424146345158, -29016.74407920171, -21502.15464856084, -14229.209927226297, -37754.28685597025, -0.076, 0.878, 0.526, 192.0, 0.0, 0.0, 0.0, 0.0, 0.0, 0.0, 0.0, 0.0, 0.0, 1.652169710245829E9, 0.0, 2022-05-10 10:01:50.245
245.0, 29137.130574837993, 20027.52065986641, -43680.85189829492, -30657.607991410256, -28953.376883670913, -21450.72328456918, -14160.299499070587, -37685.063503392164, -0.056, 0.92, 0.546, 192.0, 254.0, 64.0, 28.0, 192.0, 17.0, 16.0, 0.0, 0.0, 0.0, 1.6521697102458375E9, 0.0, 2022-05-10 10:01:50.245
246.0, 29178.101322424573, 20093.838285665308, -43624.23492958963, -30593.123208656696, -28896.044659143052, -21383.46688550316, -14110.723329868715, -37635.10735453455, -0.056, 0.92, 0.546, 192.0, 0.0, 0.0, 0.0, 0.0, 0.0, 0.0, 0.0, 0.0, 0.0, 1.6521697102458448E9, 0.0, 2022-05-10 10:01:50.245
247.0, 29230.650273639, 20145.023780467964, -43601.52555722303, -30565.876432165678, -28861.7123796597, -21358.36587647985, -14084.370623155908, -37609.849883300056, -0.056, 0.92, 0.546, 192.0, 0.0, 0.0, 0.0, 0.0, 0.0, 0.0, 0.0, 0.0, 0.0, 1.652169710245852E9, 0.0, 2022-05-10 10:01:50.245
248.0, 29262.27799204326, 20165.006240011007, -43575.08344353241, -30533.824030616765, -28839.807670093498, -21344.28427747301, -14057.861454231914, -37592.7731505362, -0.056, 0.92, 0.546, 192.0, 0.0, 0.0, 0.0, 0.0, 0.0, 0.0, 0.0, 0.0, 0.0, 1.652169710245859E9, 0.0, 2022-05-10 10:01:50.245
249.0, 29261.093349587125, 20194.37643222528, -43524.81437025242, -30496.004878998385, -28793.427800348738, -21325.7323295751, -14003.837287883436, -37548.04730988113, -0.056, 0.92, 0.546, 192.0, 0.0, 0.0, 0.0, 0.0, 0.0, 0.0, 0.0, 0.0, 0.0, 1.6521697102458658E9, 0.0, 2022-05-10 10:01:50.245
250.0, 29298.84544597214, 20255.66491552173, -43460.59780843232, -30430.916599144533, -28714.414383699226, -21290.751849502547, -13945.05219996598, -37487.20586147378, -0.056, 0.92, 0.546, 192.0, 0.0, 0.0, 0.0, 0.0, 0.0, 0.0, 0.0, 0.0, 0.0, 1.6521697102458725E9, 0.0, 2022-05-10 10:01:50.245
251.0, 29352.66844662052, 20320.26145699757, -43402.25975540397, -30373.00322926083, -28648.320275344882, -21239.141671555244, -13874.331280509386, -37398.223566797205, -0.056, 0.92, 0.546, 192.0, 0.0, 0.0, 0.0, 0.0, 0.0, 0.0, 0.0, 0.0, 0.0, 1.6521697102458792E9, 0.0, 2022-05-10 10:01:50.245
252.0, 29391.426371506022, 20339.394550251312, -43387.39584534119, -30366.588278602158, -28637.14440311723, -21208.363319440286, -13874.93477760968, -37384.34313349046, -0.056, 0.92, 0.546, 192.0, 0.0, 0.0, 0.0, 0.0, 0.0, 0.0, 0.0, 0.0, 0.0, 1.6521697102458863E9, 0.0, 2022-05-10 10:01:50.245
253.0, 29424.797525977796, 20338.031093839538, -43419.33648816782, -30398.7747906178, -28661.396045851237, -21239.320485510885, -13901.08631862239, -37427.6831659893, -0.056, 0.92, 0.546, 192.0, 0.0, 0.0, 0.0, 0.0, 0.0, 0.0, 0.0, 0.0, 0.0, 1.6521697102458937E9, 0.0, 2022-05-10 10:01:50.245
254.0, 29441.449575597, 20351.06216085698, -43444.03516579094, -30421.864142640134, -28673.287173901463, -21260.82286367689, -13884.948359125658, -37443.97758769722, -0.056, 0.92, 0.546, 192.0, 0.0, 0.0, 0.0, 0.0, 0.0, 0.0, 0.0, 0.0, 0.0, 1.6521697102459004E9, 0.0, 2022-05-10 10:01:50.245
255.0, 29437.11333717267, 20317.042805796005, -43440.905921567195, -30419.383099005594, -28663.89944123023, -21269.562395758916, -13873.101934564345, -37431.81823871353, -0.044, 0.912, 0.548, 192.0, 254.0, 160.0, 28.0, 128.0, 17.0, 32.0, 0.0, 0.0, 0.0, 1.6521697102459073E9, 0.0, 2022-05-10 10:01:50.245
0.0, 29457.16285194908, 20329.626837924345, -43424.65620334819, -30412.92344485801, -28647.42620556667, -21277.810189462925, -13891.318606295421, -37457.589800070506, -0.044, 0.912, 0.548, 192.0, 0.0, 0.0, 0.0, 0.0, 0.0, 0.0, 0.0, 0.0, 0.0, 1.6521697102459297E9, 0.0, 2022-05-10 10:01:50.245
1.0, 29447.573953577754, 20288.812552548952, -43454.51813394048, -30447.859221441657, -28670.850833755834, -21307.627416566305, -13915.212621118144, -37471.067901977054, -0.044, 0.912, 0.548, 192.0, 0.0, 0.0, 0.0, 0.0, 0.0, 0.0, 0.0, 0.0, 0.0, 1.6521697102459364E9, 0.0, 2022-05-10 10:01:50.245
2.0, 29451.798433279808, 20249.071150907417, -43483.4636430101, -30472.960230464963, -28696.465932901614, -21302.955901975143, -13925.539127056496, -37445.56456155355, -0.044, 0.912, 0.548, 192.0, 0.0, 0.0, 0.0, 0.0, 0.0, 0.0, 0.0, 0.0, 0.0, 1.6521697102459433E9, 0.0, 2022-05-10 10:01:50.245
3.0, 29447.529250088843, 20216.5717144694, -43499.80276820693, -30485.07487595974, -28720.292892490972, -21317.953922504657, -13961.033697251523, -37474.30890492307, -0.044, 0.912, 0.548, 192.0, 0.0, 0.0, 0.0, 0.0, 0.0, 0.0, 0.0, 0.0, 0.0, 1.6521697102459497E9, 0.0, 2022-05-10 10:01:50.245
4.0, 29423.925807944037, 20192.655347902222, -43509.5704805339, -30502.285719190328, -28730.39588098477, -21355.013114811554, -13982.916055073269, -37499.9016523244, -0.044, 0.912, 0.548, 192.0, 0.0, 0.0, 0.0, 0.0, 0.0, 0.0, 0.0, 0.0, 0.0, 1.6521697102459564E9, 0.0, 2022-05-10 10:01:50.245
5.0, 29406.290281568803, 20192.968272324597, -43530.178788921694, -30524.592760156724, -28751.384169028304, -21381.589338968915, -13999.568104692473, -37541.52060050018, -0.044, 0.912, 0.548, 192.0, 0.0, 0.0, 0.0, 0.0, 0.0, 0.0, 0.0, 0.0, 0.0, 1.652169710245963E9, 0.0, 2022-05-10 10:01:50.245
6.0, 29404.14451410109, 20185.23456874306, -43560.443050914175, -30550.38667325815, -28783.704791510678, -21405.505705536092, -14038.661305744805, -37601.60208959605, -0.044, 0.912, 0.548, 192.0, 0.0, 0.0, 0.0, 0.0, 0.0, 0.0, 0.0, 0.0, 0.0, 1.6521697102459695E9, 0.0, 2022-05-10 10:01:50.245
7.0, 29406.804371691273, 20177.769086094988, -43582.325408735924, -30564.58003098727, -28798.56870157346, -21419.363787098384, -14058.30848912102, -37644.42803197241, -0.044, 0.912, 0.548, 192.0, 0.0, 0.0, 0.0, 0.0, 0.0, 0.0, 0.0, 0.0, 0.0, 1.6521697102459764E9, 0.0, 2022-05-10 10:01:50.245
8.0, 29378.462359721943, 20154.009181738995, -43586.05815005996, -30577.454635793525, -28809.65516682329, -21419.542601054025, -14028.468910273185, -37570.04142642515, -0.044, 0.912, 0.548, 192.0, 0.0, 0.0, 0.0, 0.0, 0.0, 0.0, 0.0, 0.0, 0.0, 1.652169710245983E9, 0.0, 2022-05-10 10:01:50.245
9.0, 29373.075589308213, 20164.290984188436, -43569.249638229565, -30565.71996995449, -28792.757248015077, -21408.053804403997, -14000.48452621514, -37507.88122509494, -0.016, 0.868, 0.544, 192.0, 255.0, 128.0, 27.0, 32.0, 17.0, 0.0, 0.0, 0.0, 0.0, 1.6521697102459896E9, 0.0, 2022-05-10 10:01:50.245
10.0, 29376.987144587893, 20168.671926101677, -43575.82105109943, -30574.750074714433, -28804.51426559857, -21420.66018827679, -14013.694407188226, -37522.2086932908, -0.016, 0.868, 0.544, 192.0, 0.0, 0.0, 0.0, 0.0, 0.0, 0.0, 0.0, 0.0, 0.0, 1.6521697102459965E9, 0.0, 2022-05-10 10:01:50.245
11.0, 29379.91522311154, 20154.74678930602, -43591.10964430686, -30593.05615342333, -28820.495762884115, -21436.038188462044, -14044.83038721447, -37569.23676362476, -0.016, 0.868, 0.544, 192.0, 0.0, 0.0, 0.0, 0.0, 0.0, 0.0, 0.0, 0.0, 0.0, 1.6521697102460032E9, 0.0, 2022-05-10 10:01:50.246
12.0, 29385.346697014178, 20138.49707108701, -43607.38171427032, -30611.228121665496, -28838.310103214993, -21467.688258610757, -14067.606814814428, -37638.370709225026, -0.016, 0.868, 0.544, 192.0, 0.0, 0.0, 0.0, 0.0, 0.0, 0.0, 0.0, 0.0, 0.0, 1.65216971024601E9, 0.0, 2022-05-10 10:01:50.246
13.0, 29363.218470003423, 20105.863524182263, -43620.233967332126, -30621.48757237048, -28861.62297268188, -21474.59494764745, -14078.693280064259, -37615.32606069161, -0.016, 0.868, 0.544, 192.0, 0.0, 0.0, 0.0, 0.0, 0.0, 0.0, 0.0, 0.0, 0.0, 1.6521697102460165E9, 0.0, 2022-05-10 10:01:50.246
14.0, 29343.10189999365, 20084.942291372095, -43603.939545624205, -30607.607139063733, -28848.167222519784, -21453.67371483728, -14061.415381600307, -37539.57599873257, -0.016, 0.868, 0.544, 192.0, 0.0, 0.0, 0.0, 0.0, 0.0, 0.0, 0.0, 0.0, 0.0, 1.6521697102460232E9, 0.0, 2022-05-10 10:01:50.246
15.0, 29340.41969065901, 20083.06474483785, -43586.50518494906, -30593.7714092459, -28835.13615550234, -21445.917659511288, -14054.732210008171, -37547.57792324757, -0.016, 0.868, 0.544, 192.0, 0.0, 0.0, 0.0, 0.0, 0.0, 0.0, 0.0, 0.0, 0.0, 1.6521697102460299E9, 0.0, 2022-05-10 10:01:50.246
16.0, 29358.703417623452, 20094.397079276692, -43577.34096972239, -30579.712161983512, -28830.352882188905, -21407.852638703902, -14031.39698879683, -37556.60802800751, -0.016, 0.868, 0.544, 192.0, 0.0, 0.0, 0.0, 0.0, 0.0, 0.0, 0.0, 0.0, 0.0, 1.6521697102460363E9, 0.0, 2022-05-10 10:01:50.246
17.0, 29368.5828886727, 20070.05602956486, -43591.064940817945, -30587.28940335386, -28832.386890934336, -21419.05086267601, -14029.340628306942, -37573.64005728246, -0.016, 0.868, 0.544, 192.0, 0.0, 0.0, 0.0, 0.0, 0.0, 0.0, 0.0, 0.0, 0.0, 1.652169710246043E9, 0.0, 2022-05-10 10:01:50.246
18.0, 29360.33509496869, 20052.375799700716, -43610.13097883832, -30603.650880295147, -28843.13808001734, -21446.588211844948, -14065.371640368896, -37597.13174070499, 0.022, 0.842, 0.532, 192.0, 0.0, 176.0, 26.0, 80.0, 16.0, 160.0, 0.0, 0.0, 0.0, 1.6521697102460496E9, 0.0, 2022-05-10 10:01:50.246
19.0, 29355.462414677433, 20026.000741243453, -43601.43615024521, -30592.58676678977, -28834.644417124324, -21442.34138039844, -14065.572806068994, -37605.96067976483, 0.022, 0.842, 0.532, 192.0, 0.0, 0.0, 0.0, 0.0, 0.0, 0.0, 0.0, 0.0, 0.0, 1.6521697102460563E9, 0.0, 2022-05-10 10:01:50.246
20.0, 29360.08922577968, 20002.10672642073, -43574.83757434339, -30564.781196687367, -28815.332509914937, -21423.029473189054, -14054.463989074708, -37591.655563313434, 0.022, 0.842, 0.532, 192.0, 0.0, 0.0, 0.0, 0.0, 0.0, 0.0, 0.0, 0.0, 0.0, 1.6521697102460628E9, 0.0, 2022-05-10 10:01:50.246
21.0, 29363.754911870354, 20009.080470690784, -43570.81426034144, -30551.124280825174, -28803.46373360917, -21401.728260723146, -14039.957706923213, -37577.84218524006, 0.022, 0.842, 0.532, 192.0, 0.0, 0.0, 0.0, 0.0, 0.0, 0.0, 0.0, 0.0, 0.0, 1.6521697102460697E9, 0.0, 2022-05-10 10:01:50.246
22.0, 29371.153339285058, 20001.033842686873, -43578.86088834535, -30550.364321513694, -28799.03808820702, -21386.104391348887, -14034.190956853743, -37561.57011527659, 0.022, 0.842, 0.532, 192.0, 0.0, 0.0, 0.0, 0.0, 0.0, 0.0, 0.0, 0.0, 0.0, 1.6521697102460785E9, 0.0, 2022-05-10 10:01:50.246
23.0, 29385.592566203188, 20010.265113146917, -43565.51689690553, -30538.361434741193, -28796.802913761487, -21373.05097258699, -14023.886802659847, -37543.75577494571, 0.022, 0.842, 0.532, 192.0, 0.0, 0.0, 0.0, 0.0, 0.0, 0.0, 0.0, 0.0, 0.0, 1.6521697102460852E9, 0.0, 2022-05-10 10:01:50.246
24.0, 29365.453644448957, 20005.615950300213, -43561.1806584812, -30536.573295184768, -28795.238291649617, -21377.633080200325, -14010.38634900884, -37550.81892619359, 0.022, 0.842, 0.532, 192.0, 0.0, 0.0, 0.0, 0.0, 0.0, 0.0, 0.0, 0.0, 0.0, 1.652169710246092E9, 0.0, 2022-05-10 10:01:50.246
25.0, 29372.695609652474, 19996.33997635126, -43551.45764964315, -30523.56457991178, -28778.474483308135, -21368.021830084544, -13999.366938992374, -37546.70620521381, 0.022, 0.842, 0.532, 192.0, 0.0, 0.0, 0.0, 0.0, 0.0, 0.0, 0.0, 0.0, 0.0, 1.6521697102460985E9, 0.0, 2022-05-10 10:01:50.246
26.0, 29396.29905179728, 19987.689851247054, -43545.847361784865, -30518.781306598343, -28779.435608319716, -21339.590411137393, -14011.77215716507, -37538.458411509804, 0.022, 0.842, 0.532, 192.0, 0.0, 0.0, 0.0, 0.0, 0.0, 0.0, 0.0, 0.0, 0.0, 1.6521697102461052E9, 0.0, 2022-05-10 10:01:50.246
27.0, 29397.617804720143, 19975.552854007823, -43551.6811670877, -30517.775478097854, -28779.927346697732, -21310.913123001235, -13994.069575556467, -37505.3554779715, 0.022, 0.842, 0.532, 192.0, 0.0, 0.0, 0.0, 0.0, 0.0, 0.0, 0.0, 0.0, 0.0, 1.6521697102461119E9, 0.0, 2022-05-10 10:01:50.246
28.0, 29370.214566017934, 19950.250679284418, -43559.99601602507, -30527.94552182502, -28783.660088021767, -21326.849916797866, -13981.664357383772, -37516.21842577677, 0.044, 0.882, 0.542, 192.0, 1.0, 96.0, 27.0, 144.0, 16.0, 240.0, 0.0, 0.0, 0.0, 1.6521697102461183E9, 0.0, 2022-05-10 10:01:50.246
29.0, 29385.458455736454, 19945.959144349, -43550.6306350983, -30521.061184532784, -28780.150864142284, -21339.970390793133, -13978.088078270923, -37529.11538232749, 0.044, 0.882, 0.542, 192.0, 0.0, 0.0, 0.0, 0.0, 0.0, 0.0, 0.0, 0.0, 0.0, 1.652169710246125E9, 0.0, 2022-05-10 10:01:50.246
30.0, 29396.880197153117, 19952.03881884084, -43541.13114370479, -30515.47324841896, -28767.87975643632, -21327.274599942517, -13982.62548239535, -37524.77914390316, 0.044, 0.882, 0.542, 192.0, 0.0, 0.0, 0.0, 0.0, 0.0, 0.0, 0.0, 0.0, 0.0, 1.6521697102461317E9, 0.0, 2022-05-10 10:01:50.246
31.0, 29395.203816318968, 19968.400295782125, -43541.779344293995, -30521.21764674397, -28763.45411103417, -21309.54966658946, -13993.399023222808, -37529.40595500541, 0.044, 0.882, 0.542, 192.0, 0.0, 0.0, 0.0, 0.0, 0.0, 0.0, 0.0, 0.0, 0.0, 1.6521697102461383E9, 0.0, 2022-05-10 10:01:50.246
32.0, 29388.073609837727, 19952.03881884084, -43549.51304787553, -30530.85124860421, -28765.8904511798, -21320.054986483454, -13958.798522805993, -37506.0036785607, 0.044, 0.882, 0.542, 192.0, 0.0, 0.0, 0.0, 0.0, 0.0, 0.0, 0.0, 0.0, 0.0, 1.6521697102461452E9, 0.0, 2022-05-10 10:01:50.246
33.0, 29384.676144680518, 19927.675417384555, -43564.779289338505, -30548.173850557072, -28786.141131656306, -21345.871251329336, -13951.310688413465, -37513.24564376422, 0.044, 0.882, 0.542, 192.0, 0.0, 0.0, 0.0, 0.0, 0.0, 0.0, 0.0, 0.0, 0.0, 1.6521697102461517E9, 0.0, 2022-05-10 10:01:50.246
34.0, 29384.56438595824, 19921.79690859281, -43557.98435902409, -30542.13887955414, -28801.094448696906, -21345.55832690696, -13981.597302150405, -37522.588672946535, 0.044, 0.882, 0.542, 192.0, 0.0, 0.0, 0.0, 0.0, 0.0, 0.0, 0.0, 0.0, 0.0, 1.6521697102461584E9, 0.0, 2022-05-10 10:01:50.246
35.0, 29379.021153333328, 19931.117586030672, -43549.62480659781, -30533.019367816374, -28785.962317700665, -21336.66233261375, -13991.901456344302, -37522.029879335154, 0.044, 0.882, 0.542, 192.0, 0.0, 0.0, 0.0, 0.0, 0.0, 0.0, 0.0, 0.0, 0.0, 1.6521697102461648E9, 0.0, 2022-05-10 10:01:50.246
36.0, 29397.751915186873, 19956.129188076164, -43522.80271325144, -30519.340100209727, -28758.156747598263, -21314.869381769822, -13953.836435536914, -37483.13784398292, 0.044, 0.882, 0.542, 192.0, 0.0, 0.0, 0.0, 0.0, 0.0, 0.0, 0.0, 0.0, 0.0, 1.6521697102461717E9, 0.0, 2022-05-10 10:01:50.246
37.0, 29402.222264077936, 19929.32944647425, -43543.321614661414, -30540.842478375733, -28778.049800163484, -21329.12979473231, -13964.073534497446, -37499.36521045747, 0.044, 0.882, 0.542, 192.0, 0.0, 0.0, 0.0, 0.0, 0.0, 0.0, 0.0, 0.0, 0.0, 1.652169710246178E9, 0.0, 2022-05-10 10:01:50.246
38.0, 29391.560481972752, 19921.193411492517, -43560.174829980715, -30562.635429219656, -28796.51234108357, -21354.49902468908, -13994.628369167849, -37556.16099311841, 0.034, 0.882, 0.55, 192.0, 1.0, 16.0, 27.0, 144.0, 17.0, 48.0, 0.0, 0.0, 0.0, 1.6521697102461848E9, 0.0, 2022-05-10 10:01:50.246
39.0, 29399.987089632406, 19949.580126950757, -43554.27396944451, -30558.075673350773, -28790.097390424897, -21344.239573984098, -13999.858677370392, -37556.80919370761, 0.034, 0.882, 0.55, 192.0, 0.0, 0.0, 0.0, 0.0, 0.0, 0.0, 0.0, 0.0, 0.0, 1.6521697102461915E9, 0.0, 2022-05-10 10:01:50.246
40.0, 29392.543958728787, 19954.653972942113, -43559.97366428062, -30560.24379256294, -28791.863178236865, -21341.020922782533, -13985.061822540978, -37556.429214051874, 0.034, 0.882, 0.55, 192.0, 0.0, 0.0, 0.0, 0.0, 0.0, 0.0, 0.0, 0.0, 0.0, 1.652169710246198E9, 0.0, 2022-05-10 10:01:50.246
41.0, 29397.684859953508, 19976.29046157485, -43551.54705662096, -30550.8113564028, -28794.724201527144, -21315.49523061457, -13978.378650948842, -37527.30489102661, 0.034, 0.882, 0.55, 192.0, 0.0, 0.0, 0.0, 0.0, 0.0, 0.0, 0.0, 0.0, 0.0, 1.6521697102462049E9, 0.0, 2022-05-10 10:01:50.246
42.0, 29400.72469719943, 19969.920214405087, -43562.0300247705, -30559.506184995913, -28819.17700996125, -21312.880076513302, -14024.57970673796, -37546.370929046985, 0.034, 0.882, 0.55, 192.0, 0.0, 0.0, 0.0, 0.0, 0.0, 0.0, 0.0, 0.0, 0.0, 1.6521697102462113E9, 0.0, 2022-05-10 10:01:50.246
43.0, 29378.44000797749, 19952.619964196678, -43577.89976333377, -30575.197109603538, -28830.397585677816, -21330.02386451052, -14036.247317343632, -37566.04046416765, 0.034, 0.882, 0.55, 192.0, 0.0, 0.0, 0.0, 0.0, 0.0, 0.0, 0.0, 0.0, 0.0, 1.652169710246221E9, 0.0, 2022-05-10 10:01:50.246
44.0, 29372.963830585937, 19939.23126926795, -43548.30605367495, -30560.646123963135, -28803.70960279818, -21316.903390515257, -13988.772212120559, -37522.18634154634, 0.034, 0.882, 0.55, 192.0, 0.0, 0.0, 0.0, 0.0, 0.0, 0.0, 0.0, 0.0, 0.0, 1.6521697102462275E9, 0.0, 2022-05-10 10:01:50.246
45.0, 29363.509042681344, 19935.699693644012, -43532.99510872306, -30553.51591748189, -28787.236367134617, -21308.901466000258, -13966.666336854261, -37523.929777613856, 0.034, 0.882, 0.55, 192.0, 0.0, 0.0, 0.0, 0.0, 0.0, 0.0, 0.0, 0.0, 0.0, 1.6521697102462344E9, 0.0, 2022-05-10 10:01:50.246
46.0, 29374.841377120185, 19970.680173716566, -43534.35856513483, -30551.504260480913, -28781.916651954252, -21308.052099710956, -13980.0997352719, -37555.33397857356, 0.034, 0.882, 0.55, 192.0, 0.0, 0.0, 0.0, 0.0, 0.0, 0.0, 0.0, 0.0, 0.0, 1.6521697102462409E9, 0.0, 2022-05-10 10:01:50.246
47.0, 29377.367124243632, 19965.606327725214, -43551.52470487651, -30569.296249067338, -28801.183855674728, -21321.21727719513, -14005.379558250852, -37583.988914965266, 0.034, 0.882, 0.55, 192.0, 0.0, 0.0, 0.0, 0.0, 0.0, 0.0, 0.0, 0.0, 0.0, 1.6521697102462475E9, 0.0, 2022-05-10 10:01:50.246
48.0, 29371.265098007334, 19930.491737185926, -43567.14857425077, -30586.39533357565, -28819.46758263917, -21346.430044940716, -14016.354264778409, -37577.57396430659, 0.028, 0.874, 0.56, 192.0, 0.0, 224.0, 27.0, 80.0, 17.0, 128.0, 0.0, 0.0, 0.0, 1.652169710246254E9, 0.0, 2022-05-10 10:01:50.246
49.0, 29379.44583647798, 19937.398426222615, -43563.0805567599, -30577.38758056016, -28812.27032092456, -21330.806175566457, -13995.433031968241, -37547.89084766994, 0.028, 0.874, 0.56, 192.0, 0.0, 0.0, 0.0, 0.0, 0.0, 0.0, 0.0, 0.0, 0.0, 1.652169710246261E9, 0.0, 2022-05-10 10:01:50.246
50.0, 29374.819025375728, 19915.22549572295, -43544.70742281764, -30544.731681910955, -28790.969108458652, -21300.564265318426, -13975.607034636383, -37518.56535894458, 0.028, 0.874, 0.56, 192.0, 0.0, 0.0, 0.0, 0.0, 0.0, 0.0, 0.0, 0.0, 0.0, 1.6521697102462687E9, 0.0, 2022-05-10 10:01:50.246
51.0, 29386.86661563714, 19923.585048149234, -43537.934844247684, -30541.960065598498, -28782.98953568811, -21298.910236228734, -13988.928674331746, -37526.99196660423, 0.028, 0.874, 0.56, 192.0, 0.0, 0.0, 0.0, 0.0, 0.0, 0.0, 0.0, 0.0, 0.0, 1.6521697102462752E9, 0.0, 2022-05-10 10:01:50.246
52.0, 29381.189272545493, 19940.080635557253, -43544.95329200665, -30558.030969861862, -28793.22663464864, -21313.125945702308, -14000.283360515043, -37552.942341916845, 0.028, 0.874, 0.56, 192.0, 0.0, 0.0, 0.0, 0.0, 0.0, 0.0, 0.0, 0.0, 0.0, 1.652169710246282E9, 0.0, 2022-05-10 10:01:50.246
53.0, 29378.81998763323, 19942.874603614164, -43557.67143460172, -30560.95904838551, -28808.068192966963, -21327.565172620438, -14003.457308227697, -37564.65465601142, 0.028, 0.874, 0.56, 192.0, 0.0, 0.0, 0.0, 0.0, 0.0, 0.0, 0.0, 0.0, 0.0, 1.6521697102462885E9, 0.0, 2022-05-10 10:01:50.246
54.0, 29382.619784190632, 19954.117531075186, -43546.92024551872, -30555.214650060494, -28804.76013478758, -21334.7847860795, -13994.315444745476, -37569.706150258324, 0.028, 0.874, 0.56, 192.0, 0.0, 0.0, 0.0, 0.0, 0.0, 0.0, 0.0, 0.0, 0.0, 1.6521697102462952E9, 0.0, 2022-05-10 10:01:50.246
55.0, 29374.86372886464, 19969.696696960535, -43550.20595195365, -30550.587838958247, -28796.51234108357, -21323.94419001868, -13978.71392711567, -37551.98121690527, 0.028, 0.874, 0.56, 192.0, 0.0, 0.0, 0.0, 0.0, 0.0, 0.0, 0.0, 0.0, 0.0, 1.652169710246302E9, 0.0, 2022-05-10 10:01:50.246
56.0, 29380.183444045004, 19970.00962138291, -43550.04948974246, -30545.558696455802, -28792.60078580389, -21309.37085263382, -13972.880121812836, -37521.02405083466, 0.028, 0.874, 0.56, 192.0, 0.0, 0.0, 0.0, 0.0, 0.0, 0.0, 0.0, 0.0, 0.0, 1.6521697102463083E9, 0.0, 2022-05-10 10:01:50.246
57.0, 29399.450647765476, 19952.418798496583, -43565.24867597207, -30552.42068200358, -28815.019585492562, -21325.620570852825, -13993.376671478352, -37549.38841454845, 0.028, 0.874, 0.56, 192.0, 0.0, 0.0, 0.0, 0.0, 0.0, 0.0, 0.0, 0.0, 0.0, 1.6521697102463152E9, 0.0, 2022-05-10 10:01:50.246
58.0, 29385.167883058537, 19947.657876927602, -43578.36914996734, -30563.52949899787, -28820.76398381758, -21341.490309416095, -14011.34747402042, -37568.63326652447, 0.05, 0.868, 0.582, 192.0, 1.0, 144.0, 27.0, 32.0, 18.0, 48.0, 0.0, 0.0, 0.0, 1.652169710246322E9, 0.0, 2022-05-10 10:01:50.246
59.0, 29386.263118536845, 19982.77246746689, -43535.58791107988, -30536.03685331784, -28793.78542826002, -21311.494268357073, -13990.381537721341, -37529.69652768332, 0.05, 0.868, 0.582, 192.0, 0.0, 0.0, 0.0, 0.0, 0.0, 0.0, 0.0, 0.0, 0.0, 1.6521697102463286E9, 0.0, 2022-05-10 10:01:50.246
60.0, 29390.95698487246, 19979.307947076315, -43515.627803281284, -30516.724946108458, -28779.927346697732, -21300.8771897408, -13962.352450174387, -37500.39339070242, 0.05, 0.868, 0.582, 192.0, 0.0, 0.0, 0.0, 0.0, 0.0, 0.0, 0.0, 0.0, 0.0, 1.6521697102463353E9, 0.0, 2022-05-10 10:01:50.246
61.0, 29404.72565945693, 19994.127153650184, -43516.208948637126, -30513.08161176224, -28772.104236138373, -21296.563303060928, -13951.735371558116, -37494.201957488294, 0.05, 0.868, 0.582, 192.0, 0.0, 0.0, 0.0, 0.0, 0.0, 0.0, 0.0, 0.0, 0.0, 1.652169710246342E9, 0.0, 2022-05-10 10:01:50.246
62.0, 29410.939444415504, 20012.05325270334, -43530.111733688325, -30522.22347524446, -28778.22861411913, -21298.194980406166, -13968.096848499401, -37517.201902532805, 0.05, 0.868, 0.582, 192.0, 0.0, 0.0, 0.0, 0.0, 0.0, 0.0, 0.0, 0.0, 0.0, 1.6521697102463486E9, 0.0, 2022-05-10 10:01:50.246
63.0, 29400.657641966063, 19988.67332800309, -43539.43241112619, -30521.597626399714, -28782.475445565637, -21311.11428870133, -13974.936482302724, -37526.52257997067, 0.05, 0.868, 0.582, 192.0, 0.0, 0.0, 0.0, 0.0, 0.0, 0.0, 0.0, 0.0, 0.0, 1.6521697102463553E9, 0.0, 2022-05-10 10:01:50.246
64.0, 29386.531339470308, 19965.785141680855, -43526.64721329775, -30514.08744026273, -28771.478387293624, -21315.808155036946, -13952.204758191678, -37520.9569956013, 0.05, 0.868, 0.582, 192.0, 0.0, 0.0, 0.0, 0.0, 0.0, 0.0, 0.0, 0.0, 0.0, 1.652169710246364E9, 0.0, 2022-05-10 10:01:50.246
65.0, 29389.593528460686, 19981.118438377194, -43507.69293399965, -30495.73665806492, -28753.015846373542, -21296.250378638553, -13927.506080568563, -37494.13490225493, 0.05, 0.868, 0.582, 192.0, 0.0, 0.0, 0.0, 0.0, 0.0, 0.0, 0.0, 0.0, 0.0, 1.6521697102463708E9, 0.0, 2022-05-10 10:01:50.246
66.0, 29412.97345316094, 19985.901711690633, -43498.8192914509, -30480.60452706868, -28747.5843724709, -21277.340802829363, -13921.024074676523, -37478.622791602946, 0.05, 0.868, 0.582, 192.0, 0.0, 0.0, 0.0, 0.0, 0.0, 0.0, 0.0, 0.0, 0.0, 1.6521697102463775E9, 0.0, 2022-05-10 10:01:50.246
67.0, 29419.880142197628, 19980.783162210366, -43527.85420749834, -30508.45480065999, -28771.009000660062, -21289.522503557506, -13944.135778443311, -37506.51776868317, 0.05, 0.868, 0.582, 192.0, 0.0, 0.0, 0.0, 0.0, 0.0, 0.0, 0.0, 0.0, 0.0, 1.652169710246384E9, 0.0, 2022-05-10 10:01:50.246
68.0, 29410.514761270853, 19981.833694199766, -43537.42075412521, -30521.21764674397, -28782.296631609996, -21304.431117109194, -13964.744086831104, -37521.67225142387, 0.076, 0.85, 0.6, 192.0, 2.0, 96.0, 26.0, 144.0, 18.0, 192.0, 0.0, 0.0, 0.0, 1.6521697102463906E9, 0.0, 2022-05-10 10:01:50.246
69.0, 29404.703307712476, 19985.678194246077, -43545.24386468457, -30524.65981539009, -28785.247061878094, -21320.636131839292, -13990.67211039926, -37535.5079812417, 0.076, 0.85, 0.6, 192.0, 0.0, 0.0, 0.0, 0.0, 0.0, 0.0, 0.0, 0.0, 0.0, 1.6521697102463975E9, 0.0, 2022-05-10 10:01:50.246
70.0, 29407.318461813746, 19996.697604262543, -43528.3235941319, -30511.42758267255, -28772.17129137174, -21313.193000935677, -13977.126953259345, -37509.445847206815, 0.076, 0.85, 0.6, 192.0, 0.0, 0.0, 0.0, 0.0, 0.0, 0.0, 0.0, 0.0, 0.0, 1.6521697102464044E9, 0.0, 2022-05-10 10:01:50.246
71.0, 29426.11627890066, 20003.693700277057, -43526.982489464586, -30513.126315251153, -28765.46576803515, -21307.8285822664, -13965.548749631495, -37499.454617435294, 0.076, 0.85, 0.6, 192.0, 0.0, 0.0, 0.0, 0.0, 0.0, 0.0, 0.0, 0.0, 0.0, 1.6521697102464108E9, 0.0, 2022-05-10 10:01:50.246
72.0, 29441.337816874722, 19988.181589625074, -43542.829876283395, -30526.313844479784, -28782.855425221376, -21321.574905106416, -13973.863598568869, -37529.85298989451, 0.076, 0.85, 0.6, 192.0, 0.0, 0.0, 0.0, 0.0, 0.0, 0.0, 0.0, 0.0, 0.0, 1.6521697102464175E9, 0.0, 2022-05-10 10:01:50.246
73.0, 29416.035642151313, 19996.04940367334, -43542.762821050026, -30523.27400723386, -28786.45405607868, -21319.630303338803, -13962.91124378577, -37526.12024857048, 0.076, 0.85, 0.6, 192.0, 0.0, 0.0, 0.0, 0.0, 0.0, 0.0, 0.0, 0.0, 0.0, 1.6521697102464242E9, 0.0, 2022-05-10 10:01:50.246
74.0, 29406.37968854662, 19996.9211217071, -43534.76089653503, -30514.579178640746, -28774.652335006278, -21306.44277411017, -13955.62457509334, -37515.19024553183, 0.076, 0.85, 0.6, 192.0, 0.0, 0.0, 0.0, 0.0, 0.0, 0.0, 0.0, 0.0, 0.0, 1.6521697102464309E9, 0.0, 2022-05-10 10:01:50.246
75.0, 29412.168790360545, 19971.90951966161, -43522.690954529164, -30519.675376376556, -28775.658163506767, -21302.911198486236, -13960.676069340238, -37521.202864790306, 0.076, 0.85, 0.6, 192.0, 0.0, 0.0, 0.0, 0.0, 0.0, 0.0, 0.0, 0.0, 0.0, 1.6521697102464373E9, 0.0, 2022-05-10 10:01:50.246
76.0, 29425.646892267097, 20001.905560720632, -43526.75897202003, -30507.04664075931, -28776.395771073792, -21293.50111407055, -13958.440894894708, -37522.34280375753, 0.076, 0.85, 0.6, 192.0, 0.0, 0.0, 0.0, 0.0, 0.0, 0.0, 0.0, 0.0, 0.0, 1.652169710246444E9, 0.0, 2022-05-10 10:01:50.246
77.0, 29428.843191724205, 20016.88122950569, -43539.81239078193, -30518.960120553988, -28787.88456772382, -21290.17070414671, -13975.71879335866, -37530.16591431689, 0.076, 0.85, 0.6, 192.0, 0.0, 0.0, 0.0, 0.0, 0.0, 0.0, 0.0, 0.0, 0.0, 1.6521697102464514E9, 0.0, 2022-05-10 10:01:50.246
78.0, 29425.11045040017, 19977.273938330884, -43569.36139695185, -30549.514955224393, -28815.824248292956, -21315.338768403384, -14018.38827352384, -37558.12794663048, 0.058, 0.86, 0.604, 192.0, 1.0, 208.0, 26.0, 224.0, 18.0, 224.0, 0.0, 0.0, 0.0, 1.6521697102464583E9, 0.0, 2022-05-10 10:01:50.246
79.0, 29409.754801959374, 19983.28655758936, -43576.55865866645, -30568.111606611208, -28826.418975164772, -21333.55544013446, -14020.511689247096, -37566.06281591211, 0.058, 0.86, 0.604, 192.0, 0.0, 0.0, 0.0, 0.0, 0.0, 0.0, 0.0, 0.0, 0.0, 1.6521697102464652E9, 0.0, 2022-05-10 10:01:50.246
80.0, 29389.14649357158, 20001.413822342616, -43566.612132383845, -30567.32929555527, -28813.41025989178, -21330.9849895221, -13974.377688691342, -37548.114365114496, 0.058, 0.86, 0.604, 192.0, 0.0, 0.0, 0.0, 0.0, 0.0, 0.0, 0.0, 0.0, 0.0, 1.652169710246472E9, 0.0, 2022-05-10 10:01:50.246
81.0, 29381.211624289946, 19963.706429446513, -43577.45272844467, -30571.33025781277, -28812.38207964684, -21328.861573798844, -13969.10267699989, -37554.43990879535, 0.058, 0.86, 0.604, 192.0, 0.0, 0.0, 0.0, 0.0, 0.0, 0.0, 0.0, 0.0, 0.0, 1.6521697102464783E9, 0.0, 2022-05-10 10:01:50.246
82.0, 29377.657696921553, 19950.764769406887, -43601.905536878774, -30593.05615342333, -28830.62110312237, -21342.83141408341, -13993.421374967264, -37579.94324921886, 0.058, 0.86, 0.604, 192.0, 0.0, 0.0, 0.0, 0.0, 0.0, 0.0, 0.0, 0.0, 0.0, 1.6521697102464852E9, 0.0, 2022-05-10 10:01:50.246
83.0, 29395.315575041244, 20000.855028731232, -43591.24375477359, -30598.979365703985, -28833.28096071255, -21356.264812501053, -14018.991770624134, -37597.06468547162, 0.058, 0.86, 0.604, 192.0, 0.0, 0.0, 0.0, 0.0, 0.0, 0.0, 0.0, 0.0, 0.0, 1.652169710246492E9, 0.0, 2022-05-10 10:01:50.246
84.0, 29381.30103126777, 20021.19511618556, -43593.07659781892, -30599.560511059823, -28833.683292112746, -21352.308553732462, -14024.847927671424, -37579.38445560747, 0.058, 0.86, 0.604, 192.0, 0.0, 0.0, 0.0, 0.0, 0.0, 0.0, 0.0, 0.0, 0.0, 1.6521697102464983E9, 0.0, 2022-05-10 10:01:50.246
85.0, 29376.29424050978, 20047.86074732074, -43580.55962092395, -30586.708257998023, -28815.779544804045, -21320.36791090583, -14011.146308320322, -37548.51669651469, 0.058, 0.86, 0.604, 192.0, 0.0, 0.0, 0.0, 0.0, 0.0, 0.0, 0.0, 0.0, 0.0, 1.6521697102465053E9, 0.0, 2022-05-10 10:01:50.246
86.0, 29376.897737610074, 20062.05410504986, -43577.229211000114, -30589.122246399194, -28813.834943036432, -21315.092899214378, -14007.033587340546, -37561.36894957649, 0.058, 0.86, 0.604, 192.0, 0.0, 0.0, 0.0, 0.0, 0.0, 0.0, 0.0, 0.0, 0.0, 1.652169710246514E9, 0.0, 2022-05-10 10:01:50.246
87.0, 29374.595507931175, 20064.11046553975, -43602.35257176788, -30614.446772867057, -28835.694949113724, -21337.0870157584, -14016.913058389791, -37567.04629266814, 0.058, 0.86, 0.604, 192.0, 0.0, 0.0, 0.0, 0.0, 0.0, 0.0, 0.0, 0.0, 0.0, 1.6521697102465203E9, 0.0, 2022-05-10 10:01:50.246
88.0, 29355.507118166344, 20086.909244884166, -43610.354496282875, -30627.6790055846, -28844.501536429114, -21353.98493456661, -14021.003427625112, -37574.24355438275, 0.034, 0.848, 0.608, 192.0, 1.0, 16.0, 26.0, 128.0, 19.0, 0.0, 0.0, 0.0, 0.0, 1.6521697102465272E9, 0.0, 2022-05-10 10:01:50.246
89.0, 29341.827850559697, 20129.176393649148, -43605.48181599162, -30624.68387182759, -28845.7085306297, -21355.594260167392, -14019.885840402347, -37571.29312411465, 0.034, 0.848, 0.608, 192.0, 0.0, 0.0, 0.0, 0.0, 0.0, 0.0, 0.0, 0.0, 0.0, 1.6521697102465339E9, 0.0, 2022-05-10 10:01:50.246
90.0, 29349.24862971886, 20126.717701759066, -43587.89099310529, -30617.710127557533, -28835.225562480162, -21348.531108919517, -14022.34453229243, -37573.550650304634, 0.034, 0.848, 0.608, 192.0, 0.0, 0.0, 0.0, 0.0, 0.0, 0.0, 0.0, 0.0, 0.0, 1.6521697102465403E9, 0.0, 2022-05-10 10:01:50.246
91.0, 29372.494443952375, 20101.951968902587, -43588.29332450549, -30614.35736588924, -28826.731899587143, -21350.878042087323, -14029.228869584666, -37581.887850986466, 0.034, 0.848, 0.608, 192.0, 0.0, 0.0, 0.0, 0.0, 0.0, 0.0, 0.0, 0.0, 0.0, 1.6521697102465472E9, 0.0, 2022-05-10 10:01:50.246
92.0, 29381.52454871232, 20097.660433967165, -43589.07563556143, -30619.900598514152, -28828.452983910203, -21355.638963656304, -14016.041340356034, -37579.987952707765, 0.034, 0.848, 0.608, 192.0, 0.0, 0.0, 0.0, 0.0, 0.0, 0.0, 0.0, 0.0, 0.0, 1.6521697102465537E9, 0.0, 2022-05-10 10:01:50.246
93.0, 29353.495461165367, 20090.910207141664, -43590.61790592884, -30626.226142195006, -28840.120594515873, -21367.731257406624, -14020.44463401373, -37585.084150443574, 0.034, 0.848, 0.608, 192.0, 0.0, 0.0, 0.0, 0.0, 0.0, 0.0, 0.0, 0.0, 0.0, 1.6521697102465603E9, 0.0, 2022-05-10 10:01:50.246
94.0, 29338.586847613675, 20099.582683990324, -43583.42064421423, -30621.934607259587, -28835.583190391448, -21373.542710965005, -14016.734244434148, -37572.164842148406, 0.034, 0.848, 0.608, 192.0, 0.0, 0.0, 0.0, 0.0, 0.0, 0.0, 0.0, 0.0, 0.0, 1.652169710246567E9, 0.0, 2022-05-10 10:01:50.246
95.0, 29337.826888302196, 20138.407664109192, -43572.04360628648, -30617.218389179518, -28826.217809464673, -21367.46303647316, -14011.883915887347, -37559.781975720165, 0.034, 0.848, 0.608, 192.0, 0.0, 0.0, 0.0, 0.0, 0.0, 0.0, 0.0, 0.0, 0.0, 1.6521697102465763E9, 0.0, 2022-05-10 10:01:50.246
96.0, 29349.4274436745, 20162.636955098744, -43572.46828943113, -30609.082354197784, -28819.51228612808, -21370.167597552252, -13996.237694768632, -37559.13377513096, 0.034, 0.848, 0.608, 192.0, 0.0, 0.0, 0.0, 0.0, 0.0, 0.0, 0.0, 0.0, 0.0, 1.652169710246583E9, 0.0, 2022-05-10 10:01:50.246
97.0, 29360.46920543542, 20152.51161486049, -43584.02414131453, -30617.352499646247, -28830.03995776653, -21369.0947138184, -14021.875145658869, -37588.302801645135, 0.016, 0.8300000000000001, 0.596, 192.0, 0.0, 128.0, 25.0, 240.0, 18.0, 160.0, 0.0, 0.0, 0.0, 1.6521697102465897E9, 0.0, 2022-05-10 10:01:50.246
98.0, 29366.86180434964, 20137.111262930783, -43586.885164604806, -30621.44286888157, -28839.94178056023, -21371.66516443076, -14051.02182042859, -37588.526319089695, 0.016, 0.8300000000000001, 0.596, 192.0, 0.0, 0.0, 0.0, 0.0, 0.0, 0.0, 0.0, 0.0, 0.0, 1.6521697102465963E9, 0.0, 2022-05-10 10:01:50.246
99.0, 29366.95121132746, 20138.07238794236, -43593.098949563384, -30610.91519724312, -28830.21877172217, -21372.55923420897, -14045.54564303704, -37596.01415348222, 0.016, 0.8300000000000001, 0.596, 192.0, 0.0, 0.0, 0.0, 0.0, 0.0, 0.0, 0.0, 0.0, 0.0, 1.6521697102466028E9, 0.0, 2022-05-10 10:01:50.246
100.0, 29346.14173723957, 20142.31921938887, -43597.502243221075, -30608.456505353035, -28837.19251599223, -21377.7448389226, -14049.501901805628, -37604.44076114187, 0.016, 0.8300000000000001, 0.596, 192.0, 0.0, 0.0, 0.0, 0.0, 0.0, 0.0, 0.0, 0.0, 0.0, 1.6521697102466097E9, 0.0, 2022-05-10 10:01:50.246
101.0, 29347.013455273325, 20126.874163970253, -43581.5878011689, -30605.595482062756, -28831.828097322956, -21381.432876757728, -14042.818730213492, -37608.01704025472, 0.016, 0.8300000000000001, 0.596, 192.0, 0.0, 0.0, 0.0, 0.0, 0.0, 0.0, 0.0, 0.0, 0.0, 1.6521697102466161E9, 0.0, 2022-05-10 10:01:50.246
102.0, 29342.56545812672, 20110.55739051788, -43594.75297865307, -30606.266034396416, -28836.119632258375, -21382.394001769306, -14046.35030583743, -37609.8275315556, 0.016, 0.8300000000000001, 0.596, 192.0, 0.0, 0.0, 0.0, 0.0, 0.0, 0.0, 0.0, 0.0, 0.0, 1.6521697102466228E9, 0.0, 2022-05-10 10:01:50.246
103.0, 29358.926935068004, 20128.50584131549, -43595.423530986736, -30603.092086683762, -28834.93498980224, -21372.55923420897, -14044.472759303184, -37596.841168027066, 0.016, 0.8300000000000001, 0.596, 192.0, 0.0, 0.0, 0.0, 0.0, 0.0, 0.0, 0.0, 0.0, 0.0, 1.6521697102466297E9, 0.0, 2022-05-10 10:01:50.246
104.0, 29359.977467057404, 20132.99854195101, -43592.96483909665, -30602.086258183273, -28830.889324055832, -21381.812856413468, -14043.533986036062, -37600.79742679565, 0.016, 0.8300000000000001, 0.596, 192.0, 0.0, 0.0, 0.0, 0.0, 0.0, 0.0, 0.0, 0.0, 0.0, 1.652169710246636E9, 0.0, 2022-05-10 10:01:50.246
105.0, 29348.533373896287, 20143.392103122726, -43579.62084765683, -30581.589708517757, -28820.853390795397, -21379.04124010101, -14031.620506241383, -37594.24836567025, 0.016, 0.8300000000000001, 0.596, 192.0, 0.0, 0.0, 0.0, 0.0, 0.0, 0.0, 0.0, 0.0, 0.0, 1.6521697102466428E9, 0.0, 2022-05-10 10:01:50.246
106.0, 29334.272960933802, 20159.28419343045, -43574.77051911003, -30573.364266558205, -28814.84077153692, -21365.85371087238, -14025.518480005085, -37593.10842670303, 0.016, 0.8300000000000001, 0.596, 192.0, 0.0, 0.0, 0.0, 0.0, 0.0, 0.0, 0.0, 0.0, 0.0, 1.6521697102466495E9, 0.0, 2022-05-10 10:01:50.246
107.0, 29336.374024912602, 20143.45915835609, -43594.59651644189, -30585.233042863973, -28827.201286220705, -21368.84884462939, -14044.517462792095, -37597.77994129419, 0.014, 0.836, 0.5720000000000001, 192.0, 0.0, 112.0, 26.0, 32.0, 17.0, 224.0, 0.0, 0.0, 0.0, 1.652169710725104E9, 0.0, 2022-05-10 10:01:50.725
108.0, 29354.501289665855, 20146.32018164637, -43591.78019664052, -30575.890013681656, -28822.79799256301, -21366.85953937287, -14041.768198224092, -37590.35916213503, 0.014, 0.836, 0.5720000000000001, 192.0, 0.0, 0.0, 0.0, 0.0, 0.0, 0.0, 0.0, 0.0, 0.0, 1.6521697107253006E9, 0.0, 2022-05-10 10:01:50.725
109.0, 29347.125213995605, 20158.27836492996, -43583.53240293651, -30566.502281010424, -28818.12647797185, -21367.8430161289, -14026.613715483394, -37584.48065334328, 0.014, 0.836, 0.5720000000000001, 192.0, 0.0, 0.0, 0.0, 0.0, 0.0, 0.0, 0.0, 0.0, 0.0, 1.6521697107256844E9, 0.0, 2022-05-10 10:01:50.725
110.0, 29347.259324462335, 20164.380391166258, -43551.05531824295, -30549.17967905756, -28800.42389636325, -21361.785693381513, -14005.625427439862, -37570.33199910307, 0.014, 0.836, 0.5720000000000001, 192.0, 0.0, 0.0, 0.0, 0.0, 0.0, 0.0, 0.0, 0.0, 0.0, 1.6521697107257094E9, 0.0, 2022-05-10 10:01:50.725
111.0, 29363.106711281147, 20153.539795105433, -43555.10098398936, -30542.47415572097, -28801.27326265255, -21352.867347343847, -14012.554468221006, -37581.798444008644, 0.014, 0.836, 0.5720000000000001, 192.0, 0.0, 0.0, 0.0, 0.0, 0.0, 0.0, 0.0, 0.0, 0.0, 1.6521697107257204E9, 0.0, 2022-05-10 10:01:50.725
112.0, 29370.81806311823, 20157.518405618477, -43564.82399282742, -30539.74724289742, -28805.922425499255, -21349.022847297532, -14020.466985758185, -37577.14928116194, 0.014, 0.836, 0.5720000000000001, 192.0, 0.0, 0.0, 0.0, 0.0, 0.0, 0.0, 0.0, 0.0, 0.0, 1.6521697107257295E9, 0.0, 2022-05-10 10:01:50.725
113.0, 29378.417656233032, 20160.5582428644, -43567.439146928686, -30535.27689400636, -28810.549236601502, -21353.627306655326, -14023.618581726383, -37583.54188007616, 0.014, 0.836, 0.5720000000000001, 192.0, 0.0, 0.0, 0.0, 0.0, 0.0, 0.0, 0.0, 0.0, 0.0, 1.6521697107257392E9, 0.0, 2022-05-10 10:01:50.725
114.0, 29366.14654852707, 20164.536853377445, -43549.15541996425, -30521.61997814417, -28798.07696319544, -21353.76141712206, -14006.184221051244, -37577.618667795505, 0.014, 0.836, 0.5720000000000001, 192.0, 0.0, 0.0, 0.0, 0.0, 0.0, 0.0, 0.0, 0.0, 0.0, 1.6521697107257469E9, 0.0, 2022-05-10 10:01:50.725
115.0, 29363.129063025604, 20179.46781867359, -43522.489788829065, -30504.56559712477, -28778.340372841405, -21342.093806516386, -13993.331967989441, -37557.122118129984, 0.014, 0.836, 0.5720000000000001, 192.0, 0.0, 0.0, 0.0, 0.0, 0.0, 0.0, 0.0, 0.0, 0.0, 1.6521697107257545E9, 0.0, 2022-05-10 10:01:50.725
116.0, 29382.128045812613, 20192.834161857863, -43512.364448590815, -30491.333364407226, -28765.93515466871, -21333.063701756444, -13985.374746963353, -37542.21350457829, 0.014, 0.836, 0.5720000000000001, 192.0, 0.0, 0.0, 0.0, 0.0, 0.0, 0.0, 0.0, 0.0, 0.0, 1.6521697107257636E9, 0.0, 2022-05-10 10:01:50.725
117.0, 29393.885063396105, 20180.697164618632, -43526.35664061984, -30493.725001063944, -28771.768959971545, -21340.149204748777, -13995.634197668338, -37565.52637404518, 0.022, 0.848, 0.526, 192.0, 0.0, 176.0, 26.0, 128.0, 16.0, 112.0, 0.0, 0.0, 0.0, 1.6521697107257712E9, 0.0, 2022-05-10 10:01:50.725
118.0, 29377.277717265813, 20143.23564091154, -43551.45764964315, -30503.336251179728, -28784.151826399786, -21355.840129356402, -14010.67692168676, -37579.920897474396, 0.022, 0.848, 0.526, 192.0, 0.0, 0.0, 0.0, 0.0, 0.0, 0.0, 0.0, 0.0, 0.0, 1.6521697107257807E9, 0.0, 2022-05-10 10:01:50.725
119.0, 29387.20189180397, 20105.66235848217, -43532.23514941158, -30482.07974220273, -28770.69607623769, -21337.064664013942, -13989.979206321146, -37530.501190483716, 0.022, 0.848, 0.526, 192.0, 0.0, 0.0, 0.0, 0.0, 0.0, 0.0, 0.0, 0.0, 0.0, 1.6521697107257912E9, 0.0, 2022-05-10 10:01:50.725
120.0, 29404.72565945693, 20072.604128432766, -43493.72309371509, -30451.74842497688, -28738.062529332943, -21302.35240487485, -13954.954022759679, -37483.92015503885, 0.022, 0.848, 0.526, 192.0, 0.0, 0.0, 0.0, 0.0, 0.0, 0.0, 0.0, 0.0, 0.0, 1.6521697107258012E9, 0.0, 2022-05-10 10:01:50.725
121.0, 29417.62261600764, 20033.30976168034, -43485.87763141128, -30445.936971418498, -28731.40170948526, -21290.573035546906, -13951.71301981366, -37494.626640632945, 0.022, 0.848, 0.526, 192.0, 0.0, 0.0, 0.0, 0.0, 0.0, 0.0, 0.0, 0.0, 0.0, 1.6521697107258108E9, 0.0, 2022-05-10 10:01:50.725
122.0, 29411.520589771342, 19976.402220297125, -43536.817257024915, -30479.50929159037, -28771.746608227088, -21315.539934103483, -13988.146363275811, -37530.009452105696, 0.022, 0.848, 0.526, 192.0, 0.0, 0.0, 0.0, 0.0, 0.0, 0.0, 0.0, 0.0, 0.0, 1.6521697107258222E9, 0.0, 2022-05-10 10:01:50.725
123.0, 29414.58277876172, 19953.13405431915, -43559.77249858052, -30495.691954576014, -28800.200378918697, -21324.70414933016, -14021.741035192137, -37547.48851626975, 0.022, 0.848, 0.526, 192.0, 0.0, 0.0, 0.0, 0.0, 0.0, 0.0, 0.0, 0.0, 0.0, 1.652169710725832E9, 0.0, 2022-05-10 10:01:50.725
124.0, 29400.970566388438, 19917.885353313133, -43559.392518924775, -30493.009745241376, -28804.223692920652, -21335.321227946428, -14020.131709591355, -37560.74310073174, 0.022, 0.848, 0.526, 192.0, 0.0, 0.0, 0.0, 0.0, 0.0, 0.0, 0.0, 0.0, 0.0, 1.652169710725842E9, 0.0, 2022-05-10 10:01:50.725
125.0, 29402.512836755854, 19904.876638040143, -43540.12531520431, -30473.004933953875, -28774.719390239647, -21305.772221776515, -13973.014232279567, -37522.2086932908, 0.022, 0.848, 0.526, 192.0, 0.0, 0.0, 0.0, 0.0, 0.0, 0.0, 0.0, 0.0, 0.0, 1.6521697107258503E9, 0.0, 2022-05-10 10:01:50.725
126.0, 29400.948214643984, 19879.462704594458, -43541.62288208281, -30473.161396165062, -28769.511433781558, -21291.40005009175, -13966.889854298814, -37524.42151599187, 0.022, 0.848, 0.526, 192.0, 0.0, 0.0, 0.0, 0.0, 0.0, 0.0, 0.0, 0.0, 0.0, 1.6521697107258623E9, 0.0, 2022-05-10 10:01:50.725
127.0, 29392.3874965176, 19845.733922211402, -43542.51695186102, -30470.07685543023, -28779.904994953275, -21289.857779724334, -13979.987976549624, -37523.2592252802, 0.056, 0.882, 0.506, 192.0, 1.0, 192.0, 27.0, 144.0, 15.0, 208.0, 0.0, 0.0, 0.0, 1.6521697107258708E9, 0.0, 2022-05-10 10:01:50.725
128.0, 29376.473054465423, 19815.179087540997, -43563.14761199327, -30490.23812892892, -28800.17802717424, -21315.562285847936, -14004.373729750363, -37541.58765573355, 0.056, 0.882, 0.506, 192.0, 0.0, 0.0, 0.0, 0.0, 0.0, 0.0, 0.0, 0.0, 0.0, 1.6521697107259276E9, 0.0, 2022-05-10 10:01:50.725
129.0, 29363.084359536693, 19803.891456591067, -43587.89099310529, -30505.727887836445, -28813.79023954752, -21331.253210455565, -14022.612753225894, -37575.74112126126, 0.056, 0.882, 0.506, 192.0, 0.0, 0.0, 0.0, 0.0, 0.0, 0.0, 0.0, 0.0, 0.0, 1.6521697107259383E9, 0.0, 2022-05-10 10:01:50.725
130.0, 29366.90650783855, 19787.529979649782, -43588.78506288351, -30509.32651869375, -28820.94279777322, -21326.067605741933, -14035.800282454526, -37577.66337128441, 0.056, 0.882, 0.506, 192.0, 0.0, 0.0, 0.0, 0.0, 0.0, 0.0, 0.0, 0.0, 0.0, 1.6521697107259495E9, 0.0, 2022-05-10 10:01:50.725
131.0, 29390.219377305435, 19766.385229395062, -43596.16113855376, -30526.38089971315, -28825.346091430914, -21323.251285940565, -14032.849852186424, -37558.82085070859, 0.056, 0.882, 0.506, 192.0, 0.0, 0.0, 0.0, 0.0, 0.0, 0.0, 0.0, 0.0, 0.0, 1.6521697107259583E9, 0.0, 2022-05-10 10:01:50.725
132.0, 29404.30097631228, 19753.62238331108, -43616.545929497, -30539.99311208643, -28849.7094928872, -21349.84986184238, -14048.764294238603, -37579.47386258529, 0.056, 0.882, 0.506, 192.0, 0.0, 0.0, 0.0, 0.0, 0.0, 0.0, 0.0, 0.0, 0.0, 1.6521697107259674E9, 0.0, 2022-05-10 10:01:50.725
133.0, 29376.96479284344, 19733.751682490314, -43653.53806657053, -30560.132033840662, -28881.471321758192, -21388.250158816598, -14086.941073768268, -37598.74106630577, 0.056, 0.882, 0.506, 192.0, 0.0, 0.0, 0.0, 0.0, 0.0, 0.0, 0.0, 0.0, 0.0, 1.65216971072598E9, 0.0, 2022-05-10 10:01:50.725
134.0, 29359.70924612394, 19709.120060100566, -43656.510848583086, -30577.991077660452, -28896.312880076515, -21408.85846720439, -14119.909896839847, -37629.22884574281, 0.056, 0.882, 0.506, 192.0, 0.0, 0.0, 0.0, 0.0, 0.0, 0.0, 0.0, 0.0, 0.0, 1.652169710725992E9, 0.0, 2022-05-10 10:01:50.725
135.0, 29362.279696736303, 19710.416461278972, -43656.73436602764, -30578.751036971935, -28895.57527250949, -21414.893438207324, -14122.681513152304, -37652.564066954146, 0.056, 0.882, 0.506, 192.0, 0.0, 0.0, 0.0, 0.0, 0.0, 0.0, 0.0, 0.0, 0.0, 1.6521697107260022E9, 0.0, 2022-05-10 10:01:50.726
136.0, 29351.66261812003, 19699.017071606766, -43679.73431107215, -30597.86177848122, -28908.76280173812, -21433.378330871863, -14109.538687412583, -37660.45423274687, 0.056, 0.882, 0.506, 192.0, 0.0, 0.0, 0.0, 0.0, 0.0, 0.0, 0.0, 0.0, 0.0, 1.6521697107260137E9, 0.0, 2022-05-10 10:01:50.726
137.0, 29330.13788820957, 19643.249469190774, -43729.154018062836, -30646.67798837161, -28950.11352898044, -21475.176093003287, -14140.071170338533, -37699.36861984356, 0.08600000000000001, 0.89, 0.51, 192.0, 2.0, 176.0, 27.0, 208.0, 15.0, 240.0, 0.0, 0.0, 0.0, 1.652169710726022E9, 0.0, 2022-05-10 10:01:50.726
138.0, 29278.281841073258, 19586.25252082974, -43768.224867370714, -30691.247366815493, -28991.665421922855, -21523.791137193577, -14181.71247025877, -37739.51235288529, 0.08600000000000001, 0.89, 0.51, 192.0, 0.0, 0.0, 0.0, 0.0, 0.0, 0.0, 0.0, 0.0, 0.0, 1.6521697107260313E9, 0.0, 2022-05-10 10:01:50.726
139.0, 29248.26344826978, 19590.275834831697, -43783.1334809224, -30707.65354724569, -29013.480724511235, -21549.003904939163, -14202.343130391018, -37748.98949253434, 0.08600000000000001, 0.89, 0.51, 192.0, 0.0, 0.0, 0.0, 0.0, 0.0, 0.0, 0.0, 0.0, 0.0, 1.6521697107260437E9, 0.0, 2022-05-10 10:01:50.726
140.0, 29241.06618655517, 19597.584855268582, -43770.728262749704, -30688.96748888105, -28993.922948112842, -21529.960218663244, -14184.104106915487, -37724.04494572222, 0.08600000000000001, 0.89, 0.51, 192.0, 0.0, 0.0, 0.0, 0.0, 0.0, 0.0, 0.0, 0.0, 0.0, 1.6521697107260532E9, 0.0, 2022-05-10 10:01:50.726
141.0, 29224.414136935968, 19586.96777665231, -43781.12182392142, -30701.618576242756, -28999.197959804293, -21527.009788395142, -14172.66001375437, -37726.19071318993, 0.08600000000000001, 0.89, 0.51, 192.0, 0.0, 0.0, 0.0, 0.0, 0.0, 0.0, 0.0, 0.0, 0.0, 1.652169710726062E9, 0.0, 2022-05-10 10:01:50.726
142.0, 29227.36456720407, 19592.60041625505, -43787.648533302374, -30721.26575961897, -29018.778087947143, -21540.018503668132, -14192.62012155296, -37744.65325411001, 0.08600000000000001, 0.89, 0.51, 192.0, 0.0, 0.0, 0.0, 0.0, 0.0, 0.0, 0.0, 0.0, 0.0, 1.6521697107260735E9, 0.0, 2022-05-10 10:01:50.726
143.0, 29239.054529554192, 19570.226320055284, -43777.05380643056, -30713.152076381695, -29016.22998907924, -21547.55104154957, -14184.19351389331, -37742.79805932022, 0.08600000000000001, 0.89, 0.51, 192.0, 0.0, 0.0, 0.0, 0.0, 0.0, 0.0, 0.0, 0.0, 0.0, 1.6521697107260835E9, 0.0, 2022-05-10 10:01:50.726
144.0, 29217.328633943634, 19545.14766277643, -43774.863335473936, -30709.531093779933, -29005.679965696334, -21539.59382052348, -14176.415106822862, -37726.034250978744, 0.08600000000000001, 0.89, 0.51, 192.0, 0.0, 0.0, 0.0, 0.0, 0.0, 0.0, 0.0, 0.0, 0.0, 1.6521697107261157E9, 0.0, 2022-05-10 10:01:50.726
145.0, 29211.561883874165, 19546.287601743654, -43771.28705636109, -30701.484465776026, -29001.41078250537, -21538.386826322894, -14182.181856892332, -37709.98569845983, 0.08600000000000001, 0.89, 0.51, 192.0, 0.0, 0.0, 0.0, 0.0, 0.0, 0.0, 0.0, 0.0, 0.0, 1.6521697107261372E9, 0.0, 2022-05-10 10:01:50.726
