%OpenBCI Raw EEG Data
%Number of channels = 8
%Sample Rate = 250 Hz
%Board = OpenBCI_GUI$BoardCytonSerial
Sample Index, EXG Channel 0, EXG Channel 1, EXG Channel 2, EXG Channel 3, EXG Channel 4, EXG Channel 5, EXG Channel 6, EXG Channel 7, Accel Channel 0, Accel Channel 1, Accel Channel 2, Other, Other, Other, Other, Other, Other, Other, Analog Channel 0, Analog Channel 1, Analog Channel 2, Timestamp, Other, Timestamp (Formatted)
0.0, 0.0, 0.0, 0.0, 0.0, 0.0, 0.0, 0.0, 0.0, 0.0, 0.0, 0.0, 192.0, 0.0, 0.0, 0.0, 0.0, 0.0, 0.0, 0.0, 0.0, 0.0, 1.6546755007282467E9, 0.0, 2022-06-08 10:05:00.728
1.0, 31525.70504256547, 20672.435542635387, -20600.485277233754, -17608.838392357637, 6752.998441815191, -1061.3502337158006, 34352.08312893905, 481.2554098672164, -0.074, 0.918, 0.418, 192.0, 253.0, 176.0, 28.0, 176.0, 13.0, 16.0, 0.0, 0.0, 0.0, 1.6546755007443116E9, 0.0, 2022-06-08 10:05:00.744
2.0, 31499.955832952957, 20647.870975479007, -20635.152832883934, -17579.445848398907, 6729.752627581672, -1098.4094260226996, 34370.47861462577, 478.5061452992136, -0.074, 0.918, 0.418, 192.0, 0.0, 0.0, 0.0, 0.0, 0.0, 0.0, 0.0, 0.0, 0.0, 1.6546755012229211E9, 0.0, 2022-06-08 10:05:01.222
3.0, 31463.23191681289, 20613.65045471793, -20684.66194685244, -17652.558404512216, 6682.4563363142415, -1143.0011562110374, 34421.19472279486, 454.1650955873842, -0.074, 0.918, 0.418, 192.0, 0.0, 0.0, 0.0, 0.0, 0.0, 0.0, 0.0, 0.0, 0.0, 1.6546755012230732E9, 0.0, 2022-06-08 10:05:01.223
4.0, 31459.208602810933, 20606.475544747776, -20690.361641688545, -17658.34750632614, 6674.141487376868, -1152.1653714377132, 34438.472621258814, 439.12237156896254, -0.074, 0.918, 0.418, 192.0, 0.0, 0.0, 0.0, 0.0, 0.0, 0.0, 0.0, 0.0, 0.0, 1.6546755012230792E9, 0.0, 2022-06-08 10:05:01.223
5.0, 31481.51564377733, 20626.25683859072, -20655.738789527273, -17630.25136354582, 6698.661351044339, -1122.9069379457162, 34386.683629355866, 436.79779014561063, -0.074, 0.918, 0.418, 192.0, 0.0, 0.0, 0.0, 0.0, 0.0, 0.0, 0.0, 0.0, 0.0, 1.6546755012230844E9, 0.0, 2022-06-08 10:05:01.223
6.0, 31502.638042287595, 20644.719379510807, -20628.93904792536, -17618.851973873614, 6730.199662470778, -1090.6310189522528, 34345.82464049156, 456.2661595661831, -0.074, 0.918, 0.418, 192.0, 0.0, 0.0, 0.0, 0.0, 0.0, 0.0, 0.0, 0.0, 0.0, 1.6546755012230892E9, 0.0, 2022-06-08 10:05:01.223
7.0, 31489.98695492589, 20633.141175882956, -20646.731036511785, -17632.039503102245, 6725.684610090806, -1121.141150133747, 34360.68855055435, 470.07953763956283, -0.074, 0.918, 0.418, 192.0, 0.0, 0.0, 0.0, 0.0, 0.0, 0.0, 0.0, 0.0, 0.0, 1.6546755012230942E9, 0.0, 2022-06-08 10:05:01.223
8.0, 31471.055027372247, 20614.924504151884, -20673.351964158057, -17646.903413165022, 6704.785729025094, -1141.525941076987, 34413.81864712461, 467.2408660937388, -0.062, 0.9460000000000001, 0.386, 192.0, 254.0, 16.0, 29.0, 144.0, 12.0, 16.0, 0.0, 0.0, 0.0, 1.6546755012230992E9, 0.0, 2022-06-08 10:05:01.223
9.0, 31472.016152383825, 20611.907018650418, -20669.395705389466, -17641.091959606645, 6697.566115566029, -1133.9934031955486, 34428.79431590966, 450.655871707901, -0.062, 0.9460000000000001, 0.386, 192.0, 0.0, 0.0, 0.0, 0.0, 0.0, 0.0, 0.0, 0.0, 0.0, 1.654675501223104E9, 0.0, 2022-06-08 10:05:01.223
10.0, 31497.318327107234, 20634.50463229473, -20631.710664237817, -17612.369967981573, 6719.224955943222, -1101.851594668817, 34376.3124199286, 458.2554648227054, -0.062, 0.9460000000000001, 0.386, 192.0, 0.0, 0.0, 0.0, 0.0, 0.0, 0.0, 0.0, 0.0, 0.0, 1.6546755012231088E9, 0.0, 2022-06-08 10:05:01.223
11.0, 31515.24442616039, 20653.3248011261, -20609.85065816053, -17608.167840023976, 6754.42895346033, -1070.1121175422809, 34331.13954438443, 482.6188662789901, -0.062, 0.9460000000000001, 0.386, 192.0, 0.0, 0.0, 0.0, 0.0, 0.0, 0.0, 0.0, 0.0, 0.0, 1.654675501223114E9, 0.0, 2022-06-08 10:05:01.223
12.0, 31501.833379487205, 20634.52698403919, -20628.715530480808, -17591.58284563814, 6742.71663936575, -1089.7369491740405, 34350.876134738464, 496.8345757525654, -0.062, 0.9460000000000001, 0.386, 192.0, 0.0, 0.0, 0.0, 0.0, 0.0, 0.0, 0.0, 0.0, 0.0, 1.654675501223119E9, 0.0, 2022-06-08 10:05:01.223
13.0, 31461.3767220231, 20596.93134986536, -20685.46660965283, -17649.20564284392, 6690.525316062608, -1135.6697840296965, 34405.839074354066, 477.05328190961865, -0.062, 0.9460000000000001, 0.386, 192.0, 0.0, 0.0, 0.0, 0.0, 0.0, 0.0, 0.0, 0.0, 0.0, 1.6546755012231238E9, 0.0, 2022-06-08 10:05:01.223
14.0, 31463.500137746352, 20598.49597197723, -20688.57350213212, -17651.932555667467, 6698.1249091774125, -1131.5347113054647, 34430.00131011025, 464.37984280345955, -0.062, 0.9460000000000001, 0.386, 192.0, 0.0, 0.0, 0.0, 0.0, 0.0, 0.0, 0.0, 0.0, 0.0, 1.6546755012231283E9, 0.0, 2022-06-08 10:05:01.223
15.0, 31482.275603088812, 20612.51051575071, -20659.918565740416, -17625.669255932484, 6717.637982086895, -1111.1275686177694, 34390.304611957625, 457.9648921447864, -0.062, 0.9460000000000001, 0.386, 192.0, 0.0, 0.0, 0.0, 0.0, 0.0, 0.0, 0.0, 0.0, 0.0, 1.654675501223133E9, 0.0, 2022-06-08 10:05:01.223
16.0, 31507.66718479004, 20635.488109050766, -20608.55425698212, -17590.107630504088, 6745.890587078404, -1092.5979724643198, 34336.191038631325, 463.7986974476216, -0.062, 0.9460000000000001, 0.386, 192.0, 0.0, 0.0, 0.0, 0.0, 0.0, 0.0, 0.0, 0.0, 0.0, 1.654675501223138E9, 0.0, 2022-06-08 10:05:01.223
17.0, 31498.257100374354, 20626.547411268642, -20633.856431705528, -17604.792726611224, 6738.559214897063, -1098.3200190448783, 34355.99468421873, 481.54598254513536, -0.062, 0.9460000000000001, 0.386, 192.0, 0.0, 0.0, 0.0, 0.0, 0.0, 0.0, 0.0, 0.0, 0.0, 1.654675501223143E9, 0.0, 2022-06-08 10:05:01.223
18.0, 31469.110425604635, 20599.814724900094, -20678.29169968268, -17649.853843433124, 6702.304685390554, -1131.042972927448, 34412.81281862412, 478.5284970436689, -0.062, 0.9520000000000001, 0.372, 192.0, 254.0, 16.0, 29.0, 192.0, 11.0, 160.0, 0.0, 0.0, 0.0, 1.654675501223148E9, 0.0, 2022-06-08 10:05:01.223
19.0, 31466.27175405881, 20595.366727753488, -20675.721249070317, -17652.558404512216, 6691.128813162901, -1139.916615476205, 34431.74474617776, 460.24477007922775, -0.062, 0.9520000000000001, 0.372, 192.0, 0.0, 0.0, 0.0, 0.0, 0.0, 0.0, 0.0, 0.0, 0.0, 1.6546755012231529E9, 0.0, 2022-06-08 10:05:01.223
20.0, 31481.672105988517, 20605.89439939194, -20649.45794933533, -17643.997686385836, 6707.691455804284, -1118.1683681211912, 34387.577699134075, 448.17482807336194, -0.062, 0.9520000000000001, 0.372, 192.0, 0.0, 0.0, 0.0, 0.0, 0.0, 0.0, 0.0, 0.0, 0.0, 1.6546755012231576E9, 0.0, 2022-06-08 10:05:01.223
21.0, 31495.686649761996, 20622.010007144214, -20630.704835737328, -17657.989878414857, 6733.194796227789, -1098.7670539339847, 34343.0083206902, 463.3069590696048, -0.062, 0.9520000000000001, 0.372, 192.0, 0.0, 0.0, 0.0, 0.0, 0.0, 0.0, 0.0, 0.0, 0.0, 1.6546755012231624E9, 0.0, 2022-06-08 10:05:01.223
22.0, 31499.151170152567, 20629.341379325557, -20630.481318292776, -17602.423441698964, 6740.347354453487, -1094.0284841094594, 34354.720634784775, 486.1280901584733, -0.062, 0.9520000000000001, 0.372, 192.0, 0.0, 0.0, 0.0, 0.0, 0.0, 0.0, 0.0, 0.0, 0.0, 1.6546755012231748E9, 0.0, 2022-06-08 10:05:01.223
23.0, 31458.582753966184, 20590.181123039856, -20686.561845131142, -17642.947154396436, 6690.279446873599, -1134.529845062476, 34404.56502492011, 457.204932833306, -0.062, 0.9520000000000001, 0.372, 192.0, 0.0, 0.0, 0.0, 0.0, 0.0, 0.0, 0.0, 0.0, 0.0, 1.6546755012231793E9, 0.0, 2022-06-08 10:05:01.223
24.0, 31467.076416859203, 20593.690346919342, -20677.174112459914, -17647.417503287495, 6689.318321862022, -1135.55802530742, 34429.21899905431, 441.4246012478592, -0.062, 0.9520000000000001, 0.372, 192.0, 0.0, 0.0, 0.0, 0.0, 0.0, 0.0, 0.0, 0.0, 0.0, 1.654675501223184E9, 0.0, 2022-06-08 10:05:01.223
25.0, 31508.449495845976, 20630.771890970696, -20619.573666998585, -17591.359328193586, 6743.521302166141, -1106.6125162377973, 34392.13745500296, 457.5625607445909, -0.062, 0.9520000000000001, 0.372, 192.0, 0.0, 0.0, 0.0, 0.0, 0.0, 0.0, 0.0, 0.0, 0.0, 1.6546755012231884E9, 0.0, 2022-06-08 10:05:01.223
26.0, 31532.321158924242, 20649.413245846423, -20587.83418987205, -17579.065868743168, 6770.924540868347, -1072.2131815210798, 34342.136602656436, 485.65870352491186, -0.062, 0.9520000000000001, 0.372, 192.0, 0.0, 0.0, 0.0, 0.0, 0.0, 0.0, 0.0, 0.0, 0.0, 1.6546755012231927E9, 0.0, 2022-06-08 10:05:01.223
27.0, 31504.9849754554, 20624.356940312024, -20622.702911222328, -17598.221313741364, 6745.2647382336545, -1090.8098329078953, 34355.145317929426, 502.84719501104297, -0.05, 0.9500000000000001, 0.36, 192.0, 254.0, 112.0, 29.0, 176.0, 11.0, 64.0, 0.0, 0.0, 0.0, 1.6546755012231972E9, 0.0, 2022-06-08 10:05:01.223
28.0, 31473.044332628768, 20597.378384754466, -20670.26742342322, -17653.988916157356, 6708.3396563934875, -1133.2110921396127, 34402.06162954112, 482.7306250012666, -0.05, 0.9500000000000001, 0.36, 192.0, 0.0, 0.0, 0.0, 0.0, 0.0, 0.0, 0.0, 0.0, 0.0, 1.6546755012232018E9, 0.0, 2022-06-08 10:05:01.223
29.0, 31466.852899414647, 20588.191817783336, -20677.107057226545, -17681.45921009293, 6692.760490508139, -1141.2130166546126, 34418.53486520468, 456.17675258836186, -0.05, 0.9500000000000001, 0.36, 192.0, 0.0, 0.0, 0.0, 0.0, 0.0, 0.0, 0.0, 0.0, 0.0, 1.6546755012232063E9, 0.0, 2022-06-08 10:05:01.223
30.0, 31483.817873456228, 20599.6135592, -20649.99439120226, -17616.81796512818, 6707.490290104186, -1104.7796731924623, 34382.10152174253, 454.03098512065236, -0.05, 0.9500000000000001, 0.36, 192.0, 0.0, 0.0, 0.0, 0.0, 0.0, 0.0, 0.0, 0.0, 0.0, 1.6546755012232108E9, 0.0, 2022-06-08 10:05:01.223
31.0, 31516.42906861652, 20629.386082814468, -20612.89049540645, -17581.613967611072, 6747.835188846015, -1074.4707077110659, 34334.35819558599, 479.2437528662387, -0.05, 0.9500000000000001, 0.36, 192.0, 0.0, 0.0, 0.0, 0.0, 0.0, 0.0, 0.0, 0.0, 0.0, 1.654675501223215E9, 0.0, 2022-06-08 10:05:01.223
32.0, 31510.237635402398, 20616.310312308113, -20628.73788222526, -17613.129927293056, 6741.867273076448, -1091.88271664175, 34348.439794592836, 491.11252917200676, -0.05, 0.9500000000000001, 0.36, 192.0, 0.0, 0.0, 0.0, 0.0, 0.0, 0.0, 0.0, 0.0, 0.0, 1.6546755012232196E9, 0.0, 2022-06-08 10:05:01.223
33.0, 31474.854823929647, 20579.005250812203, -20680.14689447247, -17655.10650338012, 6694.883906231393, -1133.233443884068, 34402.37455396349, 470.07953763956283, -0.05, 0.9500000000000001, 0.36, 192.0, 0.0, 0.0, 0.0, 0.0, 0.0, 0.0, 0.0, 0.0, 0.0, 1.6546755012232249E9, 0.0, 2022-06-08 10:05:01.223
34.0, 31462.807233668238, 20563.64960237141, -20690.160475988447, -17665.276547107285, 6680.3999758243535, -1143.5375980779647, 34429.33075777659, 435.8143133895771, -0.05, 0.9500000000000001, 0.36, 192.0, 0.0, 0.0, 0.0, 0.0, 0.0, 0.0, 0.0, 0.0, 0.0, 1.6546755012232292E9, 0.0, 2022-06-08 10:05:01.223
35.0, 31484.22020485642, 20585.26373925969, -20653.145987170457, -17637.895660149534, 6706.573868581519, -1113.5862605078532, 34386.86244331151, 445.9843571167418, -0.05, 0.9500000000000001, 0.36, 192.0, 0.0, 0.0, 0.0, 0.0, 0.0, 0.0, 0.0, 0.0, 0.0, 1.6546755012232337E9, 0.0, 2022-06-08 10:05:01.223
36.0, 31500.64873703107, 20598.31715802159, -20627.575591513585, -17623.210564042398, 6733.239499716699, -1103.751492947518, 34342.31541661208, 478.3049795991158, -0.05, 0.9500000000000001, 0.36, 192.0, 0.0, 0.0, 0.0, 0.0, 0.0, 0.0, 0.0, 0.0, 0.0, 1.6546755012232387E9, 0.0, 2022-06-08 10:05:01.223
37.0, 31491.015135170837, 20590.73991665124, -20645.255821377734, -17631.525412979772, 6726.153996724367, -1117.4531122986214, 34357.33578888605, 479.9590086888086, -0.054, 0.9560000000000001, 0.356, 192.0, 254.0, 80.0, 29.0, 224.0, 11.0, 32.0, 0.0, 0.0, 0.0, 1.6546755012232432E9, 0.0, 2022-06-08 10:05:01.223
38.0, 31481.716809477428, 20585.35314623751, -20677.397629904466, -17621.556534952706, 6698.884868488893, -1128.4501705706323, 34402.262795241215, 468.4031568054148, -0.054, 0.9560000000000001, 0.356, 192.0, 0.0, 0.0, 0.0, 0.0, 0.0, 0.0, 0.0, 0.0, 0.0, 1.6546755012232475E9, 0.0, 2022-06-08 10:05:01.223
39.0, 31462.4272540125, 20564.4542651718, -20693.177961489913, -17660.82854996068, 6675.281426344089, -1144.588130067364, 34413.304557002135, 447.05724085059654, -0.054, 0.9560000000000001, 0.356, 192.0, 0.0, 0.0, 0.0, 0.0, 0.0, 0.0, 0.0, 0.0, 0.0, 1.654675501223252E9, 0.0, 2022-06-08 10:05:01.223
40.0, 31480.643925743574, 20581.46394270229, -20642.663019020918, -17635.034636859255, 6696.493231832174, -1134.686307273663, 34379.03933275215, 450.83468566354344, -0.054, 0.9560000000000001, 0.356, 192.0, 0.0, 0.0, 0.0, 0.0, 0.0, 0.0, 0.0, 0.0, 0.0, 1.6546755012232566E9, 0.0, 2022-06-08 10:05:01.223
41.0, 31519.603016329173, 20621.80884144412, -20602.69809993483, -17567.845293026603, 6743.610709143962, -1088.5523067179092, 34334.805230475096, 481.81420347859904, -0.054, 0.9560000000000001, 0.356, 192.0, 0.0, 0.0, 0.0, 0.0, 0.0, 0.0, 0.0, 0.0, 0.0, 1.654675501223261E9, 0.0, 2022-06-08 10:05:01.223
42.0, 31504.9849754554, 20607.59313197054, -20626.569763013096, -17599.24949398631, 6732.501892149675, -1097.3365422888448, 34349.02093994867, 488.78794774865486, -0.054, 0.9560000000000001, 0.356, 192.0, 0.0, 0.0, 0.0, 0.0, 0.0, 0.0, 0.0, 0.0, 0.0, 1.6546755012232656E9, 0.0, 2022-06-08 10:05:01.223
43.0, 31471.345600050165, 20575.853654844006, -20674.62601359201, -17651.574927756184, 6691.955827707748, -1146.5774353238864, 34404.117990031, 459.86479042348753, -0.054, 0.9560000000000001, 0.356, 192.0, 0.0, 0.0, 0.0, 0.0, 0.0, 0.0, 0.0, 0.0, 0.0, 1.654675501223272E9, 0.0, 2022-06-08 10:05:01.223
44.0, 31462.449605756952, 20569.058724529594, -20683.790228818685, -17664.11425639561, 6681.808135725038, -1157.2392174290678, 34431.25300779975, 432.4839034657364, -0.054, 0.9560000000000001, 0.356, 192.0, 0.0, 0.0, 0.0, 0.0, 0.0, 0.0, 0.0, 0.0, 0.0, 1.6546755012232764E9, 0.0, 2022-06-08 10:05:01.223
45.0, 31485.360143823644, 20586.314271249088, -20644.51821381071, -17637.06864560469, 6712.541784351085, -1130.5065310605207, 34393.21033873682, 434.1602842998844, -0.054, 0.9560000000000001, 0.356, 192.0, 0.0, 0.0, 0.0, 0.0, 0.0, 0.0, 0.0, 0.0, 0.0, 1.6546755012232816E9, 0.0, 2022-06-08 10:05:01.223
46.0, 31513.47863834842, 20605.872047647485, -20613.35988204001, -17609.24072375783, 6743.498950421686, -1095.6378097102415, 34341.17547764486, 459.17188634537297, -0.054, 0.9560000000000001, 0.356, 192.0, 0.0, 0.0, 0.0, 0.0, 0.0, 0.0, 0.0, 0.0, 0.0, 1.654675501223286E9, 0.0, 2022-06-08 10:05:01.223
47.0, 31500.693440519983, 20590.292881762136, -20637.74563524075, -17622.942343108934, 6736.90518580737, -1105.1596528482023, 34351.09965218302, 482.0600726676074, -0.052000000000000005, 0.962, 0.352, 192.0, 254.0, 96.0, 30.0, 16.0, 11.0, 0.0, 0.0, 0.0, 0.0, 1.6546755012232904E9, 0.0, 2022-06-08 10:05:01.223
48.0, 31463.991876124368, 20554.64184935592, -20688.037060265193, -17672.719678010904, 6694.302760875555, -1145.7057172901293, 34402.44160919686, 473.27583709667175, -0.052000000000000005, 0.962, 0.352, 192.0, 0.0, 0.0, 0.0, 0.0, 0.0, 0.0, 0.0, 0.0, 0.0, 1.6546755012232947E9, 0.0, 2022-06-08 10:05:01.223
49.0, 31463.120158090613, 20549.053913242093, -20687.34415618708, -17661.901433694537, 6680.556438035541, -1152.3441853933557, 34428.9284263764, 450.18648507433954, -0.052000000000000005, 0.962, 0.352, 192.0, 0.0, 0.0, 0.0, 0.0, 0.0, 0.0, 0.0, 0.0, 0.0, 1.6546755012232995E9, 0.0, 2022-06-08 10:05:01.223
50.0, 31488.265870602834, 20575.652489143908, -20649.793225502162, -17640.15318633952, 6706.9314964928035, -1121.3199640893895, 34392.04804802514, 466.5032585267137, -0.052000000000000005, 0.962, 0.352, 192.0, 0.0, 0.0, 0.0, 0.0, 0.0, 0.0, 0.0, 0.0, 0.0, 1.654675501223304E9, 0.0, 2022-06-08 10:05:01.223
51.0, 31523.156943697566, 20610.90119014993, -20602.005195856716, -17591.58284563814, 6752.886683092915, -1079.1869257911355, 34342.31541661208, 494.0629594401073, -0.052000000000000005, 0.962, 0.352, 192.0, 0.0, 0.0, 0.0, 0.0, 0.0, 0.0, 0.0, 0.0, 0.0, 1.6546755012233083E9, 0.0, 2022-06-08 10:05:01.223
52.0, 31537.327949682232, 20625.94391416835, -20596.03728008715, -17612.235857514843, 6767.169447799855, -1077.3764344902556, 34348.84212599303, 515.297116672649, -0.052000000000000005, 0.962, 0.352, 192.0, 0.0, 0.0, 0.0, 0.0, 0.0, 0.0, 0.0, 0.0, 0.0, 1.6546755012233129E9, 0.0, 2022-06-08 10:05:01.223
53.0, 31486.2318618574, 20576.59126241103, -20664.65713556494, -17643.39418928554, 6703.735197035694, -1141.2130166546126, 34403.49214118626, 485.23402038026103, -0.052000000000000005, 0.962, 0.352, 192.0, 0.0, 0.0, 0.0, 0.0, 0.0, 0.0, 0.0, 0.0, 0.0, 1.6546755012233171E9, 0.0, 2022-06-08 10:05:01.223
54.0, 31474.161919851533, 20562.68847735983, -20679.453990394355, -17652.82662544568, 6675.527295533097, -1163.9223890212047, 34431.8788566445, 431.88040636544304, -0.052000000000000005, 0.962, 0.352, 192.0, 0.0, 0.0, 0.0, 0.0, 0.0, 0.0, 0.0, 0.0, 0.0, 1.654675501223322E9, 0.0, 2022-06-08 10:05:01.223
55.0, 31496.58071954021, 20582.223902013768, -20645.27817312219, -17621.19890704142, 6698.460185344242, -1137.74849626404, 34403.78271386417, 424.6831446508342, -0.052000000000000005, 0.962, 0.352, 192.0, 0.0, 0.0, 0.0, 0.0, 0.0, 0.0, 0.0, 0.0, 0.0, 1.6546755012233262E9, 0.0, 2022-06-08 10:05:01.223
56.0, 31518.507780850865, 20599.07711733307, -20613.3151785511, -17588.274787458755, 6729.730275837216, -1112.0663418848924, 34351.300817883115, 463.3293108140601, -0.052000000000000005, 0.962, 0.352, 192.0, 0.0, 0.0, 0.0, 0.0, 0.0, 0.0, 0.0, 0.0, 0.0, 1.6546755012233307E9, 0.0, 2022-06-08 10:05:01.223
57.0, 31530.555371112274, 20612.801088428627, -20612.13053609497, -17593.885075317034, 6734.222976472733, -1094.6990364431188, 34358.296913897626, 502.9589537333195, -0.054, 0.9560000000000001, 0.358, 192.0, 254.0, 80.0, 29.0, 224.0, 11.0, 48.0, 0.0, 0.0, 0.0, 1.6546755012233353E9, 0.0, 2022-06-08 10:05:01.223
58.0, 31520.85471401867, 20611.191762827846, -20647.51334756772, -17640.801386928724, 6708.1831941823, -1119.241251855046, 34414.04216456916, 487.8938779704426, -0.054, 0.9560000000000001, 0.358, 192.0, 0.0, 0.0, 0.0, 0.0, 0.0, 0.0, 0.0, 0.0, 0.0, 1.6546755012233398E9, 0.0, 2022-06-08 10:05:01.223
59.0, 31491.015135170837, 20571.696230375317, -20679.230472949803, -17667.73523899737, 6673.247417598655, -1153.7076418051292, 34430.18012406589, 442.0728018370631, -0.054, 0.9560000000000001, 0.358, 192.0, 0.0, 0.0, 0.0, 0.0, 0.0, 0.0, 0.0, 0.0, 0.0, 1.6546755012233443E9, 0.0, 2022-06-08 10:05:01.223
60.0, 31494.345545094675, 20561.68264885934, -20659.091551195568, -17650.34558181114, 6686.144374149368, -1143.649356800241, 34394.37262944849, 420.65983064887894, -0.054, 0.9560000000000001, 0.358, 192.0, 0.0, 0.0, 0.0, 0.0, 0.0, 0.0, 0.0, 0.0, 0.0, 1.654675501223349E9, 0.0, 2022-06-08 10:05:01.223
61.0, 31504.403830099563, 20564.230747727248, -20619.953646654325, -17628.731444922858, 6720.007266999158, -1113.6980192301296, 34346.27167538067, 429.33230749753807, -0.054, 0.9560000000000001, 0.358, 192.0, 0.0, 0.0, 0.0, 0.0, 0.0, 0.0, 0.0, 0.0, 0.0, 1.654675501223354E9, 0.0, 2022-06-08 10:05:01.223
62.0, 31507.309556878754, 20567.02471578416, -20626.65916999092, -17617.3097035062, 6723.918822278836, -1108.691228472141, 34354.877096995966, 470.75008997322203, -0.054, 0.9560000000000001, 0.358, 192.0, 0.0, 0.0, 0.0, 0.0, 0.0, 0.0, 0.0, 0.0, 0.0, 1.6546755012233584E9, 0.0, 2022-06-08 10:05:01.223
63.0, 31475.81594894123, 20535.933439246826, -20668.121655955514, -17662.10259939463, 6684.669159015318, -1148.589092324864, 34404.58737666457, 468.3808050609595, -0.054, 0.9560000000000001, 0.358, 192.0, 0.0, 0.0, 0.0, 0.0, 0.0, 0.0, 0.0, 0.0, 0.0, 1.6546755012233632E9, 0.0, 2022-06-08 10:05:01.223
64.0, 31459.029788855292, 20508.261979611158, -20691.345118444577, -17700.83817253568, 6659.299929058544, -1174.561819381931, 34430.24717929926, 426.0242493181526, -0.054, 0.9560000000000001, 0.358, 192.0, 0.0, 0.0, 0.0, 0.0, 0.0, 0.0, 0.0, 0.0, 0.0, 1.6546755012233691E9, 0.0, 2022-06-08 10:05:01.223
65.0, 31504.537940566297, 20542.549555605598, -20626.636818246465, -17620.21543028539, 6726.042238002091, -1103.103292358314, 34395.51256841571, 453.5392467426356, -0.054, 0.9560000000000001, 0.358, 192.0, 0.0, 0.0, 0.0, 0.0, 0.0, 0.0, 0.0, 0.0, 0.0, 1.6546755012233737E9, 0.0, 2022-06-08 10:05:01.223
66.0, 31520.22886517392, 20550.171500464858, -20581.955681080304, -17577.23302569783, 6753.378421470931, -1082.137356059236, 34346.78576550314, 485.8375174805543, -0.054, 0.9560000000000001, 0.358, 192.0, 0.0, 0.0, 0.0, 0.0, 0.0, 0.0, 0.0, 0.0, 0.0, 1.654675501223378E9, 0.0, 2022-06-08 10:05:01.223
67.0, 31507.33190862321, 20532.82654676754, -20605.425012758376, -17618.53904945124, 6735.497025906686, -1109.3617808058002, 34352.3066463836, 480.3389883445488, -0.058, 0.9520000000000001, 0.352, 192.0, 254.0, 48.0, 29.0, 192.0, 11.0, 0.0, 0.0, 0.0, 0.0, 1.6546755012233825E9, 0.0, 2022-06-08 10:05:01.223
68.0, 31482.722637977917, 20506.473840054732, -20634.66109450592, -17659.88977669356, 6714.218165185233, -1133.300499117434, 34405.23557725377, 466.63736899344553, -0.058, 0.9520000000000001, 0.352, 192.0, 0.0, 0.0, 0.0, 0.0, 0.0, 0.0, 0.0, 0.0, 0.0, 1.6546755012233868E9, 0.0, 2022-06-08 10:05:01.223
69.0, 31450.111442817622, 20471.51571172663, -20666.065295465625, -17673.54669255575, 6679.237685112677, -1160.3684616528108, 34429.42016475441, 426.76185688517774, -0.058, 0.9520000000000001, 0.352, 192.0, 0.0, 0.0, 0.0, 0.0, 0.0, 0.0, 0.0, 0.0, 0.0, 1.6546755012233913E9, 0.0, 2022-06-08 10:05:01.223
70.0, 31458.158070821533, 20472.655650693854, -20639.04203641916, -17675.915977468012, 6699.08603418899, -1147.1138771908138, 34394.95377480433, 436.46251397878103, -0.058, 0.9520000000000001, 0.352, 192.0, 0.0, 0.0, 0.0, 0.0, 0.0, 0.0, 0.0, 0.0, 0.0, 1.654675501223396E9, 0.0, 2022-06-08 10:05:01.223
71.0, 31480.599222254663, 20490.469991024733, -20606.475544747776, -17650.8149684447, 6733.597127627984, -1123.6445455127414, 34346.38343410295, 450.14178158542893, -0.058, 0.9520000000000001, 0.352, 192.0, 0.0, 0.0, 0.0, 0.0, 0.0, 0.0, 0.0, 0.0, 0.0, 1.6546755012234004E9, 0.0, 2022-06-08 10:05:01.223
72.0, 31460.259134800333, 20460.98804008818, -20631.531850282176, -17624.77518615427, 6715.492214619186, -1142.7776387664842, 34346.62930329196, 437.84832213501005, -0.058, 0.9520000000000001, 0.352, 192.0, 0.0, 0.0, 0.0, 0.0, 0.0, 0.0, 0.0, 0.0, 0.0, 1.654675501223405E9, 0.0, 2022-06-08 10:05:01.223
73.0, 31421.590616892652, 20428.622714116897, -20678.26934793822, -17695.898437011056, 6676.309606589032, -1178.2275054726013, 34389.03056252367, 425.08547605102973, -0.058, 0.9520000000000001, 0.352, 192.0, 0.0, 0.0, 0.0, 0.0, 0.0, 0.0, 0.0, 0.0, 0.0, 1.6546755012234092E9, 0.0, 2022-06-08 10:05:01.223
74.0, 31411.84525631014, 20422.028949502583, -20691.367470189034, -17712.662245352538, 6657.131809846379, -1196.399473714766, 34411.6728796569, 415.07189453505214, -0.058, 0.9520000000000001, 0.352, 192.0, 0.0, 0.0, 0.0, 0.0, 0.0, 0.0, 0.0, 0.0, 0.0, 1.6546755012234137E9, 0.0, 2022-06-08 10:05:01.223
75.0, 31418.59548313564, 20422.073652991494, -20666.33351639909, -17698.13361145659, 6670.945187919759, -1177.0875665053804, 34377.318248429096, 417.3964759584041, -0.058, 0.9520000000000001, 0.352, 192.0, 0.0, 0.0, 0.0, 0.0, 0.0, 0.0, 0.0, 0.0, 0.0, 1.6546755012234182E9, 0.0, 2022-06-08 10:05:01.223
76.0, 31454.2241637974, 20450.035685305083, -20621.18299259937, -17664.60599477363, 6719.292011176588, -1142.9564527221266, 34334.33584384154, 441.7598774146888, -0.058, 0.9520000000000001, 0.352, 192.0, 0.0, 0.0, 0.0, 0.0, 0.0, 0.0, 0.0, 0.0, 0.0, 1.6546755012234232E9, 0.0, 2022-06-08 10:05:01.223
77.0, 31447.2727712718, 20440.111510766925, -20625.966265912804, -17668.606957031127, 6726.265755446644, -1150.8242667703948, 34344.863515479985, 451.23701706373896, -0.062, 0.9500000000000001, 0.35000000000000003, 192.0, 254.0, 16.0, 29.0, 176.0, 10.0, 240.0, 0.0, 0.0, 0.0, 1.6546755012234275E9, 0.0, 2022-06-08 10:05:01.223
78.0, 31413.588692377652, 20409.310806907513, -20672.435542635387, -17715.54562038727, 6686.278484616099, -1183.4131101862324, 34390.4163706799, 437.1107145679849, -0.062, 0.9500000000000001, 0.35000000000000003, 192.0, 0.0, 0.0, 0.0, 0.0, 0.0, 0.0, 0.0, 0.0, 0.0, 1.6546755012234323E9, 0.0, 2022-06-08 10:05:01.223
79.0, 31396.64607008053, 20398.80548701352, -20691.00984227775, -17748.02270508083, 6662.764449449116, -1204.2449360185785, 34417.97607159329, 410.109807265974, -0.062, 0.9500000000000001, 0.35000000000000003, 192.0, 0.0, 0.0, 0.0, 0.0, 0.0, 0.0, 0.0, 0.0, 0.0, 1.6546755012234368E9, 0.0, 2022-06-08 10:05:01.223
80.0, 31412.046422010237, 20414.85403953243, -20662.600775075054, -17722.295847212776, 6678.500077545653, -1185.6035811428526, 34388.13649274546, 389.5238506226362, -0.062, 0.9500000000000001, 0.35000000000000003, 192.0, 0.0, 0.0, 0.0, 0.0, 0.0, 0.0, 0.0, 0.0, 0.0, 1.6546755012234411E9, 0.0, 2022-06-08 10:05:01.223
81.0, 31436.007492066325, 20436.222307231703, -20630.347207826046, -17688.0753264517, 6709.814871527537, -1158.4685633741099, 34336.28044560915, 414.8707288349544, -0.062, 0.9500000000000001, 0.35000000000000003, 192.0, 0.0, 0.0, 0.0, 0.0, 0.0, 0.0, 0.0, 0.0, 0.0, 1.654675501223446E9, 0.0, 2022-06-08 10:05:01.223
82.0, 31445.171707293, 20444.537156169077, -20626.27919033518, -17669.88100646508, 6718.621458842928, -1142.7776387664842, 34337.12981189845, 444.73265942724464, -0.062, 0.9500000000000001, 0.35000000000000003, 192.0, 0.0, 0.0, 0.0, 0.0, 0.0, 0.0, 0.0, 0.0, 0.0, 1.6546755012234504E9, 0.0, 2022-06-08 10:05:01.223
83.0, 31412.292291199243, 20418.162097711815, -20673.597833347063, -17729.023722293823, 6675.08026064399, -1185.6259328873077, 34389.3658386905, 419.94457482630906, -0.062, 0.9500000000000001, 0.35000000000000003, 192.0, 0.0, 0.0, 0.0, 0.0, 0.0, 0.0, 0.0, 0.0, 0.0, 1.6546755012234552E9, 0.0, 2022-06-08 10:05:01.223
84.0, 31397.160160203002, 20404.32636789398, -20691.61333937804, -17718.138422744087, 6648.0570015975245, -1204.1331772963022, 34421.284129772685, 395.46941464774784, -0.062, 0.9500000000000001, 0.35000000000000003, 192.0, 0.0, 0.0, 0.0, 0.0, 0.0, 0.0, 0.0, 0.0, 0.0, 1.6546755012234595E9, 0.0, 2022-06-08 10:05:01.223
85.0, 31419.2660354693, 20418.787946556564, -20658.5774610731, -17684.49904733885, 6665.93839716177, -1199.6628284052406, 34382.01211476471, 404.0971880074964, -0.062, 0.9500000000000001, 0.35000000000000003, 192.0, 0.0, 0.0, 0.0, 0.0, 0.0, 0.0, 0.0, 0.0, 0.0, 1.6546755012234645E9, 0.0, 2022-06-08 10:05:01.223
86.0, 31458.13571907708, 20459.021086576115, -20610.968245383294, -17648.40098004353, 6717.459168131253, -1158.915598263216, 34328.63614900543, 434.6073191889905, -0.062, 0.9500000000000001, 0.35000000000000003, 192.0, 0.0, 0.0, 0.0, 0.0, 0.0, 0.0, 0.0, 0.0, 0.0, 1.654675501223473E9, 0.0, 2022-06-08 10:05:01.223
87.0, 31458.828623155194, 20462.48560696669, -20619.171335598392, -17653.385419057064, 6723.158862967356, -1159.1838191966797, 34334.313492097084, 436.14958955640674, -0.058, 0.9460000000000001, 0.34800000000000003, 192.0, 254.0, 48.0, 29.0, 144.0, 10.0, 224.0, 0.0, 0.0, 0.0, 1.654675501223482E9, 0.0, 2022-06-08 10:05:01.223
88.0, 31443.11534680311, 20450.415664960823, -20648.51917606821, -17674.776038500793, 6700.673008045317, -1176.1934967271682, 34379.77694031918, 432.37214474345984, -0.058, 0.9460000000000001, 0.34800000000000003, 192.0, 0.0, 0.0, 0.0, 0.0, 0.0, 0.0, 0.0, 0.0, 0.0, 1.654675501223488E9, 0.0, 2022-06-08 10:05:01.223
89.0, 31411.666442354497, 20421.33604542447, -20678.09053398258, -17711.522306385315, 6661.244530826156, -1208.5364709539977, 34409.5718156781, 418.62582190344597, -0.058, 0.9460000000000001, 0.34800000000000003, 192.0, 0.0, 0.0, 0.0, 0.0, 0.0, 0.0, 0.0, 0.0, 0.0, 1.654675501223494E9, 0.0, 2022-06-08 10:05:01.223
90.0, 31430.441907696953, 20439.955048555737, -20648.921507468403, -17710.918809285024, 6681.696377002761, -1188.7998805999614, 34374.25605943872, 401.6161443729573, -0.058, 0.9460000000000001, 0.34800000000000003, 192.0, 0.0, 0.0, 0.0, 0.0, 0.0, 0.0, 0.0, 0.0, 0.0, 1.6546755012235E9, 0.0, 2022-06-08 10:05:01.223
91.0, 31471.725579705904, 20478.198883318768, -20612.51051575071, -17642.58952648515, 6734.826473573026, -1149.7066795476294, 34321.05890763508, 429.26525226417215, -0.058, 0.9460000000000001, 0.34800000000000003, 192.0, 0.0, 0.0, 0.0, 0.0, 0.0, 0.0, 0.0, 0.0, 0.0, 1.6546755012235055E9, 0.0, 2022-06-08 10:05:01.223
92.0, 31462.740178434873, 20467.693563424775, -20616.779698941675, -17628.038540844744, 6728.500929892174, -1156.5686650954087, 34321.68475647983, 443.7491826712111, -0.058, 0.9460000000000001, 0.34800000000000003, 192.0, 0.0, 0.0, 0.0, 0.0, 0.0, 0.0, 0.0, 0.0, 0.0, 1.6546755012235115E9, 0.0, 2022-06-08 10:05:01.223
93.0, 31420.763602347804, 20429.919115295306, -20664.76889428722, -17706.291998182776, 6683.640978770373, -1194.588982413886, 34366.388245390444, 432.3050895100939, -0.058, 0.9460000000000001, 0.34800000000000003, 192.0, 0.0, 0.0, 0.0, 0.0, 0.0, 0.0, 0.0, 0.0, 0.0, 1.6546755012235174E9, 0.0, 2022-06-08 10:05:01.223
94.0, 31420.048346525236, 20426.499298393643, -20677.799961304663, -17721.89351581258, 6679.237685112677, -1206.2565930195562, 34411.09173430106, 412.9037753228874, -0.058, 0.9460000000000001, 0.34800000000000003, 192.0, 0.0, 0.0, 0.0, 0.0, 0.0, 0.0, 0.0, 0.0, 0.0, 1.6546755012235246E9, 0.0, 2022-06-08 10:05:01.223
95.0, 31435.873381599595, 20437.22813573219, -20654.21887090431, -17702.000463247357, 6693.94513296427, -1185.1788979982016, 34375.73127457277, 409.5733653990466, -0.058, 0.9460000000000001, 0.34800000000000003, 192.0, 0.0, 0.0, 0.0, 0.0, 0.0, 0.0, 0.0, 0.0, 0.0, 1.6546755012235348E9, 0.0, 2022-06-08 10:05:01.223
96.0, 31442.824774125194, 20445.945316069763, -20635.488109050766, -17675.848922234647, 6704.718673791728, -1178.652188617252, 34321.12596286845, 412.0097055446751, -0.058, 0.9460000000000001, 0.34800000000000003, 192.0, 0.0, 0.0, 0.0, 0.0, 0.0, 0.0, 0.0, 0.0, 0.0, 1.6546755012235427E9, 0.0, 2022-06-08 10:05:01.223
97.0, 31452.3242655187, 20459.311659254035, -20635.666923006407, -17687.78475377378, 6704.606915069451, -1172.5948658698637, 34316.32033781056, 425.3089934955828, -0.052000000000000005, 0.9560000000000001, 0.354, 192.0, 254.0, 96.0, 29.0, 224.0, 11.0, 16.0, 0.0, 0.0, 0.0, 1.6546755012235491E9, 0.0, 2022-06-08 10:05:01.223
98.0, 31434.84520135465, 20448.33695272648, -20669.060429222638, -17683.470867093907, 6680.690548502273, -1193.359636468844, 34356.28525689665, 434.3167465110715, -0.052000000000000005, 0.9560000000000001, 0.354, 192.0, 0.0, 0.0, 0.0, 0.0, 0.0, 0.0, 0.0, 0.0, 0.0, 1.6546755012235548E9, 0.0, 2022-06-08 10:05:01.223
99.0, 31414.12513424458, 20430.097929250947, -20690.00401377726, -17712.058748252242, 6660.886902914871, -1224.4509130061763, 34390.14814974644, 399.98446702771986, -0.052000000000000005, 0.9560000000000001, 0.354, 192.0, 0.0, 0.0, 0.0, 0.0, 0.0, 0.0, 0.0, 0.0, 0.0, 1.6546755012235603E9, 0.0, 2022-06-08 10:05:01.223
100.0, 31438.4214804675, 20446.213537003227, -20651.80488250314, -17689.707003796935, 6685.049138671057, -1200.7133603946402, 34367.68464656886, 392.6977983352898, -0.052000000000000005, 0.9560000000000001, 0.354, 192.0, 0.0, 0.0, 0.0, 0.0, 0.0, 0.0, 0.0, 0.0, 0.0, 1.654675501223566E9, 0.0, 2022-06-08 10:05:01.223
101.0, 31471.569117494717, 20473.281499538603, -20612.063480861605, -17650.747913211337, 6718.152072209367, -1166.6716535892074, 34314.21927383176, 414.51310092366947, -0.052000000000000005, 0.9560000000000001, 0.354, 192.0, 0.0, 0.0, 0.0, 0.0, 0.0, 0.0, 0.0, 0.0, 0.0, 1.6546755012235727E9, 0.0, 2022-06-08 10:05:01.223
102.0, 31455.297047531254, 20456.629449919397, -20637.902097451937, -17672.0714774217, 6706.260944159144, -1185.201249742657, 34309.32424179605, 416.9941445582086, -0.052000000000000005, 0.9560000000000001, 0.354, 192.0, 0.0, 0.0, 0.0, 0.0, 0.0, 0.0, 0.0, 0.0, 0.0, 1.6546755012235801E9, 0.0, 2022-06-08 10:05:01.223
103.0, 31429.257265240823, 20435.70821710923, -20678.224644449314, -17718.07136751072, 6672.934493176281, -1213.9679448566371, 34357.00051271922, 419.49753993720293, -0.052000000000000005, 0.9560000000000001, 0.354, 192.0, 0.0, 0.0, 0.0, 0.0, 0.0, 0.0, 0.0, 0.0, 0.0, 1.6546755012235856E9, 0.0, 2022-06-08 10:05:01.223
104.0, 31436.812154866715, 20444.738321869176, -20674.491903125276, -17709.376538917608, 6670.207580352733, -1203.5743836849194, 34402.32985047458, 430.22637727575034, -0.052000000000000005, 0.9560000000000001, 0.354, 192.0, 0.0, 0.0, 0.0, 0.0, 0.0, 0.0, 0.0, 0.0, 0.0, 1.6546755012235918E9, 0.0, 2022-06-08 10:05:01.223
105.0, 31433.146468776045, 20439.128034010893, -20665.215929176324, -17697.351300400653, 6670.162876863823, -1201.652133661763, 34375.686571083854, 420.74923762670016, -0.052000000000000005, 0.9560000000000001, 0.354, 192.0, 0.0, 0.0, 0.0, 0.0, 0.0, 0.0, 0.0, 0.0, 0.0, 1.6546755012235982E9, 0.0, 2022-06-08 10:05:01.223
106.0, 31455.45350974244, 20460.920984854816, -20632.336513082566, -17680.766306014815, 6697.543763821574, -1176.7746420830063, 34314.48749476522, 436.6413279344235, -0.052000000000000005, 0.9560000000000001, 0.354, 192.0, 0.0, 0.0, 0.0, 0.0, 0.0, 0.0, 0.0, 0.0, 0.0, 1.654675501223605E9, 0.0, 2022-06-08 10:05:01.223
107.0, 31479.0793036317, 20485.329089800012, -20618.210210586814, -17715.232695964896, 6720.700171077272, -1149.6172725698082, 34310.30771855208, 467.64319749393434, -0.05, 0.96, 0.352, 192.0, 254.0, 112.0, 30.0, 0.0, 11.0, 0.0, 0.0, 0.0, 0.0, 1.654675501223615E9, 0.0, 2022-06-08 10:05:01.223
108.0, 31438.712053145417, 20446.99584805916, -20673.28490892469, -17706.180239460497, 6678.2318566121885, -1203.552031940464, 34365.15889944541, 459.46245902329196, -0.05, 0.96, 0.352, 192.0, 0.0, 0.0, 0.0, 0.0, 0.0, 0.0, 0.0, 0.0, 0.0, 1.6546755012236211E9, 0.0, 2022-06-08 10:05:01.223
109.0, 31422.93172155997, 20432.37780718539, -20692.41800217843, -17685.035489205777, 6659.232873825178, -1217.2536512915674, 34405.99553656525, 433.5567871995911, -0.05, 0.96, 0.352, 192.0, 0.0, 0.0, 0.0, 0.0, 0.0, 0.0, 0.0, 0.0, 0.0, 1.6546755012236276E9, 0.0, 2022-06-08 10:05:01.223
110.0, 31453.195983552458, 20461.345667999467, -20652.766007514718, -17676.45241933494, 6685.786746238083, -1192.040883545981, 34377.5641176181, 421.68801089382305, -0.05, 0.96, 0.352, 192.0, 0.0, 0.0, 0.0, 0.0, 0.0, 0.0, 0.0, 0.0, 0.0, 1.654675501223634E9, 0.0, 2022-06-08 10:05:01.223
111.0, 31482.56617576673, 20490.917025913837, -20615.97503614128, -17651.26200333381, 6727.0704182470345, -1161.3519384088443, 34330.44664030631, 452.95810138679764, -0.05, 0.96, 0.352, 192.0, 0.0, 0.0, 0.0, 0.0, 0.0, 0.0, 0.0, 0.0, 0.0, 1.65467550122364E9, 0.0, 2022-06-08 10:05:01.223
112.0, 31469.535108749285, 20476.164874573336, -20639.109091652525, -17681.660375793028, 6714.218165185233, -1171.0525955024477, 34327.89854143841, 479.9813604332639, -0.05, 0.96, 0.352, 192.0, 0.0, 0.0, 0.0, 0.0, 0.0, 0.0, 0.0, 0.0, 0.0, 1.654675501223647E9, 0.0, 2022-06-08 10:05:01.223
113.0, 31451.966637607413, 20456.182415030293, -20673.888406024984, -17716.21617272093, 6682.121060147412, -1193.6949126356737, 34369.78571054765, 487.6927122703448, -0.05, 0.96, 0.352, 192.0, 0.0, 0.0, 0.0, 0.0, 0.0, 0.0, 0.0, 0.0, 0.0, 1.6546755012236533E9, 0.0, 2022-06-08 10:05:01.223
114.0, 31419.22133198039, 20419.5702576125, -20713.62980766652, -17730.11895777213, 6640.300946271533, -1228.6977444526844, 34397.90420507243, 449.6500432074122, -0.05, 0.96, 0.352, 192.0, 0.0, 0.0, 0.0, 0.0, 0.0, 0.0, 0.0, 0.0, 0.0, 1.6546755012236605E9, 0.0, 2022-06-08 10:05:01.223
115.0, 31437.79563162275, 20433.987132786173, -20698.47532492582, -17713.802184319757, 6656.79653367955, -1207.8212151314278, 34361.20264067681, 442.3857262594374, -0.05, 0.96, 0.352, 192.0, 0.0, 0.0, 0.0, 0.0, 0.0, 0.0, 0.0, 0.0, 0.0, 1.6546755012236664E9, 0.0, 2022-06-08 10:05:01.223
116.0, 31475.03363788529, 20473.549720472067, -20629.251972347734, -17672.78673324427, 6700.024807456113, -1173.0195490145147, 34306.37381152795, 477.5226685431801, -0.046, 0.9480000000000001, 0.352, 192.0, 254.0, 144.0, 29.0, 160.0, 11.0, 0.0, 0.0, 0.0, 0.0, 1.654675501223673E9, 0.0, 2022-06-08 10:05:01.223
117.0, 31473.044332628768, 20470.24166229268, -20634.817556717106, -17666.908224452523, 6707.266772659633, -1165.844639044361, 34313.63812847592, 493.1018344285291, -0.046, 0.9480000000000001, 0.352, 192.0, 0.0, 0.0, 0.0, 0.0, 0.0, 0.0, 0.0, 0.0, 0.0, 1.6546755012236807E9, 0.0, 2022-06-08 10:05:01.223
118.0, 31440.27667525729, 20442.212574745725, -20683.790228818685, -17706.537867371782, 6668.218275096211, -1193.3819882132993, 34367.75170180222, 477.9249999433756, -0.046, 0.9480000000000001, 0.352, 192.0, 0.0, 0.0, 0.0, 0.0, 0.0, 0.0, 0.0, 0.0, 0.0, 1.6546755012236876E9, 0.0, 2022-06-08 10:05:01.223
119.0, 31428.56436116271, 20434.814147331017, -20701.559865660653, -17731.54946941727, 6652.147370832846, -1227.9377851412041, 34401.68164988537, 459.39540378992604, -0.046, 0.9480000000000001, 0.352, 192.0, 0.0, 0.0, 0.0, 0.0, 0.0, 0.0, 0.0, 0.0, 0.0, 1.654675501223695E9, 0.0, 2022-06-08 10:05:01.223
120.0, 31447.585695694175, 20447.353475970445, -20674.491903125276, -17701.329910913697, 6668.374737307398, -1215.7113809241512, 34374.859556539006, 455.5509037436132, -0.046, 0.9480000000000001, 0.352, 192.0, 0.0, 0.0, 0.0, 0.0, 0.0, 0.0, 0.0, 0.0, 0.0, 1.6546755012237017E9, 0.0, 2022-06-08 10:05:01.223
121.0, 31493.60793752765, 20491.25230208067, -20617.293789064144, -17654.279488835276, 6730.981973526714, -1156.0992784618472, 34323.048212891605, 493.750035017733, -0.046, 0.9480000000000001, 0.352, 192.0, 0.0, 0.0, 0.0, 0.0, 0.0, 0.0, 0.0, 0.0, 0.0, 1.654675501223709E9, 0.0, 2022-06-08 10:05:01.223
122.0, 31492.132722393602, 20491.47581952522, -20625.09454787905, -17655.441779546953, 6738.179235241322, -1156.2780924174897, 34323.897579180906, 515.1183027170066, -0.046, 0.9480000000000001, 0.352, 192.0, 0.0, 0.0, 0.0, 0.0, 0.0, 0.0, 0.0, 0.0, 0.0, 1.654675501703812E9, 0.0, 2022-06-08 10:05:01.703
123.0, 31446.17753579349, 20448.068731793017, -20685.444257908377, -17713.46690815293, 6682.65750201434, -1204.6919709076847, 34374.010190249704, 488.2515058817275, -0.046, 0.9480000000000001, 0.352, 192.0, 0.0, 0.0, 0.0, 0.0, 0.0, 0.0, 0.0, 0.0, 0.0, 1.6546755017038784E9, 0.0, 2022-06-08 10:05:01.703
124.0, 31429.950169318938, 20430.254391462135, -20705.784345362707, -17738.70202764297, 6659.903426158837, -1225.903776395771, 34410.152961033935, 463.3740143029707, -0.046, 0.9480000000000001, 0.352, 192.0, 0.0, 0.0, 0.0, 0.0, 0.0, 0.0, 0.0, 0.0, 0.0, 1.65467550170402E9, 0.0, 2022-06-08 10:05:01.704
125.0, 31445.328169504188, 20444.112473024426, -20679.453990394355, -17740.60192592167, 6677.673063000806, -1207.1506627977685, 34384.06847525459, 446.6102059614904, -0.046, 0.9480000000000001, 0.352, 192.0, 0.0, 0.0, 0.0, 0.0, 0.0, 0.0, 0.0, 0.0, 0.0, 1.654675501704028E9, 0.0, 2022-06-08 10:05:01.704
126.0, 31469.110425604635, 20465.883072123896, -20641.210155631325, -17674.910148967523, 6711.714769806239, -1167.7892408119728, 34328.83731470553, 482.104776156518, -0.038, 0.9520000000000001, 0.352, 192.0, 254.0, 208.0, 29.0, 192.0, 11.0, 0.0, 0.0, 0.0, 0.0, 1.6546755017040374E9, 0.0, 2022-06-08 10:05:01.704
127.0, 31476.03946638578, 20472.610947204943, -20635.666923006407, -17641.762511940302, 6719.42612164332, -1152.7018133046406, 34324.54577977011, 533.8490645705539, -0.038, 0.9520000000000001, 0.352, 192.0, 0.0, 0.0, 0.0, 0.0, 0.0, 0.0, 0.0, 0.0, 0.0, 1.6546755017040455E9, 0.0, 2022-06-08 10:05:01.704
128.0, 31450.55847770673, 20450.214499260725, -20680.549225872663, -17685.75074502835, 6674.454411799242, -1204.0214185740256, 34364.153070944914, 508.41277938041446, -0.038, 0.9520000000000001, 0.352, 192.0, 0.0, 0.0, 0.0, 0.0, 0.0, 0.0, 0.0, 0.0, 0.0, 1.654675501704095E9, 0.0, 2022-06-08 10:05:01.704
129.0, 31434.331111232175, 20436.490528165166, -20700.442278437888, -17716.618504121125, 6653.734344689173, -1221.0310961045143, 34392.673896869885, 468.13493587195114, -0.038, 0.9520000000000001, 0.352, 192.0, 0.0, 0.0, 0.0, 0.0, 0.0, 0.0, 0.0, 0.0, 0.0, 1.6546755017041E9, 0.0, 2022-06-08 10:05:01.704
130.0, 31456.012303353826, 20454.327220240502, -20663.383086130987, -17687.2259601624, 6687.3290166054985, -1199.5957731718747, 34369.964524503295, 456.2661595661831, -0.038, 0.9520000000000001, 0.352, 192.0, 0.0, 0.0, 0.0, 0.0, 0.0, 0.0, 0.0, 0.0, 0.0, 1.6546755017041051E9, 0.0, 2022-06-08 10:05:01.704
131.0, 31465.154166836044, 20459.19990053176, -20647.334533612076, -17687.293015395764, 6702.930534235303, -1182.8543165748497, 34314.75571569869, 474.5275347861689, -0.038, 0.9520000000000001, 0.352, 192.0, 0.0, 0.0, 0.0, 0.0, 0.0, 0.0, 0.0, 0.0, 0.0, 1.654675501704111E9, 0.0, 2022-06-08 10:05:01.704
132.0, 31446.89279161606, 20437.921039810306, -20665.640612320974, -17694.624387577103, 6693.98983645318, -1198.6346481602966, 34312.78876218662, 491.47015708329167, -0.038, 0.9520000000000001, 0.352, 192.0, 0.0, 0.0, 0.0, 0.0, 0.0, 0.0, 0.0, 0.0, 0.0, 1.6546755017041163E9, 0.0, 2022-06-08 10:05:01.704
133.0, 31435.13577403257, 20426.298132693548, -20687.053583509158, -17720.485355911893, 6676.220199611212, -1218.3712385143326, 34363.41546337789, 486.95510470331965, -0.038, 0.9520000000000001, 0.352, 192.0, 0.0, 0.0, 0.0, 0.0, 0.0, 0.0, 0.0, 0.0, 0.0, 1.6546755017041216E9, 0.0, 2022-06-08 10:05:01.704
134.0, 31433.526448431785, 20425.448766404246, -20695.90487431346, -17725.916829814534, 6658.830542424982, -1227.8036746744722, 34394.26087072621, 464.2010288478171, -0.038, 0.9520000000000001, 0.352, 192.0, 0.0, 0.0, 0.0, 0.0, 0.0, 0.0, 0.0, 0.0, 0.0, 1.6546755017041278E9, 0.0, 2022-06-08 10:05:01.704
135.0, 31437.236838011366, 20428.488603650167, -20677.688202582383, -17728.286114726798, 6666.31837681751, -1214.0126483455479, 34365.11419595649, 452.2651973086831, -0.038, 0.9520000000000001, 0.352, 192.0, 0.0, 0.0, 0.0, 0.0, 0.0, 0.0, 0.0, 0.0, 0.0, 1.6546755017041347E9, 0.0, 2022-06-08 10:05:01.704
136.0, 31463.723655190905, 20451.086217294484, -20640.60665853103, -17667.73523899737, 6699.577772567007, -1182.8096130859392, 34306.910253394875, 472.8064504631103, -0.036000000000000004, 0.9580000000000001, 0.35000000000000003, 192.0, 254.0, 224.0, 29.0, 240.0, 10.0, 240.0, 0.0, 0.0, 0.0, 1.654675501704141E9, 0.0, 2022-06-08 10:05:01.704
137.0, 31463.45543425744, 20446.23588874768, -20645.948725455848, -17667.668183764003, 6697.722577777216, -1186.1847264986905, 34305.88207314993, 490.71019777181124, -0.036000000000000004, 0.9580000000000001, 0.35000000000000003, 192.0, 0.0, 0.0, 0.0, 0.0, 0.0, 0.0, 0.0, 0.0, 0.0, 1.6546755017041464E9, 0.0, 2022-06-08 10:05:01.704
138.0, 31438.734404889874, 20428.354493183433, -20681.085667739593, -17703.2298091924, 6669.872304185904, -1211.1069215663579, 34352.26194289469, 474.3710725749818, -0.036000000000000004, 0.9580000000000001, 0.35000000000000003, 192.0, 0.0, 0.0, 0.0, 0.0, 0.0, 0.0, 0.0, 0.0, 0.0, 1.6546755017041533E9, 0.0, 2022-06-08 10:05:01.704
139.0, 31421.657672126017, 20411.23305693067, -20708.24303725279, -17729.046074038277, 6652.12501908839, -1230.2176630756455, 34392.45037942533, 463.99986314771934, -0.036000000000000004, 0.9580000000000001, 0.35000000000000003, 192.0, 0.0, 0.0, 0.0, 0.0, 0.0, 0.0, 0.0, 0.0, 0.0, 1.6546755017041616E9, 0.0, 2022-06-08 10:05:01.704
140.0, 31443.428271225486, 20431.528440896087, -20677.48703688229, -17700.7264138134, 6680.13175489089, -1201.8532993618608, 34371.79736754863, 467.4420317938366, -0.036000000000000004, 0.9580000000000001, 0.35000000000000003, 192.0, 0.0, 0.0, 0.0, 0.0, 0.0, 0.0, 0.0, 0.0, 0.0, 1.654675501704169E9, 0.0, 2022-06-08 10:05:01.704
141.0, 31467.65756221504, 20455.802435374553, -20622.434690288865, -17654.72652372438, 6709.345484893976, -1173.7124530926292, 34311.33589879703, 476.74035748724435, -0.036000000000000004, 0.9580000000000001, 0.35000000000000003, 192.0, 0.0, 0.0, 0.0, 0.0, 0.0, 0.0, 0.0, 0.0, 0.0, 1.6546755017041757E9, 0.0, 2022-06-08 10:05:01.704
142.0, 31475.81594894123, 20462.10562731095, -20626.055672890627, -17646.903413165022, 6714.419330885331, -1163.9670925101152, 34294.70620092228, 496.4992995857358, -0.036000000000000004, 0.9580000000000001, 0.35000000000000003, 192.0, 0.0, 0.0, 0.0, 0.0, 0.0, 0.0, 0.0, 0.0, 0.0, 1.6546755017041829E9, 0.0, 2022-06-08 10:05:01.704
143.0, 31465.154166836044, 20455.869490607918, -20654.755312771238, -17701.396966147062, 6690.815888740527, -1182.3178747079223, 34335.34167234202, 499.6508955539341, -0.036000000000000004, 0.9580000000000001, 0.35000000000000003, 192.0, 0.0, 0.0, 0.0, 0.0, 0.0, 0.0, 0.0, 0.0, 0.0, 1.6546755017041953E9, 0.0, 2022-06-08 10:05:01.704
144.0, 31412.1134772436, 20405.95804523922, -20715.61911292304, -17740.378408477118, 6633.908347357315, -1242.2205498481453, 34374.2113559498, 457.6296159779568, -0.036000000000000004, 0.9580000000000001, 0.35000000000000003, 192.0, 0.0, 0.0, 0.0, 0.0, 0.0, 0.0, 0.0, 0.0, 0.0, 1.654675501704205E9, 0.0, 2022-06-08 10:05:01.704
145.0, 31432.922951331493, 20426.164022226814, -20678.626975849507, -17680.252215892342, 6656.058926112524, -1211.8668808778384, 34358.296913897626, 447.88425539544295, -0.036000000000000004, 0.9580000000000001, 0.35000000000000003, 192.0, 0.0, 0.0, 0.0, 0.0, 0.0, 0.0, 0.0, 0.0, 0.0, 1.6546755017042108E9, 0.0, 2022-06-08 10:05:01.704
146.0, 31474.005457640345, 20465.4807407237, -20624.64751298994, -17662.773151728292, 6709.501947105164, -1140.6989265321406, 34304.6974306938, 484.719930257789, -0.042, 0.962, 0.34800000000000003, 192.0, 254.0, 176.0, 30.0, 16.0, 10.0, 224.0, 0.0, 0.0, 0.0, 1.6546755017042196E9, 0.0, 2022-06-08 10:05:01.704
147.0, 31469.66921921602, 20462.373848244413, -20634.45992880582, -17669.232805875876, 6709.99368548318, -1165.3081971774336, 34294.63914568891, 498.95799147581954, -0.042, 0.962, 0.34800000000000003, 192.0, 0.0, 0.0, 0.0, 0.0, 0.0, 0.0, 0.0, 0.0, 0.0, 1.6546755017042277E9, 0.0, 2022-06-08 10:05:01.704
148.0, 31459.387416766574, 20454.729551640696, -20653.66007729293, -17668.69636400895, 6694.861554486937, -1188.8222323444168, 34340.79549798912, 499.4944333427469, -0.042, 0.962, 0.34800000000000003, 192.0, 0.0, 0.0, 0.0, 0.0, 0.0, 0.0, 0.0, 0.0, 0.0, 1.6546755017042356E9, 0.0, 2022-06-08 10:05:01.704
149.0, 31437.281541500277, 20433.696560108252, -20680.079839239104, -17714.78566107579, 6658.897597658348, -1217.9689071141372, 34376.5135856287, 472.98526441875276, -0.042, 0.962, 0.34800000000000003, 192.0, 0.0, 0.0, 0.0, 0.0, 0.0, 0.0, 0.0, 0.0, 0.0, 1.6546755017042422E9, 0.0, 2022-06-08 10:05:01.704
150.0, 31439.42730896799, 20430.075577506494, -20671.76499030173, -17729.247239738375, 6666.765411706617, -1217.4324652472098, 34351.926666727864, 444.75501117169995, -0.042, 0.962, 0.34800000000000003, 192.0, 0.0, 0.0, 0.0, 0.0, 0.0, 0.0, 0.0, 0.0, 0.0, 1.6546755017042603E9, 0.0, 2022-06-08 10:05:01.704
151.0, 31470.630344227597, 20455.891842352372, -20629.3190275811, -17658.77218947079, 6703.891659246881, -1175.9252757937045, 34291.956936354276, 454.1874473318395, -0.042, 0.962, 0.34800000000000003, 192.0, 0.0, 0.0, 0.0, 0.0, 0.0, 0.0, 0.0, 0.0, 0.0, 1.65467550170427E9, 0.0, 2022-06-08 10:05:01.704
152.0, 31477.42527454201, 20461.792702888575, -20632.02358866019, -17659.48744529336, 6707.132662192901, -1169.398566412755, 34272.15329076687, 463.28460732514947, -0.042, 0.962, 0.34800000000000003, 192.0, 0.0, 0.0, 0.0, 0.0, 0.0, 0.0, 0.0, 0.0, 0.0, 1.6546755017042787E9, 0.0, 2022-06-08 10:05:01.704
153.0, 31447.205716038436, 20430.969647284706, -20675.542435114676, -17710.941161029477, 6675.08026064399, -1213.6326686898076, 34322.24355009122, 453.1369153424401, -0.042, 0.962, 0.34800000000000003, 192.0, 0.0, 0.0, 0.0, 0.0, 0.0, 0.0, 0.0, 0.0, 0.0, 1.6546755017042933E9, 0.0, 2022-06-08 10:05:01.704
154.0, 31421.724727359382, 20407.097984206437, -20703.459763939354, -17735.818652608235, 6647.408801008321, -1234.1068666108688, 34366.812928535095, 452.30990079759374, -0.042, 0.962, 0.34800000000000003, 192.0, 0.0, 0.0, 0.0, 0.0, 0.0, 0.0, 0.0, 0.0, 0.0, 1.6546755017043035E9, 0.0, 2022-06-08 10:05:01.704
155.0, 31431.85006759764, 20413.110603464916, -20682.091496240082, -17705.532038871293, 6652.527350488585, -1205.0272470745144, 34337.375681087455, 438.80944714658824, -0.042, 0.962, 0.34800000000000003, 192.0, 0.0, 0.0, 0.0, 0.0, 0.0, 0.0, 0.0, 0.0, 0.0, 1.6546755017043183E9, 0.0, 2022-06-08 10:05:01.704
156.0, 31464.50596624684, 20443.888955579874, -20638.393835829957, -17666.64000351906, 6692.46991783022, -1164.458830888132, 34279.97640132623, 452.8686944089764, -0.048, 0.964, 0.34400000000000003, 192.0, 254.0, 128.0, 30.0, 32.0, 10.0, 192.0, 0.0, 0.0, 0.0, 1.6546755017043328E9, 0.0, 2022-06-08 10:05:01.704
157.0, 31468.506928504343, 20449.298077738058, -20639.958457941826, -17657.073456892187, 6705.65744705885, -1169.912656535227, 34276.31071523556, 473.0299679076634, -0.048, 0.964, 0.34400000000000003, 192.0, 0.0, 0.0, 0.0, 0.0, 0.0, 0.0, 0.0, 0.0, 0.0, 1.6546755017043536E9, 0.0, 2022-06-08 10:05:01.704
158.0, 31446.04342532676, 20433.361283941424, -20672.70376356885, -17694.244407921364, 6685.652635771351, -1205.0272470745144, 34326.199808859805, 475.0639766530963, -0.048, 0.964, 0.34400000000000003, 192.0, 0.0, 0.0, 0.0, 0.0, 0.0, 0.0, 0.0, 0.0, 0.0, 1.6546755017043629E9, 0.0, 2022-06-08 10:05:01.704
159.0, 31431.201867008433, 20423.973551270195, -20691.52393240022, -17714.048053508766, 6667.480667529187, -1221.0981513378802, 34358.96746623128, 451.3264240415602, -0.048, 0.964, 0.34400000000000003, 192.0, 0.0, 0.0, 0.0, 0.0, 0.0, 0.0, 0.0, 0.0, 0.0, 1.6546755017043746E9, 0.0, 2022-06-08 10:05:01.704
160.0, 31460.16972782251, 20444.939487569274, -20651.76017901423, -17684.275529894298, 6687.1502026498565, -1193.9184300802267, 34334.313492097084, 453.9192263983758, -0.048, 0.964, 0.34400000000000003, 192.0, 0.0, 0.0, 0.0, 0.0, 0.0, 0.0, 0.0, 0.0, 0.0, 1.6546755017043836E9, 0.0, 2022-06-08 10:05:01.704
161.0, 31488.399981069564, 20468.364115758435, -20617.919637908893, -17681.83918974867, 6711.46890061723, -1166.6269501002969, 34276.80245361358, 466.07857538206287, -0.048, 0.964, 0.34400000000000003, 192.0, 0.0, 0.0, 0.0, 0.0, 0.0, 0.0, 0.0, 0.0, 0.0, 1.654675501704393E9, 0.0, 2022-06-08 10:05:01.704
162.0, 31480.75568446585, 20458.864624364927, -20629.56489677011, -17645.67406721998, 6710.083092461002, -1175.8358688158833, 34266.63240988641, 478.12616564347337, -0.048, 0.964, 0.34400000000000003, 192.0, 0.0, 0.0, 0.0, 0.0, 0.0, 0.0, 0.0, 0.0, 0.0, 1.654675501704399E9, 0.0, 2022-06-08 10:05:01.704
163.0, 31457.71103593243, 20433.405987430335, -20674.737772314285, -17693.529152098796, 6677.538952534074, -1210.6151831883412, 34304.42920976034, 462.7258137137668, -0.048, 0.964, 0.34400000000000003, 192.0, 0.0, 0.0, 0.0, 0.0, 0.0, 0.0, 0.0, 0.0, 0.0, 1.6546755017044098E9, 0.0, 2022-06-08 10:05:01.704
164.0, 31441.148393291045, 20411.45657437522, -20703.057432539157, -17721.06650126773, 6655.097801100946, -1231.558767742964, 34345.89169572493, 439.18942680232846, -0.048, 0.964, 0.34400000000000003, 192.0, 0.0, 0.0, 0.0, 0.0, 0.0, 0.0, 0.0, 0.0, 0.0, 1.6546755017044303E9, 0.0, 2022-06-08 10:05:01.704
165.0, 31445.194059037458, 20412.797679042542, -20664.34421114257, -17715.299751198265, 6665.26784482811, -1216.8066164024613, 34329.73138448374, 410.8027113440885, -0.048, 0.964, 0.34400000000000003, 192.0, 0.0, 0.0, 0.0, 0.0, 0.0, 0.0, 0.0, 0.0, 0.0, 1.6546755017044432E9, 0.0, 2022-06-08 10:05:01.704
166.0, 31476.41944604152, 20442.14551951236, -20623.753443211728, -17658.414561559508, 6709.233726171699, -1172.2372379585788, 34273.069712289536, 440.26231053618324, -0.054, 0.9580000000000001, 0.34400000000000003, 192.0, 254.0, 80.0, 29.0, 240.0, 10.0, 192.0, 0.0, 0.0, 0.0, 1.6546755017044592E9, 0.0, 2022-06-08 10:05:01.704
167.0, 31467.99283838187, 20435.08236826448, -20639.287905608166, -17702.335739414186, 6705.724502292216, -1188.554011410953, 34261.37974993941, 461.4964677687249, -0.054, 0.9580000000000001, 0.34400000000000003, 192.0, 0.0, 0.0, 0.0, 0.0, 0.0, 0.0, 0.0, 0.0, 0.0, 1.6546755017044768E9, 0.0, 2022-06-08 10:05:01.704
168.0, 31462.494309245863, 20435.3729409424, -20651.268440636213, -17677.570006557704, 6697.566115566029, -1187.1905549991793, 34306.32910803903, 471.7559184737109, -0.054, 0.9580000000000001, 0.34400000000000003, 192.0, 0.0, 0.0, 0.0, 0.0, 0.0, 0.0, 0.0, 0.0, 0.0, 1.654675501704502E9, 0.0, 2022-06-08 10:05:01.704
169.0, 31440.23197176838, 20418.18444945627, -20677.688202582383, -17684.521399083307, 6669.492324530163, -1218.035962347503, 34345.82464049156, 454.1874473318395, -0.054, 0.9580000000000001, 0.34400000000000003, 192.0, 0.0, 0.0, 0.0, 0.0, 0.0, 0.0, 0.0, 0.0, 0.0, 1.654675501704515E9, 0.0, 2022-06-08 10:05:01.704
170.0, 31435.56045717722, 20408.819068529498, -20674.42484789191, -17698.13361145659, 6667.547722762552, -1220.874633893327, 34321.237721590725, 423.9231853393537, -0.054, 0.9580000000000001, 0.34400000000000003, 192.0, 0.0, 0.0, 0.0, 0.0, 0.0, 0.0, 0.0, 0.0, 0.0, 1.654675501704521E9, 0.0, 2022-06-08 10:05:01.704
171.0, 31470.451530271952, 20434.925906053293, -20627.12855662448, -17660.537977282762, 6702.595258068473, -1174.427708915199, 34260.64214237239, 445.9843571167418, -0.054, 0.9580000000000001, 0.34400000000000003, 192.0, 0.0, 0.0, 0.0, 0.0, 0.0, 0.0, 0.0, 0.0, 0.0, 1.654675501704537E9, 0.0, 2022-06-08 10:05:01.704
172.0, 31475.905355919047, 20445.61003990293, -20622.3676350555, -17662.281413350276, 6716.006304741658, -1167.0069297560372, 34252.61786611293, 471.5771045180684, -0.054, 0.9580000000000001, 0.34400000000000003, 192.0, 0.0, 0.0, 0.0, 0.0, 0.0, 0.0, 0.0, 0.0, 0.0, 1.6546755017045448E9, 0.0, 2022-06-08 10:05:01.704
173.0, 31461.935515634483, 20434.456519419735, -20649.5250045687, -17678.35231761364, 6696.493231832174, -1186.1847264986905, 34302.1940353148, 483.7588052462108, -0.054, 0.9580000000000001, 0.34400000000000003, 192.0, 0.0, 0.0, 0.0, 0.0, 0.0, 0.0, 0.0, 0.0, 0.0, 1.6546755017045517E9, 0.0, 2022-06-08 10:05:01.704
174.0, 31420.428326180976, 20394.40219335582, -20693.71440335684, -17724.687483869493, 6651.2309493101775, -1233.5033695105756, 34346.45048933631, 445.269101294172, -0.054, 0.9580000000000001, 0.34400000000000003, 192.0, 0.0, 0.0, 0.0, 0.0, 0.0, 0.0, 0.0, 0.0, 0.0, 1.6546755017045588E9, 0.0, 2022-06-08 10:05:01.704
175.0, 31431.470087941896, 20405.198085927736, -20672.256728679746, -17713.802184319757, 6661.825676181994, -1222.327497282922, 34321.349480313, 421.173920771351, -0.054, 0.9580000000000001, 0.34400000000000003, 192.0, 0.0, 0.0, 0.0, 0.0, 0.0, 0.0, 0.0, 0.0, 0.0, 1.654675501704564E9, 0.0, 2022-06-08 10:05:01.704
176.0, 31481.828568199704, 20455.601269674455, -20612.4658122618, -17661.990840672355, 6715.335752407998, -1157.2615691735232, 34260.86565981694, 460.1330113569512, -0.062, 0.96, 0.34400000000000003, 192.0, 254.0, 16.0, 30.0, 0.0, 10.0, 192.0, 0.0, 0.0, 0.0, 1.6546755017045712E9, 0.0, 2022-06-08 10:05:01.704
177.0, 31498.391210841088, 20468.2300052917, -20600.686442933853, -17664.851863962635, 6737.374572440931, -1141.7271067770848, 34244.10185147546, 493.0571309396185, -0.062, 0.96, 0.34400000000000003, 192.0, 0.0, 0.0, 0.0, 0.0, 0.0, 0.0, 0.0, 0.0, 0.0, 1.6546755017045772E9, 0.0, 2022-06-08 10:05:01.704
178.0, 31459.588582466673, 20433.361283941424, -20648.13919641247, -17688.83528576318, 6702.975237724214, -1184.3742351978105, 34292.47102647675, 485.94927620283084, -0.062, 0.96, 0.34400000000000003, 192.0, 0.0, 0.0, 0.0, 0.0, 0.0, 0.0, 0.0, 0.0, 0.0, 1.654675501704582E9, 0.0, 2022-06-08 10:05:01.704
179.0, 31421.165933748, 20395.51978057859, -20692.86503706754, -17697.798335289757, 6657.489437757664, -1228.5412822414974, 34340.393166588925, 440.8881593809318, -0.062, 0.96, 0.34400000000000003, 192.0, 0.0, 0.0, 0.0, 0.0, 0.0, 0.0, 0.0, 0.0, 0.0, 1.6546755017045872E9, 0.0, 2022-06-08 10:05:01.704
180.0, 31433.168820520503, 20403.90168474933, -20672.882577524495, -17697.284245167284, 6668.486496029675, -1222.2157385606456, 34318.153180855894, 428.1029615524962, -0.062, 0.96, 0.34400000000000003, 192.0, 0.0, 0.0, 0.0, 0.0, 0.0, 0.0, 0.0, 0.0, 0.0, 1.6546755017045932E9, 0.0, 2022-06-08 10:05:01.704
181.0, 31455.297047531254, 20419.07851923448, -20643.221812632302, -17682.040355448768, 6694.638037042384, -1189.939819567182, 34253.95897078025, 439.6811651803452, -0.062, 0.96, 0.34400000000000003, 192.0, 0.0, 0.0, 0.0, 0.0, 0.0, 0.0, 0.0, 0.0, 0.0, 1.654675501704604E9, 0.0, 2022-06-08 10:05:01.704
182.0, 31466.38351278109, 20413.89291452085, -20653.79418775966, -17679.805181003238, 6700.941228978781, -1188.554011410953, 34231.71898504722, 457.0484706221188, -0.062, 0.96, 0.34400000000000003, 192.0, 0.0, 0.0, 0.0, 0.0, 0.0, 0.0, 0.0, 0.0, 0.0, 1.6546755017046113E9, 0.0, 2022-06-08 10:05:01.704
183.0, 31444.1211753036, 20400.75008878113, -20684.326670685612, -17714.718605842427, 6663.703222716239, -1227.9377851412041, 34280.44578795979, 451.59464497502387, -0.062, 0.96, 0.34400000000000003, 192.0, 0.0, 0.0, 0.0, 0.0, 0.0, 0.0, 0.0, 0.0, 0.0, 1.654675501704617E9, 0.0, 2022-06-08 10:05:01.704
184.0, 31410.88413129856, 20389.70832702021, -20706.119621529535, -17763.400705266085, 6635.115341557902, -1247.1379336283128, 34325.641015248424, 431.7909993876218, -0.062, 0.96, 0.34400000000000003, 192.0, 0.0, 0.0, 0.0, 0.0, 0.0, 0.0, 0.0, 0.0, 0.0, 1.6546755017046237E9, 0.0, 2022-06-08 10:05:01.704
185.0, 31403.44100039494, 20383.874521717375, -20691.85920856705, -17720.88768731209, 6642.2455480391445, -1231.2234915761342, 34304.47391324925, 423.02911556114145, -0.062, 0.96, 0.34400000000000003, 192.0, 0.0, 0.0, 0.0, 0.0, 0.0, 0.0, 0.0, 0.0, 0.0, 1.6546755017046287E9, 0.0, 2022-06-08 10:05:01.704
186.0, 31429.54783791874, 20405.667472561297, -20645.18876614437, -17657.855767948124, 6687.396071838864, -1187.5705346549196, 34266.45359593077, 447.3031100396049, -0.056, 0.96, 0.35000000000000003, 192.0, 254.0, 64.0, 30.0, 0.0, 10.0, 240.0, 0.0, 0.0, 0.0, 1.6546755017046354E9, 0.0, 2022-06-08 10:05:01.704
187.0, 31450.066739328715, 20423.817089059008, -20621.540620510652, -17634.006456614312, 6723.04710424508, -1155.6075400838304, 34267.92881106482, 489.9278867158755, -0.056, 0.96, 0.35000000000000003, 192.0, 0.0, 0.0, 0.0, 0.0, 0.0, 0.0, 0.0, 0.0, 0.0, 1.654675501704641E9, 0.0, 2022-06-08 10:05:01.704
188.0, 31413.052250510726, 20391.652928787822, -20664.120693698012, -17673.16671290001, 6695.174478909312, -1185.1788979982016, 34316.99089014422, 497.2369071527609, -0.056, 0.96, 0.35000000000000003, 192.0, 0.0, 0.0, 0.0, 0.0, 0.0, 0.0, 0.0, 0.0, 0.0, 1.6546755017046473E9, 0.0, 2022-06-08 10:05:01.704
189.0, 31384.97845947486, 20366.373105808867, -20687.09828699807, -17693.283282909786, 6672.442754798264, -1205.518985452531, 34353.64775105092, 477.8579447100097, -0.056, 0.96, 0.35000000000000003, 192.0, 0.0, 0.0, 0.0, 0.0, 0.0, 0.0, 0.0, 0.0, 0.0, 1.6546755017046533E9, 0.0, 2022-06-08 10:05:01.704
190.0, 31363.230212119845, 20347.262364299582, -20683.879635796504, -17692.009233475834, 6665.804286695038, -1207.910622109249, 34335.54283804212, 450.7452786857222, -0.056, 0.96, 0.35000000000000003, 192.0, 0.0, 0.0, 0.0, 0.0, 0.0, 0.0, 0.0, 0.0, 0.0, 1.65467550170466E9, 0.0, 2022-06-08 10:05:01.704
191.0, 31375.50131982581, 20350.7045329457, -20648.809748746127, -17661.432047060975, 6694.839202742482, -1166.5151913780203, 34281.71983739374, 453.785115931644, -0.056, 0.96, 0.35000000000000003, 192.0, 0.0, 0.0, 0.0, 0.0, 0.0, 0.0, 0.0, 0.0, 0.0, 1.6546755017046661E9, 0.0, 2022-06-08 10:05:01.704
192.0, 31365.912421454483, 20328.755119890586, -20654.554147071143, -17654.994744657844, 6700.382435367398, -1166.1799152111907, 34276.4895291912, 486.99980819223026, -0.056, 0.96, 0.35000000000000003, 192.0, 0.0, 0.0, 0.0, 0.0, 0.0, 0.0, 0.0, 0.0, 0.0, 1.6546755017046783E9, 0.0, 2022-06-08 10:05:01.704
193.0, 31329.769650670252, 20291.62887235032, -20697.62595863652, -17700.860524280135, 6667.950054162748, -1199.7522353830618, 34319.51663726767, 479.1990493773281, -0.056, 0.96, 0.35000000000000003, 192.0, 0.0, 0.0, 0.0, 0.0, 0.0, 0.0, 0.0, 0.0, 0.0, 1.6546755017046833E9, 0.0, 2022-06-08 10:05:01.704
194.0, 31323.86879013405, 20282.64347107929, -20701.09047902709, -17720.932390801, 6662.451525026742, -1195.4383487031876, 34356.888753996944, 493.3477036175375, -0.056, 0.96, 0.35000000000000003, 192.0, 0.0, 0.0, 0.0, 0.0, 0.0, 0.0, 0.0, 0.0, 0.0, 1.654675501704688E9, 0.0, 2022-06-08 10:05:01.704
195.0, 31315.218665029846, 20267.5336918275, -20688.662909109942, -17670.149227398542, 6668.173571607301, -1183.1895927416795, 34344.46118407979, 509.01627648070775, -0.044, 0.9580000000000001, 0.354, 192.0, 254.0, 160.0, 29.0, 240.0, 11.0, 16.0, 0.0, 0.0, 0.0, 1.6546755017046924E9, 0.0, 2022-06-08 10:05:01.704
196.0, 31307.4402579594, 20264.069171436928, -20674.313089169635, -17661.25323310533, 6683.193943881267, -1168.3480344233556, 34289.83352063102, 497.8404042530542, -0.044, 0.9580000000000001, 0.354, 192.0, 0.0, 0.0, 0.0, 0.0, 0.0, 0.0, 0.0, 0.0, 0.0, 1.6546755017047E9, 0.0, 2022-06-08 10:05:01.704
197.0, 31322.974720355836, 20278.4860466106, -20648.56387955712, -17580.026993754745, 6714.419330885331, -1132.9205194616939, 34269.716950621245, 527.6576313564339, -0.044, 0.9580000000000001, 0.354, 192.0, 0.0, 0.0, 0.0, 0.0, 0.0, 0.0, 0.0, 0.0, 0.0, 1.654675501704705E9, 0.0, 2022-06-08 10:05:01.704
198.0, 31306.836760859107, 20262.951584214163, -20671.04973447916, -17624.81988964318, 6703.869307502426, -1138.1284759197804, 34313.682831964834, 547.975367066308, -0.044, 0.9580000000000001, 0.354, 192.0, 0.0, 0.0, 0.0, 0.0, 0.0, 0.0, 0.0, 0.0, 0.0, 1.6546755017047102E9, 0.0, 2022-06-08 10:05:01.704
199.0, 31254.734844533785, 20213.37541501229, -20721.609380437065, -17691.048108464256, 6652.616757466407, -1196.5782876704084, 34349.5573818156, 502.3107531441156, -0.044, 0.9580000000000001, 0.354, 192.0, 0.0, 0.0, 0.0, 0.0, 0.0, 0.0, 0.0, 0.0, 0.0, 1.6546755017047162E9, 0.0, 2022-06-08 10:05:01.704
200.0, 31260.79216728117, 20219.70095869314, -20699.995243548783, -17671.579739043682, 6665.603120994941, -1177.556953138942, 34328.993776916715, 486.2174971362945, -0.044, 0.9580000000000001, 0.354, 192.0, 0.0, 0.0, 0.0, 0.0, 0.0, 0.0, 0.0, 0.0, 0.0, 1.6546755017047236E9, 0.0, 2022-06-08 10:05:01.704
201.0, 31271.811577297638, 20232.329694310392, -20671.09443796807, -17623.076453575668, 6689.2065631397445, -1151.1148394483137, 34278.523537936635, 498.4662530978028, -0.044, 0.9580000000000001, 0.354, 192.0, 0.0, 0.0, 0.0, 0.0, 0.0, 0.0, 0.0, 0.0, 0.0, 1.654675501704732E9, 0.0, 2022-06-08 10:05:01.704
202.0, 31274.51613837673, 20242.81266245993, -20660.678525051895, -17619.075491318166, 6709.010208727147, -1129.3665920933, 34254.473060902725, 526.7859133226768, -0.044, 0.9580000000000001, 0.354, 192.0, 0.0, 0.0, 0.0, 0.0, 0.0, 0.0, 0.0, 0.0, 0.0, 1.6546755017047367E9, 0.0, 2022-06-08 10:05:01.704
203.0, 31244.52009731771, 20227.188793085672, -20698.140048758993, -17660.157997627022, 6683.529220048096, -1156.6133685843192, 34297.20959630127, 523.9919452657634, -0.044, 0.9580000000000001, 0.354, 192.0, 0.0, 0.0, 0.0, 0.0, 0.0, 0.0, 0.0, 0.0, 0.0, 1.6546755017047431E9, 0.0, 2022-06-08 10:05:01.704
204.0, 31227.51041978722, 20215.163554568717, -20725.744453161296, -17664.44953256244, 6660.350461047943, -1177.6240083723078, 34353.26777139518, 499.29326764264914, -0.044, 0.9580000000000001, 0.354, 192.0, 0.0, 0.0, 0.0, 0.0, 0.0, 0.0, 0.0, 0.0, 0.0, 1.6546755017047489E9, 0.0, 2022-06-08 10:05:01.704
205.0, 31223.97884416328, 20215.118851079806, -20728.538421218207, -17661.364991827606, 6656.438905768265, -1174.8970955487605, 34339.23087587725, 476.5615435316019, -0.04, 0.9540000000000001, 0.352, 192.0, 254.0, 192.0, 29.0, 208.0, 11.0, 0.0, 0.0, 0.0, 0.0, 1.6546755017047555E9, 0.0, 2022-06-08 10:05:01.704
206.0, 31256.52298409021, 20250.635773019287, -20681.867978795526, -17628.77614841177, 6694.928609720303, -1140.8106852544172, 34285.76550314015, 500.85788975452067, -0.04, 0.9540000000000001, 0.352, 192.0, 0.0, 0.0, 0.0, 0.0, 0.0, 0.0, 0.0, 0.0, 0.0, 1.6546755017047625E9, 0.0, 2022-06-08 10:05:01.704
207.0, 31268.101187718057, 20266.281994138004, -20655.89525173846, -17602.199924254408, 6709.300781405066, -1127.7349147480625, 34271.57214541103, 523.9472417768528, -0.04, 0.9540000000000001, 0.352, 192.0, 0.0, 0.0, 0.0, 0.0, 0.0, 0.0, 0.0, 0.0, 0.0, 1.654675501704769E9, 0.0, 2022-06-08 10:05:01.704
208.0, 31260.43453936989, 20268.338354627893, -20690.451048666364, -17634.095863592134, 6689.2289148842, -1147.0021184685372, 34313.325204053544, 529.8928058019645, -0.04, 0.9540000000000001, 0.352, 192.0, 0.0, 0.0, 0.0, 0.0, 0.0, 0.0, 0.0, 0.0, 0.0, 1.6546755017047744E9, 0.0, 2022-06-08 10:05:01.704
209.0, 31249.817460753617, 20261.521072569023, -20708.198333763878, -17659.576852271184, 6667.011280895625, -1164.525886121498, 34354.36300687349, 512.3913898934591, -0.04, 0.9540000000000001, 0.352, 192.0, 0.0, 0.0, 0.0, 0.0, 0.0, 0.0, 0.0, 0.0, 0.0, 1.6546755017047803E9, 0.0, 2022-06-08 10:05:01.704
210.0, 31245.838850240572, 20254.25675562105, -20704.018557550735, -17669.232805875876, 6659.165818591812, -1167.6551303452409, 34337.91212295439, 486.23984888074983, -0.04, 0.9540000000000001, 0.352, 192.0, 0.0, 0.0, 0.0, 0.0, 0.0, 0.0, 0.0, 0.0, 0.0, 1.6546755017047882E9, 0.0, 2022-06-08 10:05:01.704
211.0, 31282.540414636187, 20288.7902008045, -20670.33447865659, -17633.849994403125, 6682.098708402957, -1141.816513754906, 34278.05415130308, 486.4633663253029, -0.04, 0.9540000000000001, 0.352, 192.0, 0.0, 0.0, 0.0, 0.0, 0.0, 0.0, 0.0, 0.0, 0.0, 1.654675501704795E9, 0.0, 2022-06-08 10:05:01.704
212.0, 31297.605490399063, 20307.7444801026, -20657.75044652825, -17598.422479441462, 6702.528202835108, -1120.1800251221687, 34257.691712104286, 521.7344190757775, -0.04, 0.9540000000000001, 0.352, 192.0, 0.0, 0.0, 0.0, 0.0, 0.0, 0.0, 0.0, 0.0, 0.0, 1.6546755017048025E9, 0.0, 2022-06-08 10:05:01.704
213.0, 31294.96798455334, 20310.560799903968, -20682.359717173546, -17645.517605008794, 6685.451470071253, -1135.625080540786, 34301.679945192336, 525.8694918000093, -0.04, 0.9540000000000001, 0.352, 192.0, 0.0, 0.0, 0.0, 0.0, 0.0, 0.0, 0.0, 0.0, 0.0, 1.654675501704808E9, 0.0, 2022-06-08 10:05:01.704
214.0, 31280.014667512736, 20300.837791065907, -20718.56954319114, -17642.097788107134, 6654.494304000653, -1168.8174210569168, 34352.776033017166, 493.9512007178308, -0.04, 0.9540000000000001, 0.352, 192.0, 0.0, 0.0, 0.0, 0.0, 0.0, 0.0, 0.0, 0.0, 0.0, 1.654675501704822E9, 0.0, 2022-06-08 10:05:01.704
215.0, 31291.99520254078, 20311.365462704358, -20704.510295928754, -17618.91902910698, 6654.427248767287, -1164.1235547213025, 34346.405785847404, 478.6402557659454, -0.044, 0.964, 0.354, 192.0, 254.0, 160.0, 30.0, 32.0, 11.0, 16.0, 0.0, 0.0, 0.0, 1.6546755017048328E9, 0.0, 2022-06-08 10:05:01.704
216.0, 31341.01257813127, 20357.812387682487, -20653.23539414828, -17590.75583109329, 6698.504888833152, -1127.1537693922246, 34296.85196838999, 498.4215496088922, -0.044, 0.964, 0.354, 192.0, 0.0, 0.0, 0.0, 0.0, 0.0, 0.0, 0.0, 0.0, 0.0, 1.6546755017048411E9, 0.0, 2022-06-08 10:05:01.704
217.0, 31356.100005638604, 20367.870672687375, -20651.536661569677, -17608.413709212986, 6709.054912216057, -1130.3500688493334, 34278.68000014782, 505.6635148124117, -0.044, 0.964, 0.354, 192.0, 0.0, 0.0, 0.0, 0.0, 0.0, 0.0, 0.0, 0.0, 0.0, 1.6546755017048476E9, 0.0, 2022-06-08 10:05:01.704
218.0, 31323.10883082257, 20326.519945445056, -20699.324691215123, -17649.451512032927, 6667.145391362356, -1160.9496070086489, 34313.99575638721, 513.5983840940457, -0.044, 0.964, 0.354, 192.0, 0.0, 0.0, 0.0, 0.0, 0.0, 0.0, 0.0, 0.0, 0.0, 1.6546755017048554E9, 0.0, 2022-06-08 10:05:01.704
219.0, 31304.221606757834, 20311.54427666, -20729.030159596226, -17680.16280891452, 6633.014277579103, -1191.9961800570704, 34360.12975694296, 496.9239827303866, -0.044, 0.964, 0.354, 192.0, 0.0, 0.0, 0.0, 0.0, 0.0, 0.0, 0.0, 0.0, 0.0, 1.654675501704867E9, 0.0, 2022-06-08 10:05:01.704
220.0, 31329.702595436884, 20339.72982641814, -20700.46463018234, -17645.159977097508, 6645.754771918628, -1178.652188617252, 34340.236704377734, 470.5936277620349, -0.044, 0.964, 0.354, 192.0, 0.0, 0.0, 0.0, 0.0, 0.0, 0.0, 0.0, 0.0, 0.0, 1.6546755017048745E9, 0.0, 2022-06-08 10:05:01.704
221.0, 31385.760770530796, 20393.55282706652, -20644.898193466448, -17596.857857329593, 6694.32511262001, -1138.754324764529, 34281.27280250464, 458.3448718005266, -0.044, 0.964, 0.354, 192.0, 0.0, 0.0, 0.0, 0.0, 0.0, 0.0, 0.0, 0.0, 0.0, 1.6546755017048922E9, 0.0, 2022-06-08 10:05:01.704
222.0, 31411.040593509748, 20412.015367986605, -20622.54644901114, -17586.263130457777, 6725.841072301993, -1112.0886936293475, 34258.45167141577, 500.18733742086147, -0.044, 0.964, 0.354, 192.0, 0.0, 0.0, 0.0, 0.0, 0.0, 0.0, 0.0, 0.0, 0.0, 1.6546755017049055E9, 0.0, 2022-06-08 10:05:01.704
223.0, 31394.947337501926, 20400.4148126143, -20656.90108023895, -17576.67423208645, 6699.197792911267, -1125.5667955358977, 34299.95886086927, 562.2134282843385, -0.044, 0.964, 0.354, 192.0, 0.0, 0.0, 0.0, 0.0, 0.0, 0.0, 0.0, 0.0, 0.0, 1.6546755017049165E9, 0.0, 2022-06-08 10:05:01.704
224.0, 31366.046531921213, 20379.18065538176, -20697.290682469687, -17635.056988603712, 6662.295062815555, -1166.8057640559393, 34351.166707416385, 531.5915383805678, -0.044, 0.964, 0.354, 192.0, 0.0, 0.0, 0.0, 0.0, 0.0, 0.0, 0.0, 0.0, 0.0, 1.6546755017049243E9, 0.0, 2022-06-08 10:05:01.704
225.0, 31371.701523268406, 20378.04071641454, -20691.47922891131, -17632.218317057886, 6661.602158737441, -1178.652188617252, 34344.26001837969, 506.1105497015178, -0.04, 0.964, 0.358, 192.0, 254.0, 192.0, 30.0, 32.0, 11.0, 48.0, 0.0, 0.0, 0.0, 1.6546755017049377E9, 0.0, 2022-06-08 10:05:01.704
226.0, 31397.383677647555, 20392.681109032765, -20672.815522291126, -17595.11442126208, 6682.9257229478035, -1158.7591360520287, 34282.32333449404, 509.41860788090327, -0.04, 0.964, 0.358, 192.0, 0.0, 0.0, 0.0, 0.0, 0.0, 0.0, 0.0, 0.0, 0.0, 1.654675501704944E9, 0.0, 2022-06-08 10:05:01.704
227.0, 31428.519657673798, 20421.33604542447, -20623.529925767176, -17571.175702950444, 6721.862461788948, -1127.623156025786, 34260.150403994376, 546.7907246101767, -0.04, 0.964, 0.358, 192.0, 0.0, 0.0, 0.0, 0.0, 0.0, 0.0, 0.0, 0.0, 0.0, 1.65467550170495E9, 0.0, 2022-06-08 10:05:01.704
228.0, 31400.98230850486, 20396.592664312444, -20667.00406873275, -17618.851973873614, 6687.843106727971, -1165.5764181108973, 34293.67802067733, 532.7985325811544, -0.04, 0.964, 0.358, 192.0, 0.0, 0.0, 0.0, 0.0, 0.0, 0.0, 0.0, 0.0, 0.0, 1.654675501704955E9, 0.0, 2022-06-08 10:05:01.704
229.0, 31366.471215065863, 20364.629669741353, -20715.127374545023, -17667.042334919257, 6646.492379485653, -1202.8367761178943, 34336.52631479815, 493.57122106209056, -0.04, 0.964, 0.358, 192.0, 0.0, 0.0, 0.0, 0.0, 0.0, 0.0, 0.0, 0.0, 0.0, 1.6546755017049627E9, 0.0, 2022-06-08 10:05:01.704
230.0, 31396.333145658155, 20394.871579989383, -20678.76108631624, -17649.429160288473, 6670.028766397091, -1171.9243135362046, 34336.43690782034, 506.4458258683474, -0.04, 0.964, 0.358, 192.0, 0.0, 0.0, 0.0, 0.0, 0.0, 0.0, 0.0, 0.0, 0.0, 1.654675501704969E9, 0.0, 2022-06-08 10:05:01.704
231.0, 31427.357366962122, 20425.09113849296, -20640.718417253305, -17602.088165532132, 6704.51750809163, -1138.396696853244, 34291.21932878725, 531.8374075695763, -0.04, 0.964, 0.358, 192.0, 0.0, 0.0, 0.0, 0.0, 0.0, 0.0, 0.0, 0.0, 0.0, 1.6546755017049792E9, 0.0, 2022-06-08 10:05:01.704
232.0, 31452.19015505197, 20447.979324815195, -20617.517306508696, -17544.420664837442, 6736.90518580737, -1115.5755657643756, 34279.61877341494, 552.9151025909308, -0.04, 0.964, 0.358, 192.0, 0.0, 0.0, 0.0, 0.0, 0.0, 0.0, 0.0, 0.0, 0.0, 1.6546755017049863E9, 0.0, 2022-06-08 10:05:01.704
233.0, 31451.050216084746, 20451.62265916141, -20640.919582953404, -17576.495418130806, 6715.983952997202, -1129.7689234934955, 34319.53898901212, 567.6449021869781, -0.04, 0.964, 0.358, 192.0, 0.0, 0.0, 0.0, 0.0, 0.0, 0.0, 0.0, 0.0, 0.0, 1.6546755017049925E9, 0.0, 2022-06-08 10:05:01.704
234.0, 31415.287424956256, 20416.820993044497, -20695.279025468713, -17642.455416018416, 6658.830542424982, -1186.4082439432436, 34359.23568716475, 516.2805934286826, -0.04, 0.964, 0.358, 192.0, 0.0, 0.0, 0.0, 0.0, 0.0, 0.0, 0.0, 0.0, 0.0, 1.6546755017050047E9, 0.0, 2022-06-08 10:05:01.705
235.0, 31411.30881444321, 20409.355510396425, -20693.24501672328, -17640.801386928724, 6647.811132408516, -1196.5112324370423, 34350.18323066035, 483.11060465700683, -0.034, 0.9580000000000001, 0.358, 192.0, 254.0, 240.0, 29.0, 240.0, 11.0, 48.0, 0.0, 0.0, 0.0, 1.6546755017050347E9, 0.0, 2022-06-08 10:05:01.705
236.0, 31435.292236243757, 20428.57801062799, -20657.57163257261, -17605.9550173229, 6679.215333368223, -1165.5764181108973, 34291.532253209625, 491.06782568309615, -0.034, 0.9580000000000001, 0.358, 192.0, 0.0, 0.0, 0.0, 0.0, 0.0, 0.0, 0.0, 0.0, 0.0, 1.654675501705047E9, 0.0, 2022-06-08 10:05:01.705
237.0, 31447.071605571702, 20434.76944384211, -20649.636763290975, -17603.76454636628, 6698.750758022161, -1154.4899528610651, 34262.586744140004, 505.93173574587536, -0.034, 0.9580000000000001, 0.358, 192.0, 0.0, 0.0, 0.0, 0.0, 0.0, 0.0, 0.0, 0.0, 0.0, 1.65467550170506E9, 0.0, 2022-06-08 10:05:01.705
238.0, 31453.575963208197, 20443.106644523938, -20653.99535345976, -17600.18826725343, 6704.226935413711, -1148.209112669124, 34302.439904503815, 531.6585936139338, -0.034, 0.9580000000000001, 0.358, 192.0, 0.0, 0.0, 0.0, 0.0, 0.0, 0.0, 0.0, 0.0, 0.0, 1.654675501705074E9, 0.0, 2022-06-08 10:05:01.705
239.0, 31423.468163426896, 20416.99980700014, -20693.580292890107, -17633.224145558375, 6664.977272150192, -1185.6706363762185, 34349.24445739323, 512.3913898934591, -0.034, 0.9580000000000001, 0.358, 192.0, 0.0, 0.0, 0.0, 0.0, 0.0, 0.0, 0.0, 0.0, 0.0, 1.654675501705083E9, 0.0, 2022-06-08 10:05:01.705
240.0, 31431.894771086547, 20419.682016334777, -20682.56088287364, -17616.77326163927, 6663.189132593767, -1186.5647061544307, 34338.11328865448, 485.94927620283084, -0.034, 0.9580000000000001, 0.358, 192.0, 0.0, 0.0, 0.0, 0.0, 0.0, 0.0, 0.0, 0.0, 0.0, 1.6546755017050955E9, 0.0, 2022-06-08 10:05:01.705
241.0, 31467.143472092568, 20451.041513805572, -20633.923486938893, -17576.942453019914, 6702.125871434912, -1146.9574149796267, 34277.94239258079, 493.48181408426933, -0.034, 0.9580000000000001, 0.358, 192.0, 0.0, 0.0, 0.0, 0.0, 0.0, 0.0, 0.0, 0.0, 0.0, 1.6546755017051115E9, 0.0, 2022-06-08 10:05:01.705
242.0, 31486.991821168882, 20467.358287257946, -20609.69419594934, -17557.608194066073, 6733.418313672342, -1121.7669989784956, 34258.5857818825, 523.880186543487, -0.034, 0.9580000000000001, 0.358, 192.0, 0.0, 0.0, 0.0, 0.0, 0.0, 0.0, 0.0, 0.0, 0.0, 1.6546755017415428E9, 0.0, 2022-06-08 10:05:01.741
243.0, 31482.119140877625, 20465.257223279146, -20629.430786303375, -17586.263130457777, 6719.001438498669, -1138.5084555755207, 34301.00939285867, 536.2183494828164, -0.034, 0.9580000000000001, 0.358, 192.0, 0.0, 0.0, 0.0, 0.0, 0.0, 0.0, 0.0, 0.0, 0.0, 1.65467550174156E9, 0.0, 2022-06-08 10:05:01.741
244.0, 31462.807233668238, 20446.749978870153, -20662.3772576305, -17633.71588393639, 6683.305702603544, -1167.9680547676153, 34344.12590791296, 517.4205323959031, -0.034, 0.9580000000000001, 0.358, 192.0, 0.0, 0.0, 0.0, 0.0, 0.0, 0.0, 0.0, 0.0, 0.0, 1.6546755017415657E9, 0.0, 2022-06-08 10:05:01.741
245.0, 31439.98610257937, 20419.65966459032, -20688.975833532317, -17631.90539263551, 6653.264958055611, -1195.3489417253663, 34333.262960107684, 471.8006219626215, -0.026000000000000002, 0.96, 0.366, 192.0, 255.0, 48.0, 30.0, 0.0, 11.0, 112.0, 0.0, 0.0, 0.0, 1.6546755017415717E9, 0.0, 2022-06-08 10:05:01.741
246.0, 31465.914126147527, 20441.407911945334, -20658.912737239927, -17601.797592854215, 6681.025824669102, -1174.6512263597522, 34276.64599140239, 448.28658679563847, -0.026000000000000002, 0.96, 0.366, 192.0, 0.0, 0.0, 0.0, 0.0, 0.0, 0.0, 0.0, 0.0, 0.0, 1.6546755017415771E9, 0.0, 2022-06-08 10:05:01.741
247.0, 31487.03652465779, 20456.71885689722, -20615.17037334089, -17591.716956104872, 6710.016037227636, -1136.8320747413725, 34256.66353185935, 513.5089771162245, -0.026000000000000002, 0.96, 0.366, 192.0, 0.0, 0.0, 0.0, 0.0, 0.0, 0.0, 0.0, 0.0, 0.0, 1.654675501741583E9, 0.0, 2022-06-08 10:05:01.741
248.0, 31465.780015680793, 20436.848156076452, -20651.626068547495, -17638.92384039448, 6684.311531104033, -1145.5492550789422, 34294.259166033175, 569.5895039545899, -0.026000000000000002, 0.96, 0.366, 192.0, 0.0, 0.0, 0.0, 0.0, 0.0, 0.0, 0.0, 0.0, 0.0, 1.6546755017415888E9, 0.0, 2022-06-08 10:05:01.741
249.0, 31456.07935858719, 20431.19316472926, -20666.735847799286, -17607.832563857148, 6672.487458287175, -1163.0506709874478, 34344.55059105761, 551.1940182678721, -0.026000000000000002, 0.96, 0.366, 192.0, 0.0, 0.0, 0.0, 0.0, 0.0, 0.0, 0.0, 0.0, 0.0, 1.654675502209306E9, 0.0, 2022-06-08 10:05:02.209
250.0, 31458.582753966184, 20433.33893219697, -20657.616336061517, -17610.760642380792, 6674.744984477161, -1168.8621245458276, 34338.89559971042, 518.9180992744087, -0.026000000000000002, 0.96, 0.366, 192.0, 0.0, 0.0, 0.0, 0.0, 0.0, 0.0, 0.0, 0.0, 0.0, 1.6546755022093349E9, 0.0, 2022-06-08 10:05:02.209
251.0, 31486.768303724326, 20457.791740631073, -20615.61740823, -17566.10185695909, 6706.1715371813225, -1138.8213799978948, 34281.518671693644, 515.7217998172998, -0.026000000000000002, 0.96, 0.366, 192.0, 0.0, 0.0, 0.0, 0.0, 0.0, 0.0, 0.0, 0.0, 0.0, 1.65467550220934E9, 0.0, 2022-06-08 10:05:02.209
252.0, 31495.597242784173, 20464.09493256747, -20605.469716247288, -17567.465313370863, 6717.034484986602, -1132.5181880614982, 34251.70144459027, 542.5438931636684, -0.026000000000000002, 0.96, 0.366, 192.0, 0.0, 0.0, 0.0, 0.0, 0.0, 0.0, 0.0, 0.0, 0.0, 1.654675502209345E9, 0.0, 2022-06-08 10:05:02.209
253.0, 31470.920916905514, 20440.983228800684, -20637.075082907093, -17585.950206035403, 6698.281371388599, -1149.3714033807998, 34290.772293898146, 567.7566609092547, -0.026000000000000002, 0.96, 0.366, 192.0, 0.0, 0.0, 0.0, 0.0, 0.0, 0.0, 0.0, 0.0, 0.0, 1.6546755022093506E9, 0.0, 2022-06-08 10:05:02.209
254.0, 31429.592541407652, 20400.79479227004, -20691.725098100316, -17648.512738765807, 6647.654670197328, -1194.0972440358692, 34343.6565212794, 526.5176923892132, -0.026000000000000002, 0.96, 0.366, 192.0, 0.0, 0.0, 0.0, 0.0, 0.0, 0.0, 0.0, 0.0, 0.0, 1.6546755022093556E9, 0.0, 2022-06-08 10:05:02.209
255.0, 31450.64788468455, 20418.340911667456, -20662.22079541931, -17626.33980826614, 6659.8587226699265, -1170.5832088688862, 34335.52048629767, 502.75778803322174, -0.038, 0.9540000000000001, 0.366, 192.0, 254.0, 208.0, 29.0, 208.0, 11.0, 112.0, 0.0, 0.0, 0.0, 1.6546755022093608E9, 0.0, 2022-06-08 10:05:02.209
0.0, 31477.939364664482, 20443.888955579874, -20623.865201934004, -17574.28259542973, 6690.838240484982, -1131.6911735166518, 34274.29905823458, 509.5750700920904, -0.038, 0.9540000000000001, 0.366, 192.0, 0.0, 0.0, 0.0, 0.0, 0.0, 0.0, 0.0, 0.0, 0.0, 1.6546755022093856E9, 0.0, 2022-06-08 10:05:02.209
1.0, 31503.80033299927, 20470.889862881882, -20598.898303377428, -17556.557662076673, 6721.527185622119, -1100.689303957141, 34246.24761894317, 539.5934628955678, -0.038, 0.9540000000000001, 0.366, 192.0, 0.0, 0.0, 0.0, 0.0, 0.0, 0.0, 0.0, 0.0, 0.0, 1.6546755022093904E9, 0.0, 2022-06-08 10:05:02.209
2.0, 31481.3815333106, 20453.522557440112, -20630.861297948515, -17598.221313741364, 6696.537935321086, -1131.2441386275457, 34283.57503218354, 547.8412565995761, -0.038, 0.9540000000000001, 0.366, 192.0, 0.0, 0.0, 0.0, 0.0, 0.0, 0.0, 0.0, 0.0, 0.0, 1.6546755022093952E9, 0.0, 2022-06-08 10:05:02.209
3.0, 31454.917067875514, 20428.354493183433, -20668.211062933337, -17616.2591715168, 6657.690603457761, -1167.6327786007857, 34331.452468806805, 514.7830265501769, -0.038, 0.9540000000000001, 0.366, 192.0, 0.0, 0.0, 0.0, 0.0, 0.0, 0.0, 0.0, 0.0, 0.0, 1.6546755022093997E9, 0.0, 2022-06-08 10:05:02.209
4.0, 31465.80236742525, 20437.04932177655, -20652.251917392245, -17607.899619090513, 6662.049193626546, -1157.7086040626293, 34328.725555983256, 500.09793044304024, -0.038, 0.9540000000000001, 0.366, 192.0, 0.0, 0.0, 0.0, 0.0, 0.0, 0.0, 0.0, 0.0, 0.0, 1.6546755022094045E9, 0.0, 2022-06-08 10:05:02.209
5.0, 31489.674030503516, 20457.925851097807, -20615.148021596437, -17578.775296065247, 6692.916952719325, -1126.6620310142077, 34277.67417164733, 510.9385265038641, -0.038, 0.9540000000000001, 0.366, 192.0, 0.0, 0.0, 0.0, 0.0, 0.0, 0.0, 0.0, 0.0, 0.0, 1.6546755022094088E9, 0.0, 2022-06-08 10:05:02.209
6.0, 31498.86059747465, 20464.609022689943, -20606.341434281047, -17572.315641917663, 6709.837223271993, -1117.0284291539704, 34251.053244001065, 536.6206808830119, -0.038, 0.9540000000000001, 0.366, 192.0, 0.0, 0.0, 0.0, 0.0, 0.0, 0.0, 0.0, 0.0, 0.0, 1.6546755022094135E9, 0.0, 2022-06-08 10:05:02.209
7.0, 31470.295068060765, 20435.171775242303, -20648.22860339029, -17612.168802281478, 6673.403879809843, -1154.4228976276993, 34286.34664849599, 522.2038057093389, -0.038, 0.9540000000000001, 0.366, 192.0, 0.0, 0.0, 0.0, 0.0, 0.0, 0.0, 0.0, 0.0, 0.0, 1.654675502209418E9, 0.0, 2022-06-08 10:05:02.209
8.0, 31459.387416766574, 20424.442937903757, -20665.28298440969, -17633.805290914213, 6656.774181935094, -1172.7736798255062, 34339.342634599525, 511.2067474373278, -0.038, 0.9540000000000001, 0.366, 192.0, 0.0, 0.0, 0.0, 0.0, 0.0, 0.0, 0.0, 0.0, 0.0, 1.6546755022094245E9, 0.0, 2022-06-08 10:05:02.209
9.0, 31457.107538832133, 20419.74907156814, -20659.650344806952, -17640.577869484172, 6656.1036296014345, -1175.3217786934113, 34335.40872757539, 469.78896496164384, -0.046, 0.9480000000000001, 0.368, 192.0, 254.0, 144.0, 29.0, 160.0, 11.0, 128.0, 0.0, 0.0, 0.0, 1.654675502209429E9, 0.0, 2022-06-08 10:05:02.209
10.0, 31483.057914144745, 20441.65378113434, -20615.2150768298, -17592.38750843853, 6693.98983645318, -1135.0662869294033, 34279.97640132623, 472.7617469741997, -0.046, 0.9480000000000001, 0.368, 192.0, 0.0, 0.0, 0.0, 0.0, 0.0, 0.0, 0.0, 0.0, 0.0, 1.6546755022094336E9, 0.0, 2022-06-08 10:05:02.209
11.0, 31490.098713648167, 20448.135787026382, -20602.83221040156, -17567.28649941522, 6708.920801749326, -1112.3122110739007, 34252.01436901264, 529.8928058019645, -0.046, 0.9480000000000001, 0.368, 192.0, 0.0, 0.0, 0.0, 0.0, 0.0, 0.0, 0.0, 0.0, 0.0, 1.6546755022094388E9, 0.0, 2022-06-08 10:05:02.209
12.0, 31462.98604762388, 20426.409891415824, -20638.885574207972, -17610.73829063634, 6675.348481577455, -1139.0001939535373, 34278.70235189228, 530.2057302243388, -0.046, 0.9480000000000001, 0.368, 192.0, 0.0, 0.0, 0.0, 0.0, 0.0, 0.0, 0.0, 0.0, 0.0, 1.6546755022094433E9, 0.0, 2022-06-08 10:05:02.209
13.0, 31442.355387491632, 20411.769498797596, -20672.65906007994, -17642.813043929702, 6644.0113358511135, -1166.8728192893052, 34334.35819558599, 527.9258522898975, -0.046, 0.9480000000000001, 0.368, 192.0, 0.0, 0.0, 0.0, 0.0, 0.0, 0.0, 0.0, 0.0, 0.0, 1.654675502209448E9, 0.0, 2022-06-08 10:05:02.209
14.0, 31461.399073767552, 20428.399196672344, -20646.66398127842, -17617.846145373125, 6666.094859372957, -1151.4501156151434, 34341.66721602288, 525.9141952889199, -0.046, 0.9480000000000001, 0.368, 192.0, 0.0, 0.0, 0.0, 0.0, 0.0, 0.0, 0.0, 0.0, 0.0, 1.6546755022094529E9, 0.0, 2022-06-08 10:05:02.209
15.0, 31480.37570481011, 20444.76067361363, -20608.84482966004, -17572.025069239746, 6704.696322047273, -1119.107141388314, 34300.87528239194, 527.0988377450511, -0.046, 0.9480000000000001, 0.368, 192.0, 0.0, 0.0, 0.0, 0.0, 0.0, 0.0, 0.0, 0.0, 0.0, 1.6546755022094574E9, 0.0, 2022-06-08 10:05:02.209
16.0, 31480.062780387736, 20442.458443934735, -20608.107222093015, -17575.71310707487, 6711.178327939311, -1114.9944204085375, 34273.896726834384, 537.7606198502326, -0.046, 0.9480000000000001, 0.368, 192.0, 0.0, 0.0, 0.0, 0.0, 0.0, 0.0, 0.0, 0.0, 0.0, 1.654675502209462E9, 0.0, 2022-06-08 10:05:02.209
17.0, 31471.189137838977, 20434.836499075474, -20628.51436478071, -17594.53327590624, 6693.118118419424, -1122.817530967895, 34301.27761379214, 551.1493147789615, -0.046, 0.9480000000000001, 0.368, 192.0, 0.0, 0.0, 0.0, 0.0, 0.0, 0.0, 0.0, 0.0, 0.0, 1.6546755022094667E9, 0.0, 2022-06-08 10:05:02.209
18.0, 31443.629436925585, 20410.383690641367, -20667.98754548878, -17633.939401380947, 6650.31452778751, -1159.2508744300455, 34340.77314624467, 530.876282557998, -0.046, 0.9480000000000001, 0.368, 192.0, 0.0, 0.0, 0.0, 0.0, 0.0, 0.0, 0.0, 0.0, 0.0, 1.6546755022094712E9, 0.0, 2022-06-08 10:05:02.209
19.0, 31438.309721745223, 20402.828801015476, -20666.98171698829, -17634.878174648067, 6638.1998822927335, -1172.2595897030342, 34333.59823627451, 498.8685844979983, -0.056, 0.9520000000000001, 0.372, 192.0, 254.0, 64.0, 29.0, 192.0, 11.0, 160.0, 0.0, 0.0, 0.0, 1.654675502209476E9, 0.0, 2022-06-08 10:05:02.209
20.0, 31467.478748259397, 20435.3729409424, -20620.17716409888, -17589.235912470333, 6679.327092090499, -1132.3617258503111, 34285.9443170958, 513.4419218828585, -0.056, 0.9520000000000001, 0.372, 192.0, 0.0, 0.0, 0.0, 0.0, 0.0, 0.0, 0.0, 0.0, 0.0, 1.6546755022094812E9, 0.0, 2022-06-08 10:05:02.209
21.0, 31486.924765935513, 20451.3767899724, -20593.60093994152, -17568.269976171254, 6711.714769806239, -1105.5396325039426, 34262.40793018436, 540.1746082514057, -0.056, 0.9520000000000001, 0.372, 192.0, 0.0, 0.0, 0.0, 0.0, 0.0, 0.0, 0.0, 0.0, 0.0, 1.6546755022094855E9, 0.0, 2022-06-08 10:05:02.209
22.0, 31461.063797600724, 20425.359359426424, -20628.536716525166, -17604.47980218885, 6683.238647370177, -1134.529845062476, 34303.53513998212, 541.5380646631795, -0.056, 0.9520000000000001, 0.372, 192.0, 0.0, 0.0, 0.0, 0.0, 0.0, 0.0, 0.0, 0.0, 0.0, 1.6546755022094922E9, 0.0, 2022-06-08 10:05:02.209
23.0, 31427.2679599843, 20395.60918755641, -20673.530778113698, -17651.2172998449, 6630.823806622482, -1183.2119444861346, 34349.91500972689, 503.09306420005134, -0.056, 0.9520000000000001, 0.372, 192.0, 0.0, 0.0, 0.0, 0.0, 0.0, 0.0, 0.0, 0.0, 0.0, 1.6546755022094967E9, 0.0, 2022-06-08 10:05:02.209
24.0, 31425.301006472233, 20391.049431687527, -20668.23341467779, -17650.323230066686, 6624.364152474899, -1190.0292265450032, 34340.3037596111, 477.299151098627, -0.056, 0.9520000000000001, 0.372, 192.0, 0.0, 0.0, 0.0, 0.0, 0.0, 0.0, 0.0, 0.0, 0.0, 1.6546755022095013E9, 0.0, 2022-06-08 10:05:02.209
25.0, 31462.51666099032, 20426.789871071564, -20617.360844297513, -17600.322377720164, 6667.614777995918, -1143.4481911001435, 34277.5400611806, 499.6285438094788, -0.056, 0.9520000000000001, 0.372, 192.0, 0.0, 0.0, 0.0, 0.0, 0.0, 0.0, 0.0, 0.0, 0.0, 1.654675502209506E9, 0.0, 2022-06-08 10:05:02.209
26.0, 31477.08999837518, 20442.816071846017, -20594.472657975275, -17580.29521468821, 6703.6457900578735, -1117.7436849765402, 34261.37974993941, 524.0142970102188, -0.056, 0.9520000000000001, 0.372, 192.0, 0.0, 0.0, 0.0, 0.0, 0.0, 0.0, 0.0, 0.0, 0.0, 1.6546755022095103E9, 0.0, 2022-06-08 10:05:02.209
27.0, 31449.21737303941, 20417.200972700237, -20629.006103158725, -17615.454508716408, 6685.2726561156105, -1138.9331387201714, 34318.91314016737, 508.30102065813793, -0.056, 0.9520000000000001, 0.372, 192.0, 0.0, 0.0, 0.0, 0.0, 0.0, 0.0, 0.0, 0.0, 0.0, 1.654675502209515E9, 0.0, 2022-06-08 10:05:02.209
28.0, 31428.3184919737, 20399.297225391536, -20660.00797271824, -17652.804273701226, 6656.237740068167, -1171.521982136009, 34368.89164076944, 479.33315984405994, -0.074, 0.9440000000000001, 0.376, 192.0, 253.0, 176.0, 29.0, 128.0, 11.0, 192.0, 0.0, 0.0, 0.0, 1.6546755022095196E9, 0.0, 2022-06-08 10:05:02.209
29.0, 31420.093050014148, 20390.021251442584, -20661.214966918822, -17660.090942393654, 6645.441847496253, -1172.4831071475874, 34364.309533156105, 479.9366569443533, -0.074, 0.9440000000000001, 0.376, 192.0, 0.0, 0.0, 0.0, 0.0, 0.0, 0.0, 0.0, 0.0, 0.0, 1.6546755022095242E9, 0.0, 2022-06-08 10:05:02.209
30.0, 31435.31458798821, 20404.03579521606, -20636.76215848472, -17636.107520593112, 6667.279501829088, -1141.1906649101575, 34316.72266921076, 530.8092273246322, -0.074, 0.9440000000000001, 0.376, 192.0, 0.0, 0.0, 0.0, 0.0, 0.0, 0.0, 0.0, 0.0, 0.0, 1.6546755022095287E9, 0.0, 2022-06-08 10:05:02.209
31.0, 31466.13764359208, 20438.345722954957, -20605.290902291646, -17603.250456243808, 6704.048121458069, -1111.3510860623226, 34287.35247699648, 544.6896606313778, -0.074, 0.9440000000000001, 0.376, 192.0, 0.0, 0.0, 0.0, 0.0, 0.0, 0.0, 0.0, 0.0, 0.0, 1.6546755022095335E9, 0.0, 2022-06-08 10:05:02.209
32.0, 31465.13181509159, 20436.33406595398, -20631.24127760426, -17629.15612806751, 6686.591409038474, -1132.0488014279367, 34325.03751814813, 546.9248350769085, -0.074, 0.9440000000000001, 0.376, 192.0, 0.0, 0.0, 0.0, 0.0, 0.0, 0.0, 0.0, 0.0, 0.0, 1.6546755022095382E9, 0.0, 2022-06-08 10:05:02.209
33.0, 31444.54585844825, 20421.067824491005, -20670.446237378866, -17665.276547107285, 6647.364097519409, -1163.9894442545706, 34386.77303633369, 547.5283321772018, -0.074, 0.9440000000000001, 0.376, 192.0, 0.0, 0.0, 0.0, 0.0, 0.0, 0.0, 0.0, 0.0, 0.0, 1.6546755022095428E9, 0.0, 2022-06-08 10:05:02.209
34.0, 31437.236838011366, 20411.07659471948, -20655.09058893807, -17649.250346332832, 6648.302870786532, -1157.842714529361, 34394.12676025948, 512.1008172155401, -0.074, 0.9440000000000001, 0.376, 192.0, 0.0, 0.0, 0.0, 0.0, 0.0, 0.0, 0.0, 0.0, 0.0, 1.6546755022095473E9, 0.0, 2022-06-08 10:05:02.209
35.0, 31465.288277302778, 20435.70821710923, -20613.225771573278, -17606.536162678738, 6680.757603735638, -1122.0799234008698, 34341.39899508941, 505.90938400142005, -0.074, 0.9440000000000001, 0.376, 192.0, 0.0, 0.0, 0.0, 0.0, 0.0, 0.0, 0.0, 0.0, 0.0, 1.654675502209552E9, 0.0, 2022-06-08 10:05:02.209
36.0, 31488.198815369466, 20453.366095228925, -20599.635910944453, -17593.773316594757, 6696.068548687524, -1111.529900017965, 34305.367983027456, 525.8918435444646, -0.074, 0.9440000000000001, 0.376, 192.0, 0.0, 0.0, 0.0, 0.0, 0.0, 0.0, 0.0, 0.0, 0.0, 1.6546755022095573E9, 0.0, 2022-06-08 10:05:02.209
37.0, 31481.73916122188, 20448.359304470934, -20625.89921067944, -17616.81796512818, 6677.270731600611, -1134.8874729737609, 34342.67304452336, 530.4292476688919, -0.074, 0.9440000000000001, 0.376, 192.0, 0.0, 0.0, 0.0, 0.0, 0.0, 0.0, 0.0, 0.0, 0.0, 1.6546755022095616E9, 0.0, 2022-06-08 10:05:02.209
38.0, 31452.1230998186, 20416.105737221926, -20671.832045535095, -17661.700267994438, 6626.465216453697, -1175.6123513713303, 34390.08109451307, 502.08723569956254, -0.078, 0.9420000000000001, 0.372, 192.0, 253.0, 144.0, 29.0, 112.0, 11.0, 160.0, 0.0, 0.0, 0.0, 1.6546755022095664E9, 0.0, 2022-06-08 10:05:02.209
39.0, 31463.567192979717, 20420.196106457246, -20657.99631571726, -17649.9656021554, 6623.380675718865, -1166.7387088225735, 34378.94992577433, 495.53817457415755, -0.078, 0.9420000000000001, 0.372, 192.0, 0.0, 0.0, 0.0, 0.0, 0.0, 0.0, 0.0, 0.0, 0.0, 1.654675502209571E9, 0.0, 2022-06-08 10:05:02.209
40.0, 31493.563234038742, 20448.448711448757, -20609.82830641607, -17606.96084582339, 6667.257150084633, -1132.4064293392216, 34332.480649051744, 503.18247117787257, -0.078, 0.9420000000000001, 0.372, 192.0, 0.0, 0.0, 0.0, 0.0, 0.0, 0.0, 0.0, 0.0, 0.0, 1.6546755022095754E9, 0.0, 2022-06-08 10:05:02.209
41.0, 31530.220094945445, 20478.131828085403, -20575.45132344381, -17577.61300535357, 6710.485423861197, -1099.683475456652, 34310.620642974456, 535.1454657489617, -0.078, 0.9420000000000001, 0.372, 192.0, 0.0, 0.0, 0.0, 0.0, 0.0, 0.0, 0.0, 0.0, 0.0, 1.65467550220958E9, 0.0, 2022-06-08 10:05:02.209
42.0, 31503.733277765907, 20452.04734230606, -20619.394853042944, -17619.030787829255, 6676.667234500317, -1127.846673470339, 34356.17349817437, 543.7955908531655, -0.078, 0.9420000000000001, 0.372, 192.0, 0.0, 0.0, 0.0, 0.0, 0.0, 0.0, 0.0, 0.0, 0.0, 1.6546755022095847E9, 0.0, 2022-06-08 10:05:02.209
43.0, 31461.66729470102, 20416.59747559994, -20663.986583231283, -17660.560329027216, 6629.50505369962, -1168.4821448900873, 34432.34824327806, 528.4175906679143, -0.078, 0.9420000000000001, 0.372, 192.0, 0.0, 0.0, 0.0, 0.0, 0.0, 0.0, 0.0, 0.0, 0.0, 1.654675502209591E9, 0.0, 2022-06-08 10:05:02.209
44.0, 31456.794614409762, 20405.108678949917, -20660.18678667388, -17661.07441914969, 6621.950164073725, -1178.2722089615118, 34436.84094391357, 496.72281703028887, -0.078, 0.9420000000000001, 0.372, 192.0, 0.0, 0.0, 0.0, 0.0, 0.0, 0.0, 0.0, 0.0, 0.0, 1.6546755022095957E9, 0.0, 2022-06-08 10:05:02.209
45.0, 31481.00155365486, 20423.817089059008, -20621.205344343824, -17626.473918732874, 6659.299929058544, -1147.8067812689283, 34368.3104954136, 503.42834036688095, -0.078, 0.9420000000000001, 0.372, 192.0, 0.0, 0.0, 0.0, 0.0, 0.0, 0.0, 0.0, 0.0, 0.0, 1.6546755022096E9, 0.0, 2022-06-08 10:05:02.209
46.0, 31513.56804532624, 20457.836444119985, -20581.64275665793, -17585.48081940184, 6707.937324993292, -1102.5668504913867, 34333.37471882996, 560.1570677944503, -0.078, 0.9420000000000001, 0.372, 192.0, 0.0, 0.0, 0.0, 0.0, 0.0, 0.0, 0.0, 0.0, 0.0, 1.6546755022096045E9, 0.0, 2022-06-08 10:05:02.209
47.0, 31488.04235315828, 20437.406949687833, -20620.51244026571, -17624.618723943084, 6679.1706298793115, -1129.2771851154787, 34362.02965522166, 561.1628962949391, -0.078, 0.9420000000000001, 0.372, 192.0, 0.0, 0.0, 0.0, 0.0, 0.0, 0.0, 0.0, 0.0, 0.0, 1.6546755022096093E9, 0.0, 2022-06-08 10:05:02.209
48.0, 31448.971503850404, 20396.682071290266, -20677.62114734902, -17691.763364286824, 6622.888937340848, -1182.876668319305, 34412.879873857484, 518.1804917073837, -0.08600000000000001, 0.9540000000000001, 0.382, 192.0, 253.0, 80.0, 29.0, 208.0, 11.0, 240.0, 0.0, 0.0, 0.0, 1.6546755022096136E9, 0.0, 2022-06-08 10:05:02.209
49.0, 31441.93070434698, 20382.08638216095, -20688.081763754104, -17691.159867186532, 6598.503184140109, -1204.848433118872, 34416.880836114986, 476.2262673647723, -0.08600000000000001, 0.9540000000000001, 0.382, 192.0, 0.0, 0.0, 0.0, 0.0, 0.0, 0.0, 0.0, 0.0, 0.0, 1.6546755022096183E9, 0.0, 2022-06-08 10:05:02.209
50.0, 31490.277527603812, 20427.214554216214, -20623.775794956186, -17628.239706544842, 6653.086144099969, -1152.0312609709813, 34354.98885571824, 496.29813388563804, -0.08600000000000001, 0.9540000000000001, 0.382, 192.0, 0.0, 0.0, 0.0, 0.0, 0.0, 0.0, 0.0, 0.0, 0.0, 1.6546755022096229E9, 0.0, 2022-06-08 10:05:02.209
51.0, 31515.825571516227, 20447.48758643718, -20592.393945740932, -17602.602255654605, 6692.536973063586, -1116.7155047315962, 34314.956881398786, 535.0560587711404, -0.08600000000000001, 0.9540000000000001, 0.382, 192.0, 0.0, 0.0, 0.0, 0.0, 0.0, 0.0, 0.0, 0.0, 0.0, 1.6546755022096276E9, 0.0, 2022-06-08 10:05:02.209
52.0, 31496.245443373376, 20425.29230419306, -20630.302504337134, -17639.706151450417, 6668.888827429871, -1144.4093161117216, 34347.05398643661, 540.8675123295203, -0.08600000000000001, 0.9540000000000001, 0.382, 192.0, 0.0, 0.0, 0.0, 0.0, 0.0, 0.0, 0.0, 0.0, 0.0, 1.654675502209632E9, 0.0, 2022-06-08 10:05:02.209
53.0, 31469.780977938295, 20405.51101035011, -20670.535644356685, -17672.473808821895, 6623.1124547854015, -1185.0224357870145, 34404.229748753285, 514.3359916610708, -0.08600000000000001, 0.9540000000000001, 0.382, 192.0, 0.0, 0.0, 0.0, 0.0, 0.0, 0.0, 0.0, 0.0, 0.0, 1.6546755022096367E9, 0.0, 2022-06-08 10:05:02.209
54.0, 31468.506928504343, 20407.79088828455, -20677.576443860107, -17671.78090474378, 6614.0152947920915, -1188.8222323444168, 34406.867254599005, 490.8443082385431, -0.08600000000000001, 0.9540000000000001, 0.382, 192.0, 0.0, 0.0, 0.0, 0.0, 0.0, 0.0, 0.0, 0.0, 0.0, 1.6546755022096412E9, 0.0, 2022-06-08 10:05:02.209
55.0, 31495.306670106256, 20431.3719786849, -20638.550298041144, -17637.783901427258, 6642.513768972608, -1159.8320197858834, 34351.166707416385, 492.58774430605706, -0.08600000000000001, 0.9540000000000001, 0.382, 192.0, 0.0, 0.0, 0.0, 0.0, 0.0, 0.0, 0.0, 0.0, 0.0, 1.654675502209646E9, 0.0, 2022-06-08 10:05:02.209
56.0, 31496.1336846511, 20430.679074606785, -20618.478431520278, -17633.87234614758, 6650.672155698795, -1153.9535109941378, 34312.38643078643, 497.2592588972162, -0.08600000000000001, 0.9540000000000001, 0.382, 192.0, 0.0, 0.0, 0.0, 0.0, 0.0, 0.0, 0.0, 0.0, 0.0, 1.6546755022096505E9, 0.0, 2022-06-08 10:05:02.209
57.0, 31492.691516004983, 20429.673246106297, -20646.887498722972, -17654.25713709082, 6637.864606125904, -1164.7941070549616, 34340.21435263328, 508.97157299179713, -0.08600000000000001, 0.9540000000000001, 0.382, 192.0, 0.0, 0.0, 0.0, 0.0, 0.0, 0.0, 0.0, 0.0, 0.0, 1.654675502209655E9, 0.0, 2022-06-08 10:05:02.209
58.0, 31477.112350119634, 20414.094080220948, -20683.410249162942, -17686.55540782874, 6605.141652243335, -1197.8076336154502, 34391.71277185831, 481.21070637830576, -0.09, 0.9440000000000001, 0.386, 192.0, 253.0, 48.0, 29.0, 128.0, 12.0, 16.0, 0.0, 0.0, 0.0, 1.6546755022096596E9, 0.0, 2022-06-08 10:05:02.209
59.0, 31463.678951701993, 20399.029004458072, -20689.869903310526, -17688.969396229913, 6590.523611369564, -1213.163282056246, 34394.30557421513, 446.38668851693734, -0.09, 0.9440000000000001, 0.386, 192.0, 0.0, 0.0, 0.0, 0.0, 0.0, 0.0, 0.0, 0.0, 0.0, 1.654675502209664E9, 0.0, 2022-06-08 10:05:02.209
60.0, 31525.839153032204, 20461.25626102165, -20616.17620184138, -17616.572095939173, 6653.264958055611, -1142.6658800442076, 34343.92474221286, 491.38075010547044, -0.09, 0.9440000000000001, 0.386, 192.0, 0.0, 0.0, 0.0, 0.0, 0.0, 0.0, 0.0, 0.0, 0.0, 1.6546755022096689E9, 0.0, 2022-06-08 10:05:02.209
61.0, 31559.970266815457, 20487.474857267724, -20587.297748005123, -17588.52065664776, 6685.339711348976, -1111.0605133844035, 34304.13863708242, 525.3554016775372, -0.09, 0.9440000000000001, 0.386, 192.0, 0.0, 0.0, 0.0, 0.0, 0.0, 0.0, 0.0, 0.0, 0.0, 1.6546755022096736E9, 0.0, 2022-06-08 10:05:02.209
62.0, 31530.53301936782, 20458.216423775724, -20628.2684955917, -17630.20666005691, 6654.136676089368, -1146.0633452014142, 34324.5010762812, 504.61298282301226, -0.09, 0.9440000000000001, 0.386, 192.0, 0.0, 0.0, 0.0, 0.0, 0.0, 0.0, 0.0, 0.0, 0.0, 1.654675502209678E9, 0.0, 2022-06-08 10:05:02.209
63.0, 31480.442760043476, 20411.635388330866, -20685.66777535293, -17688.298843896253, 6600.850117307916, -1199.841642360883, 34367.729350057765, 469.52074402818016, -0.09, 0.9440000000000001, 0.386, 192.0, 0.0, 0.0, 0.0, 0.0, 0.0, 0.0, 0.0, 0.0, 0.0, 1.6546755022096827E9, 0.0, 2022-06-08 10:05:02.209
64.0, 31482.61087925564, 20413.155306953824, -20683.946691029872, -17697.46305912293, 6593.5858003599415, -1201.786244128495, 34382.32503918708, 471.91238068489804, -0.09, 0.9440000000000001, 0.386, 192.0, 0.0, 0.0, 0.0, 0.0, 0.0, 0.0, 0.0, 0.0, 0.0, 1.6546755022096891E9, 0.0, 2022-06-08 10:05:02.209
65.0, 31525.973263498934, 20455.936545841283, -20625.429824045877, -17643.170671840988, 6636.389390991854, -1152.7018133046406, 34345.779937002655, 493.9735524622861, -0.09, 0.9440000000000001, 0.386, 192.0, 0.0, 0.0, 0.0, 0.0, 0.0, 0.0, 0.0, 0.0, 0.0, 1.6546755022096937E9, 0.0, 2022-06-08 10:05:02.209
66.0, 31542.29003695131, 20469.839330892486, -20604.039204602148, -17592.61102588308, 6661.55745524853, -1131.4676560720989, 34313.41461103137, 529.557529635135, -0.09, 0.9440000000000001, 0.386, 192.0, 0.0, 0.0, 0.0, 0.0, 0.0, 0.0, 0.0, 0.0, 0.0, 1.6546755022096984E9, 0.0, 2022-06-08 10:05:02.209
67.0, 31521.726432052426, 20456.38358073039, -20636.493937551255, -17628.15029956702, 6640.435056738264, -1160.9943104975594, 34354.6088760625, 524.8636632995205, -0.09, 0.9440000000000001, 0.386, 192.0, 0.0, 0.0, 0.0, 0.0, 0.0, 0.0, 0.0, 0.0, 0.0, 1.6546755022097027E9, 0.0, 2022-06-08 10:05:02.209
68.0, 31490.635155515094, 20425.605228615434, -20674.223682191812, -17667.757590741825, 6605.8569080659045, -1199.394607471777, 34407.291937743656, 489.43614833785875, -0.074, 0.9420000000000001, 0.39, 192.0, 253.0, 176.0, 29.0, 112.0, 12.0, 48.0, 0.0, 0.0, 0.0, 1.6546755022097075E9, 0.0, 2022-06-08 10:05:02.209
69.0, 31479.66044898754, 20407.276798162082, -20680.57157761712, -17680.386326359072, 6595.910381783293, -1215.845491390883, 34417.082001815084, 456.84730492202107, -0.074, 0.9420000000000001, 0.39, 192.0, 0.0, 0.0, 0.0, 0.0, 0.0, 0.0, 0.0, 0.0, 0.0, 1.654675502209712E9, 0.0, 2022-06-08 10:05:02.209
70.0, 31515.020908715836, 20440.178566000293, -20626.055672890627, -17635.459320003905, 6642.066734083502, -1175.522944393509, 34372.9149547714, 486.99980819223026, -0.074, 0.9420000000000001, 0.39, 192.0, 0.0, 0.0, 0.0, 0.0, 0.0, 0.0, 0.0, 0.0, 0.0, 1.654675502209717E9, 0.0, 2022-06-08 10:05:02.209
71.0, 31541.23950496191, 20463.89376686737, -20598.227751043767, -17600.63530214254, 6674.7673362216165, -1147.9185399912049, 34339.074413666065, 529.5351778906796, -0.074, 0.9420000000000001, 0.39, 192.0, 0.0, 0.0, 0.0, 0.0, 0.0, 0.0, 0.0, 0.0, 0.0, 1.6546755022097216E9, 0.0, 2022-06-08 10:05:02.209
72.0, 31529.86246703416, 20450.013333560626, -20620.534792010163, -17613.107575548598, 6664.530237261086, -1157.6415488292635, 34364.91303025639, 533.7373058482774, -0.074, 0.9420000000000001, 0.39, 192.0, 0.0, 0.0, 0.0, 0.0, 0.0, 0.0, 0.0, 0.0, 0.0, 1.6546755022097263E9, 0.0, 2022-06-08 10:05:02.209
73.0, 31495.37372533962, 20413.602341842932, -20672.167321701923, -17665.16478838501, 6621.279611740067, -1204.1108255518468, 34429.24135079877, 505.7305700457776, -0.074, 0.9420000000000001, 0.39, 192.0, 0.0, 0.0, 0.0, 0.0, 0.0, 0.0, 0.0, 0.0, 0.0, 1.6546755022097316E9, 0.0, 2022-06-08 10:05:02.209
74.0, 31473.692533217974, 20385.506199062613, -20691.09924925557, -17687.293015395764, 6594.010483504592, -1230.0164973755477, 34445.64753122896, 461.13883985744, -0.074, 0.9420000000000001, 0.39, 192.0, 0.0, 0.0, 0.0, 0.0, 0.0, 0.0, 0.0, 0.0, 0.0, 1.6546755022097368E9, 0.0, 2022-06-08 10:05:02.209
75.0, 31502.61569054314, 20409.936655752263, -20647.64745803445, -17645.45054977543, 6626.487568198153, -1193.5608021689418, 34391.645716624946, 459.7753834456663, -0.074, 0.9420000000000001, 0.39, 192.0, 0.0, 0.0, 0.0, 0.0, 0.0, 0.0, 0.0, 0.0, 0.0, 1.6546755022097416E9, 0.0, 2022-06-08 10:05:02.209
76.0, 31540.032510761324, 20442.369036956912, -20605.60382671402, -17606.58086616765, 6670.945187919759, -1155.6969470616516, 34352.485460339245, 500.880241498976, -0.074, 0.9420000000000001, 0.39, 192.0, 0.0, 0.0, 0.0, 0.0, 0.0, 0.0, 0.0, 0.0, 0.0, 1.6546755022097461E9, 0.0, 2022-06-08 10:05:02.209
77.0, 31534.37751941413, 20441.027932289595, -20624.111071123014, -17620.885982619046, 6662.093897115457, -1165.4199558997102, 34381.028638008676, 518.0687329851071, -0.074, 0.9420000000000001, 0.39, 192.0, 0.0, 0.0, 0.0, 0.0, 0.0, 0.0, 0.0, 0.0, 0.0, 1.654675502209751E9, 0.0, 2022-06-08 10:05:02.209
78.0, 31486.72360023542, 20393.150495666327, -20684.684298596894, -17680.341622870164, 6608.382655189354, -1220.494654237587, 34437.846772414065, 486.01633143619677, -0.062, 0.9380000000000001, 0.392, 192.0, 254.0, 16.0, 29.0, 80.0, 12.0, 64.0, 0.0, 0.0, 0.0, 1.6546755022097566E9, 0.0, 2022-06-08 10:05:02.209
79.0, 31480.822739699215, 20380.499408304622, -20689.020537021224, -17685.34841362815, 6595.530402127552, -1227.2672328075448, 34446.13926960698, 458.3225200560713, -0.062, 0.9380000000000001, 0.392, 192.0, 0.0, 0.0, 0.0, 0.0, 0.0, 0.0, 0.0, 0.0, 0.0, 1.6546755022097611E9, 0.0, 2022-06-08 10:05:02.209
80.0, 31534.489278136407, 20429.695597850754, -20633.431748560877, -17629.15612806751, 6641.0162020941025, -1176.8416973163721, 34398.39594345044, 482.2612383677052, -0.062, 0.9380000000000001, 0.392, 192.0, 0.0, 0.0, 0.0, 0.0, 0.0, 0.0, 0.0, 0.0, 0.0, 1.654675502209766E9, 0.0, 2022-06-08 10:05:02.209
81.0, 31554.404682446086, 20451.13092078339, -20604.08390809106, -17597.9530928079, 6672.979196665192, -1144.4540196006321, 34361.26969591018, 513.2184044383055, -0.062, 0.9380000000000001, 0.392, 192.0, 0.0, 0.0, 0.0, 0.0, 0.0, 0.0, 0.0, 0.0, 0.0, 1.6546755022097716E9, 0.0, 2022-06-08 10:05:02.209
82.0, 31512.741030781395, 20411.5683330975, -20622.725262966786, -17614.314569749185, 6669.447621041253, -1146.4433248571545, 34390.39401893545, 544.9802333092968, -0.062, 0.9380000000000001, 0.392, 192.0, 0.0, 0.0, 0.0, 0.0, 0.0, 0.0, 0.0, 0.0, 0.0, 1.654675502209777E9, 0.0, 2022-06-08 10:05:02.209
83.0, 31467.65756221504, 20366.373105808867, -20682.20325496236, -17677.570006557704, 6617.233945993656, -1195.9971423145703, 34443.233542827795, 518.8063405521323, -0.062, 0.9380000000000001, 0.392, 192.0, 0.0, 0.0, 0.0, 0.0, 0.0, 0.0, 0.0, 0.0, 0.0, 1.654675502209782E9, 0.0, 2022-06-08 10:05:02.209
84.0, 31439.002625823337, 20332.77843389254, -20707.61718840804, -17703.855658037148, 6596.625637605863, -1215.8901948797936, 34457.44925230137, 489.1902791488504, -0.062, 0.9380000000000001, 0.392, 192.0, 0.0, 0.0, 0.0, 0.0, 0.0, 0.0, 0.0, 0.0, 0.0, 1.654675502209787E9, 0.0, 2022-06-08 10:05:02.209
85.0, 31458.73921617737, 20349.20696606719, -20658.80097851765, -17637.649790960528, 6634.489492713153, -1175.5005926490537, 34411.24819651225, 509.35155264753735, -0.062, 0.9380000000000001, 0.392, 192.0, 0.0, 0.0, 0.0, 0.0, 0.0, 0.0, 0.0, 0.0, 0.0, 1.6546755022097912E9, 0.0, 2022-06-08 10:05:02.209
86.0, 31486.768303724326, 20376.163169880292, -20599.233579544256, -17590.062927015177, 6671.191057108767, -1143.1576184222245, 34376.55828911761, 548.3329949775929, -0.062, 0.9380000000000001, 0.392, 192.0, 0.0, 0.0, 0.0, 0.0, 0.0, 0.0, 0.0, 0.0, 0.0, 1.6546755022097976E9, 0.0, 2022-06-08 10:05:02.209
87.0, 31474.74306520737, 20361.433370284245, -20611.817611672595, -17601.1046887761, 6676.086089144479, -1142.7329352775737, 34407.515455188215, 571.3999952554698, -0.062, 0.9380000000000001, 0.392, 192.0, 0.0, 0.0, 0.0, 0.0, 0.0, 0.0, 0.0, 0.0, 0.0, 1.6546755022098022E9, 0.0, 2022-06-08 10:05:02.209
88.0, 31450.580829451184, 20332.77843389254, -20651.55901331413, -17645.048218375232, 6645.508902729619, -1177.0205112720146, 34465.62999077201, 563.8004021406654, -0.056, 0.9520000000000001, 0.386, 192.0, 254.0, 64.0, 29.0, 192.0, 12.0, 16.0, 0.0, 0.0, 0.0, 1.654675502209807E9, 0.0, 2022-06-08 10:05:02.209
89.0, 31431.98417806437, 20313.958265061174, -20668.300469911155, -17663.60016627314, 6623.581841418963, -1198.7687586270283, 34477.96815371134, 532.7761808366992, -0.056, 0.9520000000000001, 0.386, 192.0, 0.0, 0.0, 0.0, 0.0, 0.0, 0.0, 0.0, 0.0, 0.0, 1.6546755022098117E9, 0.0, 2022-06-08 10:05:02.209
90.0, 31448.70328291694, 20329.40332047979, -20639.019684674702, -17633.894697892036, 6645.2183300517, -1170.3820431687884, 34431.85650490004, 528.0599627566294, -0.056, 0.9520000000000001, 0.386, 192.0, 0.0, 0.0, 0.0, 0.0, 0.0, 0.0, 0.0, 0.0, 0.0, 1.654675502209816E9, 0.0, 2022-06-08 10:05:02.209
91.0, 31464.573021480206, 20343.26140204208, -20621.27239957719, -17622.808232642205, 6664.0832023719795, -1149.5949208253528, 34390.014039279704, 555.8655328590313, -0.056, 0.9520000000000001, 0.386, 192.0, 0.0, 0.0, 0.0, 0.0, 0.0, 0.0, 0.0, 0.0, 0.0, 1.6546755022098207E9, 0.0, 2022-06-08 10:05:02.209
92.0, 31464.595373224663, 20347.262364299582, -20636.829213718083, -17629.804328656715, 6654.69546970075, -1157.4850866180761, 34410.39883022295, 571.2211812998273, -0.056, 0.9520000000000001, 0.386, 192.0, 0.0, 0.0, 0.0, 0.0, 0.0, 0.0, 0.0, 0.0, 0.0, 1.6546755022098255E9, 0.0, 2022-06-08 10:05:02.209
93.0, 31447.83156488318, 20336.980561850138, -20671.429714134898, -17658.59337551515, 6626.733437387162, -1184.5083456645425, 34463.506575048756, 554.0997450470621, -0.056, 0.9520000000000001, 0.386, 192.0, 0.0, 0.0, 0.0, 0.0, 0.0, 0.0, 0.0, 0.0, 0.0, 1.6546755022098303E9, 0.0, 2022-06-08 10:05:02.209
94.0, 31440.097861301645, 20323.189535521215, -20676.99529850427, -17676.67593677949, 6615.758730859606, -1195.393645214277, 34482.32674388013, 533.782009337188, -0.056, 0.9520000000000001, 0.386, 192.0, 0.0, 0.0, 0.0, 0.0, 0.0, 0.0, 0.0, 0.0, 0.0, 1.654675502209835E9, 0.0, 2022-06-08 10:05:02.209
95.0, 31465.444739513965, 20346.74827417711, -20643.13240565448, -17682.129762426586, 6638.669268926295, -1174.1818397261907, 34434.67282470141, 521.3767911644925, -0.056, 0.9520000000000001, 0.386, 192.0, 0.0, 0.0, 0.0, 0.0, 0.0, 0.0, 0.0, 0.0, 0.0, 1.654675502209842E9, 0.0, 2022-06-08 10:05:02.209
96.0, 31484.130797878603, 20362.461550529188, -20622.03235888867, -17612.682892403947, 6664.485533772175, -1151.3830603817773, 34393.880891070476, 555.3067392476487, -0.056, 0.9520000000000001, 0.386, 192.0, 0.0, 0.0, 0.0, 0.0, 0.0, 0.0, 0.0, 0.0, 0.0, 1.6546755022098465E9, 0.0, 2022-06-08 10:05:02.209
97.0, 31477.22410884191, 20352.87265215786, -20643.713551010318, -17626.049235588223, 6657.1541615908345, -1158.7144325631182, 34416.79142913716, 585.2580768177602, -0.056, 0.9520000000000001, 0.386, 192.0, 0.0, 0.0, 0.0, 0.0, 0.0, 0.0, 0.0, 0.0, 0.0, 1.6546755022098513E9, 0.0, 2022-06-08 10:05:02.209
98.0, 31451.78782365177, 20328.3974919793, -20682.382068918, -17664.181311628978, 6626.800492620528, -1182.653150874752, 34468.78158674021, 579.2454575592825, -0.07, 0.9440000000000001, 0.388, 192.0, 253.0, 208.0, 29.0, 128.0, 12.0, 32.0, 0.0, 0.0, 0.0, 1.654675502209856E9, 0.0, 2022-06-08 10:05:02.209
99.0, 31451.631361440584, 20327.570477434456, -20684.05844975215, -17676.83239899068, 6620.318486728488, -1182.3849299412884, 34485.90302299297, 556.3125677481374, -0.07, 0.9440000000000001, 0.388, 192.0, 0.0, 0.0, 0.0, 0.0, 0.0, 0.0, 0.0, 0.0, 0.0, 1.6546755022098603E9, 0.0, 2022-06-08 10:05:02.209
100.0, 31479.57104200972, 20354.347867291912, -20643.89236496596, -17655.754703969324, 6644.637184695863, -1152.7688685380065, 34436.84094391357, 543.3485559640594, -0.07, 0.9440000000000001, 0.388, 192.0, 0.0, 0.0, 0.0, 0.0, 0.0, 0.0, 0.0, 0.0, 0.0, 1.654675502209865E9, 0.0, 2022-06-08 10:05:02.209
101.0, 31500.782847497805, 20378.286585603546, -20618.679597220373, -17596.56728465167, 6676.533124033585, -1118.4142373101995, 34394.03735328166, 578.6196087145339, -0.07, 0.9440000000000001, 0.388, 192.0, 0.0, 0.0, 0.0, 0.0, 0.0, 0.0, 0.0, 0.0, 0.0, 1.6546755022098696E9, 0.0, 2022-06-08 10:05:02.209
102.0, 31484.734294978894, 20362.88623367384, -20657.549280828152, -17610.067738302678, 6655.254263312133, -1141.74945852154, 34417.082001815084, 579.8266029151205, -0.07, 0.9440000000000001, 0.388, 192.0, 0.0, 0.0, 0.0, 0.0, 0.0, 0.0, 0.0, 0.0, 0.0, 1.6546755022098744E9, 0.0, 2022-06-08 10:05:02.209
103.0, 31462.583716223686, 20343.17199506426, -20678.023478749215, -17661.72261973889, 6616.652800637818, -1176.1934967271682, 34464.28888610469, 567.4213847424251, -0.07, 0.9440000000000001, 0.388, 192.0, 0.0, 0.0, 0.0, 0.0, 0.0, 0.0, 0.0, 0.0, 0.0, 1.6546755022098792E9, 0.0, 2022-06-08 10:05:02.209
104.0, 31460.907335389536, 20346.234184054636, -20679.789266561183, -17694.177352688, 6612.49537616913, -1177.2216769721124, 34476.44823508838, 555.1949805253721, -0.07, 0.9440000000000001, 0.388, 192.0, 0.0, 0.0, 0.0, 0.0, 0.0, 0.0, 0.0, 0.0, 0.0, 1.654675502209884E9, 0.0, 2022-06-08 10:05:02.209
105.0, 31475.301858818755, 20364.182634852248, -20652.00604820324, -17645.316439308695, 6636.970536347692, -1167.1186884783135, 34436.81859216912, 547.1260007770063, -0.07, 0.9440000000000001, 0.388, 192.0, 0.0, 0.0, 0.0, 0.0, 0.0, 0.0, 0.0, 0.0, 0.0, 1.6546755022098887E9, 0.0, 2022-06-08 10:05:02.209
106.0, 31504.18031265501, 20385.4614955737, -20614.678634962875, -17594.66738637297, 6684.535048548585, -1131.042972927448, 34399.15590276193, 577.1443935804837, -0.07, 0.9440000000000001, 0.388, 192.0, 0.0, 0.0, 0.0, 0.0, 0.0, 0.0, 0.0, 0.0, 0.0, 1.6546755022098937E9, 0.0, 2022-06-08 10:05:02.209
107.0, 31502.056896931757, 20377.32546059197, -20631.822422960096, -17624.663427431995, 6677.740118234172, -1142.6658800442076, 34419.04895532715, 587.0238646297294, -0.068, 0.9400000000000001, 0.386, 192.0, 253.0, 224.0, 29.0, 96.0, 12.0, 16.0, 0.0, 0.0, 0.0, 1.6546755022099004E9, 0.0, 2022-06-08 10:05:02.209
108.0, 31471.211489583435, 20351.799768424007, -20676.458856637342, -17668.137570397565, 6635.718838658195, -1179.2556857175452, 34467.127557650514, 565.0297480857072, -0.068, 0.9400000000000001, 0.386, 192.0, 0.0, 0.0, 0.0, 0.0, 0.0, 0.0, 0.0, 0.0, 0.0, 1.6546755022099051E9, 0.0, 2022-06-08 10:05:02.209
109.0, 31461.957867378936, 20342.143814819316, -20677.196464204368, -17670.529207054282, 6625.302925742022, -1186.363540454333, 34482.97494446933, 536.2854047161824, -0.068, 0.9400000000000001, 0.386, 192.0, 0.0, 0.0, 0.0, 0.0, 0.0, 0.0, 0.0, 0.0, 0.0, 1.65467550220991E9, 0.0, 2022-06-08 10:05:02.209
110.0, 31478.766379209326, 20357.521815004566, -20648.362713857023, -17643.81887243019, 6642.491417228153, -1170.3149879354226, 34440.081946859595, 528.0152592677188, -0.068, 0.9400000000000001, 0.386, 192.0, 0.0, 0.0, 0.0, 0.0, 0.0, 0.0, 0.0, 0.0, 0.0, 1.6546755022099144E9, 0.0, 2022-06-08 10:05:02.209
111.0, 31519.401850629074, 20396.70442303472, -20605.64853020293, -17598.735403863837, 6685.60793228244, -1127.2208246255905, 34401.01109755172, 560.2017712833609, -0.068, 0.9400000000000001, 0.386, 192.0, 0.0, 0.0, 0.0, 0.0, 0.0, 0.0, 0.0, 0.0, 0.0, 1.6546755022099187E9, 0.0, 2022-06-08 10:05:02.209
112.0, 31506.86252198965, 20386.713193263196, -20628.827289203084, -17640.130834595067, 6671.9510164202475, -1139.4695805870988, 34423.027565840195, 571.3329400221038, -0.068, 0.9400000000000001, 0.386, 192.0, 0.0, 0.0, 0.0, 0.0, 0.0, 0.0, 0.0, 0.0, 0.0, 1.6546755022099245E9, 0.0, 2022-06-08 10:05:02.209
113.0, 31475.23480358539, 20362.75212320711, -20676.347097915066, -17716.97613203241, 6630.108550799912, -1182.3178747079223, 34479.06338918965, 545.1813990093946, -0.068, 0.9400000000000001, 0.386, 192.0, 0.0, 0.0, 0.0, 0.0, 0.0, 0.0, 0.0, 0.0, 0.0, 1.654675502688648E9, 0.0, 2022-06-08 10:05:02.688
114.0, 31456.816966154216, 20339.841585140417, -20691.948615544872, -17647.90924166551, 6604.672265609774, -1207.5082907090534, 34498.799979543684, 514.6042125945345, -0.068, 0.9400000000000001, 0.386, 192.0, 0.0, 0.0, 0.0, 0.0, 0.0, 0.0, 0.0, 0.0, 0.0, 1.654675502688772E9, 0.0, 2022-06-08 10:05:02.688
115.0, 31478.05112338676, 20357.87944291585, -20658.1751296729, -17626.406863499506, 6622.017219307091, -1187.0117410435369, 34442.607693983045, 506.55758459062395, -0.068, 0.9400000000000001, 0.386, 192.0, 0.0, 0.0, 0.0, 0.0, 0.0, 0.0, 0.0, 0.0, 0.0, 1.654675502688836E9, 0.0, 2022-06-08 10:05:02.688
116.0, 31501.52045506483, 20382.198140883225, -20625.22865834578, -17605.060947544687, 6656.036574368069, -1151.6065778263305, 34395.4678649268, 535.7936663381656, -0.068, 0.9400000000000001, 0.386, 192.0, 0.0, 0.0, 0.0, 0.0, 0.0, 0.0, 0.0, 0.0, 0.0, 1.6546755026888416E9, 0.0, 2022-06-08 10:05:02.688
117.0, 31505.253196388865, 20388.523684564076, -20628.201440358334, -17609.978331324855, 6668.061812885024, -1149.03612721397, 34418.400754737944, 562.6604631734447, -0.064, 0.9380000000000001, 0.386, 192.0, 254.0, 0.0, 29.0, 80.0, 12.0, 16.0, 0.0, 0.0, 0.0, 1.6546755026888466E9, 0.0, 2022-06-08 10:05:02.688
118.0, 31464.46126275793, 20346.703570688198, -20682.04679275117, -17666.416486074508, 6627.649858909829, -1196.3324184813998, 34472.3355141086, 544.4437914423694, -0.064, 0.9380000000000001, 0.386, 192.0, 0.0, 0.0, 0.0, 0.0, 0.0, 0.0, 0.0, 0.0, 0.0, 1.6546755026888516E9, 0.0, 2022-06-08 10:05:02.688
119.0, 31446.04342532676, 20327.59282917891, -20709.986473320303, -17689.25996890783, 6602.817070819983, -1217.09718908038, 34481.052694446174, 516.0347242396741, -0.064, 0.9380000000000001, 0.386, 192.0, 0.0, 0.0, 0.0, 0.0, 0.0, 0.0, 0.0, 0.0, 0.0, 1.6546755026888564E9, 0.0, 2022-06-08 10:05:02.688
120.0, 31477.380571053098, 20357.544166749023, -20662.980754730794, -17646.54578525374, 6631.2708415115885, -1180.1944589846682, 34425.329795519094, 516.8840905289758, -0.064, 0.9380000000000001, 0.386, 192.0, 0.0, 0.0, 0.0, 0.0, 0.0, 0.0, 0.0, 0.0, 0.0, 1.6546755026888611E9, 0.0, 2022-06-08 10:05:02.688
121.0, 31518.060745961757, 20396.927940479272, -20592.908035863406, -17596.611988140583, 6683.8644962149265, -1130.1265514047805, 34375.641867594946, 557.4078032264475, -0.064, 0.9380000000000001, 0.386, 192.0, 0.0, 0.0, 0.0, 0.0, 0.0, 0.0, 0.0, 0.0, 0.0, 1.654675502688866E9, 0.0, 2022-06-08 10:05:02.688
122.0, 31505.297899877776, 20377.727791992165, -20624.245181589748, -17611.96763658138, 6673.739155976672, -1142.5317695774759, 34392.204510236326, 574.4845359903021, -0.064, 0.9380000000000001, 0.386, 192.0, 0.0, 0.0, 0.0, 0.0, 0.0, 0.0, 0.0, 0.0, 0.0, 1.6546755026888707E9, 0.0, 2022-06-08 10:05:02.688
123.0, 31462.2260883124, 20337.11467231687, -20676.23533919279, -17657.185215614463, 6632.07550431198, -1187.972866055115, 34447.25685682975, 553.1833235243945, -0.064, 0.9380000000000001, 0.386, 192.0, 0.0, 0.0, 0.0, 0.0, 0.0, 0.0, 0.0, 0.0, 0.0, 1.6546755026888754E9, 0.0, 2022-06-08 10:05:02.688
124.0, 31458.158070821533, 20334.432462982233, -20677.643499093476, -17662.54963428374, 6622.1736815182785, -1194.4101684582436, 34463.43951981539, 531.7032971028444, -0.064, 0.9380000000000001, 0.386, 192.0, 0.0, 0.0, 0.0, 0.0, 0.0, 0.0, 0.0, 0.0, 0.0, 1.65467550268888E9, 0.0, 2022-06-08 10:05:02.688
125.0, 31481.917975177526, 20354.861957414385, -20643.75825449923, -17628.463223989394, 6645.419495751798, -1166.559894866931, 34411.33760349007, 526.4506371558473, -0.064, 0.9380000000000001, 0.386, 192.0, 0.0, 0.0, 0.0, 0.0, 0.0, 0.0, 0.0, 0.0, 0.0, 1.6546755026888845E9, 0.0, 2022-06-08 10:05:02.688
126.0, 31503.599167299173, 20375.69378324673, -20618.992521642747, -17602.62460739906, 6676.9354554337815, -1140.363650365311, 34364.66716106739, 549.2047130113498, -0.064, 0.9380000000000001, 0.386, 192.0, 0.0, 0.0, 0.0, 0.0, 0.0, 0.0, 0.0, 0.0, 0.0, 1.6546755026888893E9, 0.0, 2022-06-08 10:05:02.688
127.0, 31492.691516004983, 20363.467379029677, -20637.94680094085, -17620.461299474395, 6670.676966986295, -1153.4841243605763, 34383.599088621035, 571.1094225775507, -0.058, 0.9440000000000001, 0.4, 192.0, 254.0, 48.0, 29.0, 128.0, 12.0, 128.0, 0.0, 0.0, 0.0, 1.654675502688894E9, 0.0, 2022-06-08 10:05:02.688
128.0, 31459.94621037796, 20328.375140234846, -20678.29169968268, -17663.98014592888, 6631.829635122971, -1193.940781824682, 34437.5785514806, 545.293157731671, -0.058, 0.9440000000000001, 0.4, 192.0, 0.0, 0.0, 0.0, 0.0, 0.0, 0.0, 0.0, 0.0, 0.0, 1.654675502688913E9, 0.0, 2022-06-08 10:05:02.688
129.0, 31447.809213138728, 20311.365462704358, -20688.484095154297, -17675.781867001282, 6616.250469237622, -1206.6142209308412, 34458.186859868394, 523.1649307209171, -0.058, 0.9440000000000001, 0.4, 192.0, 0.0, 0.0, 0.0, 0.0, 0.0, 0.0, 0.0, 0.0, 0.0, 1.6546755026889176E9, 0.0, 2022-06-08 10:05:02.688
130.0, 31457.04048359877, 20318.987407563618, -20668.076952466603, -17657.63225050357, 6625.660553653307, -1194.8348516028943, 34412.47754245729, 518.7616370632217, -0.058, 0.9440000000000001, 0.4, 192.0, 0.0, 0.0, 0.0, 0.0, 0.0, 0.0, 0.0, 0.0, 0.0, 1.6546755026889222E9, 0.0, 2022-06-08 10:05:02.688
131.0, 31486.544786279774, 20342.344980519414, -20636.091606151058, -17635.548726981728, 6656.550664490541, -1168.9738832681041, 34364.80127153412, 532.7538290922438, -0.058, 0.9440000000000001, 0.4, 192.0, 0.0, 0.0, 0.0, 0.0, 0.0, 0.0, 0.0, 0.0, 0.0, 1.6546755026889267E9, 0.0, 2022-06-08 10:05:02.688
132.0, 31495.261966617345, 20350.749236434607, -20630.078986892582, -17624.372854754074, 6672.174533864801, -1159.5637988524197, 34381.5650798756, 558.3018730046598, -0.058, 0.9440000000000001, 0.4, 192.0, 0.0, 0.0, 0.0, 0.0, 0.0, 0.0, 0.0, 0.0, 0.0, 1.6546755026889312E9, 0.0, 2022-06-08 10:05:02.688
133.0, 31460.102672589146, 20317.243971496104, -20678.403458404955, -17661.700267994438, 6632.701353156728, -1201.42861621721, 34434.73987993478, 543.4603146863359, -0.058, 0.9440000000000001, 0.4, 192.0, 0.0, 0.0, 0.0, 0.0, 0.0, 0.0, 0.0, 0.0, 0.0, 1.6546755026889355E9, 0.0, 2022-06-08 10:05:02.688
134.0, 31446.64692242705, 20303.78822133401, -20691.255711466758, -17680.319271125707, 6614.395274447832, -1219.2206048036344, 34453.69415923287, 513.039590482663, -0.058, 0.9440000000000001, 0.4, 192.0, 0.0, 0.0, 0.0, 0.0, 0.0, 0.0, 0.0, 0.0, 0.0, 1.6546755026889403E9, 0.0, 2022-06-08 10:05:02.688
135.0, 31481.80621645525, 20339.148681062303, -20642.663019020918, -17633.380607769563, 6647.408801008321, -1180.5967903848637, 34402.66512664141, 513.4866253717692, -0.058, 0.9440000000000001, 0.4, 192.0, 0.0, 0.0, 0.0, 0.0, 0.0, 0.0, 0.0, 0.0, 0.0, 1.6546755026889446E9, 0.0, 2022-06-08 10:05:02.688
