%OpenBCI Raw EEG Data
%Number of channels = 8
%Sample Rate = 250 Hz
%Board = OpenBCI_GUI$BoardCytonSerial
Sample Index, EXG Channel 0, EXG Channel 1, EXG Channel 2, EXG Channel 3, EXG Channel 4, EXG Channel 5, EXG Channel 6, EXG Channel 7, Accel Channel 0, Accel Channel 1, Accel Channel 2, Other, Other, Other, Other, Other, Other, Other, Analog Channel 0, Analog Channel 1, Analog Channel 2, Timestamp, Other, Timestamp (Formatted)
0.0, 0.0, 0.0, 0.0, 0.0, 0.0, 0.0, 0.0, 0.0, -0.038, 0.794, 0.628, 192.0, 254.0, 208.0, 24.0, 208.0, 19.0, 160.0, 0.0, 0.0, 0.0, 1.654161208922282E9, 0.0, 2022-06-02 11:13:28.922
1.0, 30282.32220200565, 5361.311776794408, -74594.96850907427, -68811.87931440823, -54432.37625746444, -55223.33743850439, -45027.05276334915, -56718.33386639761, -0.038, 0.794, 0.628, 192.0, 0.0, 0.0, 0.0, 0.0, 0.0, 0.0, 0.0, 0.0, 0.0, 1.654161209401944E9, 0.0, 2022-06-02 11:13:29.401
2.0, 30291.84404514361, 5372.755869955525, -74569.04048550612, -68790.51104670895, -54411.209155465265, -55218.59886867987, -44997.995495557254, -56717.37274138603, -0.038, 0.794, 0.628, 192.0, 0.0, 0.0, 0.0, 0.0, 0.0, 0.0, 0.0, 0.0, 0.0, 1.654161209401972E9, 0.0, 2022-06-02 11:13:29.401
3.0, 30297.94607137991, 5378.790840958458, -74559.6527528349, -68782.62088091623, -54404.16835596185, -55198.392891692274, -44975.621399357486, -56723.83239553362, -0.038, 0.794, 0.628, 192.0, 0.0, 0.0, 0.0, 0.0, 0.0, 0.0, 0.0, 0.0, 0.0, 1.6541612094019778E9, 0.0, 2022-06-02 11:13:29.401
4.0, 30291.7993416547, 5375.192210101153, -74584.3067269691, -68803.45270674858, -54431.48218768623, -55202.103281271855, -45017.93325161139, -56751.83913133611, -0.038, 0.794, 0.628, 192.0, 0.0, 0.0, 0.0, 0.0, 0.0, 0.0, 0.0, 0.0, 0.0, 1.654161209401986E9, 0.0, 2022-06-02 11:13:29.401
5.0, 30293.118094577563, 5376.332149068374, -74597.24838700872, -68814.38270978721, -54450.61528093997, -55217.52598494601, -45038.80978093264, -56770.011099578274, -0.038, 0.794, 0.628, 192.0, 0.0, 0.0, 0.0, 0.0, 0.0, 0.0, 0.0, 0.0, 0.0, 1.6541612094019928E9, 0.0, 2022-06-02 11:13:29.401
6.0, 30292.179321310443, 5377.516791524505, -74584.66435488038, -68805.41966026064, -54435.192577265814, -55214.64260991128, -45002.465844448314, -56740.41738991945, -0.038, 0.794, 0.628, 192.0, 0.0, 0.0, 0.0, 0.0, 0.0, 0.0, 0.0, 0.0, 0.0, 1.6541612094019997E9, 0.0, 2022-06-02 11:13:29.401
7.0, 30284.624431684548, 5366.564436741404, -74577.06476176558, -68803.36329977075, -54431.61629815296, -55219.33647624689, -45000.923574080894, -56721.731331554816, -0.038, 0.794, 0.628, 192.0, 0.0, 0.0, 0.0, 0.0, 0.0, 0.0, 0.0, 0.0, 0.0, 1.6541612094020061E9, 0.0, 2022-06-02 11:13:29.402
8.0, 30279.28236475973, 5365.49155300755, -74585.98310780324, -68809.2418085625, -54442.00985932468, -55227.91954611773, -45036.3287372981, -56749.08986676811, -0.022, 0.81, 0.608, 192.0, 255.0, 80.0, 25.0, 80.0, 19.0, 0.0, 0.0, 0.0, 0.0, 1.6541612094020119E9, 0.0, 2022-06-02 11:13:29.402
9.0, 30283.551547950694, 5369.581922242871, -74604.35624174551, -68824.21747734756, -54458.259577543686, -55220.8340431254, -45050.09741188257, -56728.79448280269, -0.022, 0.81, 0.608, 192.0, 0.0, 0.0, 0.0, 0.0, 0.0, 0.0, 0.0, 0.0, 0.0, 1.654161209402017E9, 0.0, 2022-06-02 11:13:29.402
10.0, 30290.61469919857, 5374.544009511949, -74607.08315456906, -68833.13582338522, -54448.000126838706, -55217.749502390565, -45005.66214390542, -56735.142378227996, -0.022, 0.81, 0.608, 192.0, 0.0, 0.0, 0.0, 0.0, 0.0, 0.0, 0.0, 0.0, 0.0, 1.6541612094020252E9, 0.0, 2022-06-02 11:13:29.402
11.0, 30286.859606130078, 5371.191247843653, -74595.34848873001, -68820.8423639348, -54435.10317028799, -55208.85350809735, -44996.56498391211, -56718.646790819985, -0.022, 0.81, 0.608, 192.0, 0.0, 0.0, 0.0, 0.0, 0.0, 0.0, 0.0, 0.0, 0.0, 1.6541612094020305E9, 0.0, 2022-06-02 11:13:29.402
12.0, 30285.09381831811, 5369.537218753961, -74580.59633738952, -68805.86669514974, -54427.16830100636, -55203.422034194715, -45001.90705083693, -56719.071473964636, -0.022, 0.81, 0.608, 192.0, 0.0, 0.0, 0.0, 0.0, 0.0, 0.0, 0.0, 0.0, 0.0, 1.6541612094020364E9, 0.0, 2022-06-02 11:13:29.402
13.0, 30278.745922892802, 5361.2670733054965, -74591.97337531726, -68825.35741631477, -54447.53074020514, -55240.45887475716, -45053.494877039775, -56770.97222458985, -0.022, 0.81, 0.608, 192.0, 0.0, 0.0, 0.0, 0.0, 0.0, 0.0, 0.0, 0.0, 0.0, 1.654161209402042E9, 0.0, 2022-06-02 11:13:29.402
14.0, 30286.546681707703, 5361.691756450147, -74612.49227672724, -68840.71306475558, -54468.49667650422, -55253.42288654124, -45079.82523200813, -56801.348245304616, -0.022, 0.81, 0.608, 192.0, 0.0, 0.0, 0.0, 0.0, 0.0, 0.0, 0.0, 0.0, 0.0, 1.654161209402047E9, 0.0, 2022-06-02 11:13:29.402
15.0, 30288.826559642144, 5358.853084904324, -74626.59622747854, -68846.88214622524, -54477.97381615327, -55216.22958376761, -45035.85935066454, -56790.48529749934, -0.022, 0.81, 0.608, 192.0, 0.0, 0.0, 0.0, 0.0, 0.0, 0.0, 0.0, 0.0, 0.0, 1.654161209402052E9, 0.0, 2022-06-02 11:13:29.402
16.0, 30285.876129374046, 5357.936663381656, -74617.52141922968, -68840.48954731102, -54475.40336554091, -55209.233487753096, -45021.30836502414, -56748.03933477871, -0.022, 0.81, 0.608, 192.0, 0.0, 0.0, 0.0, 0.0, 0.0, 0.0, 0.0, 0.0, 0.0, 1.6541612094020567E9, 0.0, 2022-06-02 11:13:29.402
17.0, 30299.89067314752, 5369.581922242871, -74582.33977345703, -68814.27095106494, -54450.503522217696, -55207.691217385676, -44974.57086736809, -56725.419369389936, 0.006, 0.8200000000000001, 0.602, 192.0, 0.0, 48.0, 25.0, 160.0, 18.0, 208.0, 0.0, 0.0, 0.0, 1.654161209402063E9, 0.0, 2022-06-02 11:13:29.402
18.0, 30311.446525030915, 5380.5789805148825, -74571.65563960739, -68804.12325908223, -54435.30433598809, -55202.34915046086, -44987.71369310781, -56727.20750894636, 0.006, 0.8200000000000001, 0.602, 192.0, 0.0, 0.0, 0.0, 0.0, 0.0, 0.0, 0.0, 0.0, 0.0, 1.654161209402068E9, 0.0, 2022-06-02 11:13:29.402
19.0, 30317.012109400286, 5378.366157813806, -74597.74012538673, -68826.00561690397, -54443.865054114474, -55211.5804209209, -45038.07217336562, -56745.87121556655, 0.006, 0.8200000000000001, 0.602, 192.0, 0.0, 0.0, 0.0, 0.0, 0.0, 0.0, 0.0, 0.0, 0.0, 1.6541612094020731E9, 0.0, 2022-06-02 11:13:29.402
20.0, 30316.743888466823, 5371.526524010483, -74619.7118901863, -68848.26795438146, -54474.196371340324, -55252.55116850748, -45074.66197903895, -56788.76421317628, 0.006, 0.8200000000000001, 0.602, 192.0, 0.0, 0.0, 0.0, 0.0, 0.0, 0.0, 0.0, 0.0, 0.0, 1.654161209402078E9, 0.0, 2022-06-02 11:13:29.402
21.0, 30331.652502018514, 5381.964788671111, -74597.02486956416, -68824.55275351438, -54457.94665312131, -55245.733886448616, -45041.46963852282, -56740.77501783073, 0.006, 0.8200000000000001, 0.602, 192.0, 0.0, 0.0, 0.0, 0.0, 0.0, 0.0, 0.0, 0.0, 0.0, 1.6541612094020832E9, 0.0, 2022-06-02 11:13:29.402
22.0, 30331.987778185343, 5374.9463409121445, -74584.73141011375, -68814.96385514305, -54461.612339211984, -55242.38112478032, -45078.93116222992, -56744.79833183269, 0.006, 0.8200000000000001, 0.602, 192.0, 0.0, 0.0, 0.0, 0.0, 0.0, 0.0, 0.0, 0.0, 0.0, 1.6541612094021149E9, 0.0, 2022-06-02 11:13:29.402
23.0, 30344.884734736057, 5378.097936880343, -74572.25913670768, -68807.05133760588, -54431.124559774944, -55222.97981059311, -45006.891489850466, -56745.42418067744, 0.006, 0.8200000000000001, 0.602, 192.0, 0.0, 0.0, 0.0, 0.0, 0.0, 0.0, 0.0, 0.0, 0.0, 1.6541612094021196E9, 0.0, 2022-06-02 11:13:29.402
24.0, 30364.330752412174, 5391.956018442634, -74576.41656117637, -68804.50323873798, -54421.982696292725, -55191.9779410336, -44980.67289360439, -56724.100616467076, 0.006, 0.8200000000000001, 0.602, 192.0, 0.0, 0.0, 0.0, 0.0, 0.0, 0.0, 0.0, 0.0, 0.0, 1.654161209402125E9, 0.0, 2022-06-02 11:13:29.402
25.0, 30376.668915351504, 5402.506041825538, -74578.40586643289, -68810.67232020764, -54434.67848714334, -55188.69223459867, -44987.89250706345, -56713.17061342843, 0.006, 0.8200000000000001, 0.602, 192.0, 0.0, 0.0, 0.0, 0.0, 0.0, 0.0, 0.0, 0.0, 0.0, 1.6541612094021292E9, 0.0, 2022-06-02 11:13:29.402
26.0, 30365.58245010167, 5395.219373133108, -74578.87525306645, -68815.90262841019, -54442.23337676923, -55209.14408077527, -44995.33563796707, -56716.85865126356, 0.006, 0.8200000000000001, 0.602, 192.0, 0.0, 0.0, 0.0, 0.0, 0.0, 0.0, 0.0, 0.0, 0.0, 1.654161209402135E9, 0.0, 2022-06-02 11:13:29.402
27.0, 30357.848746520132, 5389.519678297005, -74572.10267449649, -68794.02027058843, -54434.61143190997, -55214.10616804435, -44999.35895196902, -56748.195796989894, 0.04, 0.808, 0.6, 192.0, 1.0, 64.0, 25.0, 64.0, 18.0, 192.0, 0.0, 0.0, 0.0, 1.6541612094021404E9, 0.0, 2022-06-02 11:13:29.402
28.0, 30354.317170896196, 5389.966713186111, -74572.77322683016, -68789.57227344182, -54423.7484841047, -55204.8301940954, -44984.47269016179, -56747.793465589704, 0.04, 0.808, 0.6, 192.0, 0.0, 0.0, 0.0, 0.0, 0.0, 0.0, 0.0, 0.0, 0.0, 1.6541612094021473E9, 0.0, 2022-06-02 11:13:29.402
29.0, 30351.612609817104, 5387.195096873653, -74597.06957305307, -68808.5936079733, -54446.59196693802, -55207.60181040786, -45038.116876854525, -56755.37070696005, 0.04, 0.808, 0.6, 192.0, 0.0, 0.0, 0.0, 0.0, 0.0, 0.0, 0.0, 0.0, 0.0, 1.6541612094021525E9, 0.0, 2022-06-02 11:13:29.402
30.0, 30351.076167950174, 5379.908428181223, -74613.45340173882, -68825.75974771497, -54466.797943925616, -55216.49780470107, -45057.697004997375, -56753.604919148085, 0.04, 0.808, 0.6, 192.0, 0.0, 0.0, 0.0, 0.0, 0.0, 0.0, 0.0, 0.0, 0.0, 1.654161209402157E9, 0.0, 2022-06-02 11:13:29.402
31.0, 30363.123758211586, 5394.861745221823, -74587.54772991511, -68795.80841014486, -54441.0487343131, -55196.24712422456, -45026.27045229322, -56717.12687219702, 0.04, 0.808, 0.6, 192.0, 0.0, 0.0, 0.0, 0.0, 0.0, 0.0, 0.0, 0.0, 0.0, 1.6541612094021616E9, 0.0, 2022-06-02 11:13:29.402
32.0, 30351.85847900611, 5386.658655006726, -74580.21635773378, -68794.73552641101, -54437.67362090035, -55205.07606328441, -45036.798123931665, -56703.26879063473, 0.04, 0.808, 0.6, 192.0, 0.0, 0.0, 0.0, 0.0, 0.0, 0.0, 0.0, 0.0, 0.0, 1.6541612094021668E9, 0.0, 2022-06-02 11:13:29.402
33.0, 30349.846822005133, 5382.9706171716, -74582.56329090158, -68796.27779677842, -54442.27808025815, -55211.200441265166, -45055.9312171854, -56746.877044067034, 0.04, 0.808, 0.6, 192.0, 0.0, 0.0, 0.0, 0.0, 0.0, 0.0, 0.0, 0.0, 0.0, 1.6541612094021714E9, 0.0, 2022-06-02 11:13:29.402
34.0, 30350.159746427507, 5376.086279879365, -74596.77900037516, -68814.4944685095, -54440.95932733528, -55218.50946170205, -45028.81855116112, -56769.16173328897, 0.04, 0.808, 0.6, 192.0, 0.0, 0.0, 0.0, 0.0, 0.0, 0.0, 0.0, 0.0, 0.0, 1.6541612094021764E9, 0.0, 2022-06-02 11:13:29.402
35.0, 30347.611647559603, 5370.58775074336, -74606.70317491332, -68825.98326515952, -54437.986545322725, -55224.8350053829, -44975.71080633531, -56752.10735226957, 0.04, 0.808, 0.6, 192.0, 0.0, 0.0, 0.0, 0.0, 0.0, 0.0, 0.0, 0.0, 0.0, 1.6541612094021816E9, 0.0, 2022-06-02 11:13:29.402
36.0, 30350.070339449685, 5378.008529902521, -74587.72654387075, -68811.45463126358, -54431.77276036415, -55228.70185717367, -44996.944963567854, -56738.763360829755, 0.04, 0.808, 0.6, 192.0, 0.0, 0.0, 0.0, 0.0, 0.0, 0.0, 0.0, 0.0, 0.0, 1.6541612094021864E9, 0.0, 2022-06-02 11:13:29.402
37.0, 30357.714636053403, 5390.704320753136, -74547.87338350694, -68782.26325300494, -54413.243164210704, -55209.41230170874, -45019.52022546771, -56731.34258167059, 0.038, 0.796, 0.584, 192.0, 1.0, 48.0, 24.0, 224.0, 18.0, 64.0, 0.0, 0.0, 0.0, 1.654161209402191E9, 0.0, 2022-06-02 11:13:29.402
38.0, 30346.471708592384, 5382.657692749226, -74549.57211608555, -68786.26421526245, -54410.225678709234, -55211.06633079843, -44985.50087040674, -56744.55246264368, 0.038, 0.796, 0.584, 192.0, 0.0, 0.0, 0.0, 0.0, 0.0, 0.0, 0.0, 0.0, 0.0, 1.6541612094021974E9, 0.0, 2022-06-02 11:13:29.402
39.0, 30350.20444991642, 5385.965750928611, -74564.43602614832, -68803.45270674858, -54416.01478052316, -55200.270438226515, -44978.66123660341, -56752.554387158685, 0.038, 0.796, 0.584, 192.0, 0.0, 0.0, 0.0, 0.0, 0.0, 0.0, 0.0, 0.0, 0.0, 1.6541612094022024E9, 0.0, 2022-06-02 11:13:29.402
40.0, 30357.267601164294, 5391.799556231446, -74572.48265415223, -68809.4429742626, -54431.19161500831, -55195.598923635356, -45006.2209375168, -56752.21911099185, 0.038, 0.796, 0.584, 192.0, 0.0, 0.0, 0.0, 0.0, 0.0, 0.0, 0.0, 0.0, 0.0, 1.6541612094022105E9, 0.0, 2022-06-02 11:13:29.402
41.0, 30363.99547624534, 5404.495347082061, -74551.20379343079, -68781.39153497119, -54421.08862651452, -55203.69025512818, -45020.3248882681, -56744.775980088234, 0.038, 0.796, 0.584, 192.0, 0.0, 0.0, 0.0, 0.0, 0.0, 0.0, 0.0, 0.0, 0.0, 1.6541612094022157E9, 0.0, 2022-06-02 11:13:29.402
42.0, 30362.944944255945, 5409.971524473611, -74533.50121182218, -68763.59954638476, -54395.78645179111, -55200.918638815725, -44986.37258844049, -56721.82073853264, 0.038, 0.796, 0.584, 192.0, 0.0, 0.0, 0.0, 0.0, 0.0, 0.0, 0.0, 0.0, 0.0, 1.6541612094022236E9, 0.0, 2022-06-02 11:13:29.402
43.0, 30372.287973438262, 5434.26787069653, -74528.91910420885, -68755.7764358254, -54389.0362249656, -55177.38225190428, -44974.10148073453, -56700.22895338881, 0.038, 0.796, 0.584, 192.0, 0.0, 0.0, 0.0, 0.0, 0.0, 0.0, 0.0, 0.0, 0.0, 1.6541612094022467E9, 0.0, 2022-06-02 11:13:29.402
44.0, 30363.57079310069, 5426.757684559547, -74553.32720915404, -68783.7831716279, -54411.52207988764, -55177.82928679339, -45012.591184686564, -56725.46407287885, 0.038, 0.796, 0.584, 192.0, 0.0, 0.0, 0.0, 0.0, 0.0, 0.0, 0.0, 0.0, 0.0, 1.654161209402251E9, 0.0, 2022-06-02 11:13:29.402
45.0, 30335.966388698387, 5390.994893431055, -74567.09588373851, -68802.33511952581, -54426.05071378359, -55193.34139744537, -45055.461830551845, -56791.200553321905, 0.038, 0.796, 0.584, 192.0, 0.0, 0.0, 0.0, 0.0, 0.0, 0.0, 0.0, 0.0, 0.0, 1.6541612094022553E9, 0.0, 2022-06-02 11:13:29.402
46.0, 30335.8099264872, 5397.745120256558, -74541.74900552619, -68780.09513379278, -54401.977885005224, -55196.157717246744, -45040.68732746689, -56781.92457937296, 0.038, 0.796, 0.584, 192.0, 0.0, 0.0, 0.0, 0.0, 0.0, 0.0, 0.0, 0.0, 0.0, 1.654161209402259E9, 0.0, 2022-06-02 11:13:29.402
47.0, 30344.571810313682, 5408.362198872829, -74514.61398775745, -68749.00385725545, -54373.457059080254, -55169.26856866701, -44991.53584140967, -56689.32130209462, 0.02, 0.812, 0.58, 192.0, 0.0, 160.0, 25.0, 96.0, 18.0, 32.0, 0.0, 0.0, 0.0, 1.6541612094022636E9, 0.0, 2022-06-02 11:13:29.402
48.0, 30344.30358938022, 5411.670257052214, -74506.38854579789, -68734.83285127078, -54354.77100071562, -55143.74287649905, -44933.17543663686, -56646.45065622934, 0.02, 0.812, 0.58, 192.0, 0.0, 0.0, 0.0, 0.0, 0.0, 0.0, 0.0, 0.0, 0.0, 1.6541612094022691E9, 0.0, 2022-06-02 11:13:29.402
49.0, 30348.461013848904, 5416.162957687731, -74521.09599364949, -68745.74050256498, -54349.361878557436, -55139.69721075264, -44954.52135259168, -56670.36702279652, 0.02, 0.812, 0.58, 192.0, 0.0, 0.0, 0.0, 0.0, 0.0, 0.0, 0.0, 0.0, 0.0, 1.654161209402274E9, 0.0, 2022-06-02 11:13:29.402
50.0, 30368.845804792145, 5435.072533496921, -74519.6878337488, -68741.9183542631, -54357.721430983715, -55143.67582126568, -44939.79155299563, -56681.56524676863, 0.02, 0.812, 0.58, 192.0, 0.0, 0.0, 0.0, 0.0, 0.0, 0.0, 0.0, 0.0, 0.0, 1.6541612094022791E9, 0.0, 2022-06-02 11:13:29.402
51.0, 30382.458017165427, 5452.775115105524, -74496.19615032627, -68719.25368538544, -54342.075209865005, -55141.10537065332, -44925.73230573325, -56668.087144862075, 0.02, 0.812, 0.58, 192.0, 0.0, 0.0, 0.0, 0.0, 0.0, 0.0, 0.0, 0.0, 0.0, 1.654161209402285E9, 0.0, 2022-06-02 11:13:29.402
52.0, 30385.40844743353, 5459.547693675482, -74473.1291500484, -68702.66869099959, -54323.7244276672, -55126.889661179746, -44908.38735203593, -56654.87726388899, 0.02, 0.812, 0.58, 192.0, 0.0, 0.0, 0.0, 0.0, 0.0, 0.0, 0.0, 0.0, 0.0, 1.6541612094022892E9, 0.0, 2022-06-02 11:13:29.402
53.0, 30393.522130670804, 5469.851847869379, -74462.42266445431, -68697.23721709696, -54311.43096821678, -55113.99270462903, -44895.82567165204, -56651.92683362089, 0.02, 0.812, 0.58, 192.0, 0.0, 0.0, 0.0, 0.0, 0.0, 0.0, 0.0, 0.0, 0.0, 1.6541612094022946E9, 0.0, 2022-06-02 11:13:29.402
54.0, 30390.504645169338, 5469.181295535719, -74484.59559495396, -68714.470412072, -54321.60101194394, -55121.39113204374, -44922.625413253954, -56687.51081079374, 0.02, 0.812, 0.58, 192.0, 0.0, 0.0, 0.0, 0.0, 0.0, 0.0, 0.0, 0.0, 0.0, 1.6541612094023008E9, 0.0, 2022-06-02 11:13:29.402
55.0, 30385.944889300456, 5463.526304188526, -74503.63928122989, -68725.6239325552, -54340.91291915333, -55124.855652434315, -44935.23179712675, -56681.028804901696, 0.02, 0.812, 0.58, 192.0, 0.0, 0.0, 0.0, 0.0, 0.0, 0.0, 0.0, 0.0, 0.0, 1.6541612094023056E9, 0.0, 2022-06-02 11:13:29.402
56.0, 30404.563892431725, 5475.663301427759, -74472.41389422583, -68700.47822004298, -54322.360971255424, -55093.451451474604, -44898.50788098668, -56613.81710932459, 0.02, 0.812, 0.58, 192.0, 0.0, 0.0, 0.0, 0.0, 0.0, 0.0, 0.0, 0.0, 0.0, 1.654161209402311E9, 0.0, 2022-06-02 11:13:29.402
57.0, 30425.932160131, 5491.890667902311, -74437.32165543099, -68672.24796679593, -54296.61176164291, -55074.47482043205, -44867.30484572707, -56598.99790275072, 0.026000000000000002, 0.8220000000000001, 0.582, 192.0, 0.0, 208.0, 25.0, 176.0, 18.0, 48.0, 0.0, 0.0, 0.0, 1.6541612094023173E9, 0.0, 2022-06-02 11:13:29.402
58.0, 30431.564799733736, 5499.177336594741, -74428.69388207125, -68665.14011205913, -54292.18611624076, -55066.49524766151, -44864.28736022561, -56595.332216660056, 0.026000000000000002, 0.8220000000000001, 0.582, 192.0, 0.0, 0.0, 0.0, 0.0, 0.0, 0.0, 0.0, 0.0, 0.0, 1.6541612094023223E9, 0.0, 2022-06-02 11:13:29.402
59.0, 30435.275189313317, 5499.9149441617665, -74442.90959154483, -68678.03706860985, -54288.11809874989, -55066.115268005764, -44887.15319480338, -56609.90555404491, 0.026000000000000002, 0.8220000000000001, 0.582, 192.0, 0.0, 0.0, 0.0, 0.0, 0.0, 0.0, 0.0, 0.0, 0.0, 1.654161209402327E9, 0.0, 2022-06-02 11:13:29.402
60.0, 30436.191610835984, 5496.092795859909, -74461.61800165391, -68700.23235085397, -54299.137508766355, -55087.19296302712, -44895.91507862986, -56626.579955408575, 0.026000000000000002, 0.8220000000000001, 0.582, 192.0, 0.0, 0.0, 0.0, 0.0, 0.0, 0.0, 0.0, 0.0, 0.0, 1.654161209402332E9, 0.0, 2022-06-02 11:13:29.402
61.0, 30434.090546857187, 5497.076272615943, -74455.29245797306, -68700.41116480962, -54303.80902335752, -55096.670102676166, -44894.28340128463, -56616.00758028121, 0.026000000000000002, 0.8220000000000001, 0.582, 192.0, 0.0, 0.0, 0.0, 0.0, 0.0, 0.0, 0.0, 0.0, 0.0, 1.6541612094023373E9, 0.0, 2022-06-02 11:13:29.402
62.0, 30446.942799918987, 5510.219098355663, -74423.4188703798, -68656.19941427701, -54281.07729924647, -55073.111364020275, -44870.65760739537, -56598.77438530617, 0.026000000000000002, 0.8220000000000001, 0.582, 192.0, 0.0, 0.0, 0.0, 0.0, 0.0, 0.0, 0.0, 0.0, 0.0, 1.6541612094023416E9, 0.0, 2022-06-02 11:13:29.402
63.0, 30455.905849445564, 5518.310429848484, -74415.23813190915, -68650.0079810629, -54258.658499557794, -55053.93356727762, -44841.041545992084, -56560.41879182086, 0.026000000000000002, 0.8220000000000001, 0.582, 192.0, 0.0, 0.0, 0.0, 0.0, 0.0, 0.0, 0.0, 0.0, 0.0, 1.6541612094023464E9, 0.0, 2022-06-02 11:13:29.402
64.0, 30464.958305949964, 5527.3852380973385, -74427.59864659293, -68669.0069638499, -54262.92768274876, -55053.888863788714, -44861.940427057794, -56587.26323691168, 0.026000000000000002, 0.8220000000000001, 0.582, 192.0, 0.0, 0.0, 0.0, 0.0, 0.0, 0.0, 0.0, 0.0, 0.0, 1.6541612094023535E9, 0.0, 2022-06-02 11:13:29.402
65.0, 30461.091454159196, 5521.707895005691, -74450.95621954874, -68691.9622054055, -54302.75849136812, -55094.23376253054, -44929.01801216818, -56667.684813461885, 0.026000000000000002, 0.8220000000000001, 0.582, 192.0, 0.0, 0.0, 0.0, 0.0, 0.0, 0.0, 0.0, 0.0, 0.0, 1.654161209402358E9, 0.0, 2022-06-02 11:13:29.402
66.0, 30447.70275923047, 5509.123862877353, -74450.44212942626, -68695.09144962924, -54310.22397401619, -55112.07045460588, -44936.818770983075, -56705.79453775818, 0.026000000000000002, 0.8220000000000001, 0.582, 192.0, 0.0, 0.0, 0.0, 0.0, 0.0, 0.0, 0.0, 0.0, 0.0, 1.654161209402362E9, 0.0, 2022-06-02 11:13:29.402
67.0, 30450.429672054015, 5517.572822281459, -74421.04958546754, -68671.06332433979, -54278.08216548946, -55078.29696873391, -44878.61482842146, -56669.96469139632, 0.032, 0.8320000000000001, 0.5720000000000001, 192.0, 1.0, 0.0, 26.0, 0.0, 17.0, 224.0, 0.0, 0.0, 0.0, 1.6541612094023669E9, 0.0, 2022-06-02 11:13:29.402
68.0, 30446.316951074237, 5522.087874661431, -74413.33823363045, -68663.15080680262, -54266.705127561705, -55045.88693927371, -44835.76653430063, -56558.965928431266, 0.032, 0.8320000000000001, 0.5720000000000001, 192.0, 0.0, 0.0, 0.0, 0.0, 0.0, 0.0, 0.0, 0.0, 0.0, 1.6541612094023712E9, 0.0, 2022-06-02 11:13:29.402
69.0, 30438.02445388132, 5514.577688524448, -74439.35566417643, -68674.8631208972, -54292.096709262936, -55039.203767681574, -44861.62750263542, -56533.06025660757, 0.032, 0.8320000000000001, 0.5720000000000001, 192.0, 0.0, 0.0, 0.0, 0.0, 0.0, 0.0, 0.0, 0.0, 0.0, 1.6541612094023757E9, 0.0, 2022-06-02 11:13:29.402
70.0, 30435.49870675787, 5502.597153496404, -74461.08155978698, -68682.57447273427, -54319.58935494297, -55060.08029700283, -44898.105549586486, -56582.41290836489, 0.032, 0.8320000000000001, 0.5720000000000001, 192.0, 0.0, 0.0, 0.0, 0.0, 0.0, 0.0, 0.0, 0.0, 0.0, 1.6541612094023805E9, 0.0, 2022-06-02 11:13:29.402
71.0, 30444.21588709544, 5510.487319289126, -74454.24192598366, -68675.37721101966, -54313.554383940034, -55081.60502691329, -44900.02779960964, -56633.285478745165, 0.032, 0.8320000000000001, 0.5720000000000001, 192.0, 0.0, 0.0, 0.0, 0.0, 0.0, 0.0, 0.0, 0.0, 0.0, 1.6541612094023852E9, 0.0, 2022-06-02 11:13:29.402
72.0, 30439.298503315273, 5508.587421010426, -74449.07867301449, -68666.81649289328, -54305.4183489583, -55082.409689713684, -44884.62744767994, -56617.84042332655, 0.032, 0.8320000000000001, 0.5720000000000001, 192.0, 0.0, 0.0, 0.0, 0.0, 0.0, 0.0, 0.0, 0.0, 0.0, 1.6541612094023907E9, 0.0, 2022-06-02 11:13:29.402
73.0, 30436.37042479163, 5513.638915257325, -74441.74730083314, -68651.4608444525, -54293.773090097086, -55048.569148608345, -44855.234903721204, -56539.98929738871, 0.032, 0.8320000000000001, 0.5720000000000001, 192.0, 0.0, 0.0, 0.0, 0.0, 0.0, 0.0, 0.0, 0.0, 0.0, 1.6541612094023952E9, 0.0, 2022-06-02 11:13:29.402
74.0, 30446.674578985523, 5509.123862877353, -74452.02910328259, -68669.61046095019, -54296.1647267538, -55057.82277081285, -44878.368959232444, -56572.801658249104, 0.032, 0.8320000000000001, 0.5720000000000001, 192.0, 0.0, 0.0, 0.0, 0.0, 0.0, 0.0, 0.0, 0.0, 0.0, 1.6541612094024007E9, 0.0, 2022-06-02 11:13:29.402
75.0, 30445.109956873654, 5497.433900527228, -74471.11749304742, -68689.68232747106, -54317.2200700307, -55082.58850366933, -44898.709046686774, -56606.28457144315, 0.032, 0.8320000000000001, 0.5720000000000001, 192.0, 0.0, 0.0, 0.0, 0.0, 0.0, 0.0, 0.0, 0.0, 0.0, 1.6541612094024055E9, 0.0, 2022-06-02 11:13:29.402
76.0, 30449.423843553526, 5504.027665141543, -74456.43239694029, -68680.13813258865, -54308.726407137685, -55086.18713452663, -44889.142500059905, -56607.17864122136, 0.032, 0.8320000000000001, 0.5720000000000001, 192.0, 0.0, 0.0, 0.0, 0.0, 0.0, 0.0, 0.0, 0.0, 0.0, 1.6541612094024098E9, 0.0, 2022-06-02 11:13:29.402
77.0, 30454.430634311517, 5511.157871622786, -74433.56656236251, -68662.14497830212, -54284.02772951457, -55072.03848028642, -44870.16586901735, -56594.30403641511, 0.018000000000000002, 0.802, 0.5640000000000001, 192.0, 0.0, 144.0, 25.0, 16.0, 17.0, 160.0, 0.0, 0.0, 0.0, 1.6541612094024138E9, 0.0, 2022-06-02 11:13:29.402
78.0, 30446.540468518793, 5502.328932562939, -74429.72206231618, -68646.02937054985, -54281.14435447984, -55067.27755871744, -44846.696537339274, -56569.605358791996, 0.018000000000000002, 0.802, 0.5640000000000001, 192.0, 0.0, 0.0, 0.0, 0.0, 0.0, 0.0, 0.0, 0.0, 0.0, 1.6541612094024189E9, 0.0, 2022-06-02 11:13:29.402
79.0, 30443.433576039504, 5498.1491563497975, -74445.70355960174, -68659.23925152293, -54292.297874963035, -55069.42332618515, -44852.32917694202, -56575.595626306014, 0.018000000000000002, 0.802, 0.5640000000000001, 192.0, 0.0, 0.0, 0.0, 0.0, 0.0, 0.0, 0.0, 0.0, 0.0, 1.654161209402424E9, 0.0, 2022-06-02 11:13:29.402
80.0, 30438.516192259336, 5489.543734734504, -74466.20010926726, -68680.8086849223, -54316.92949735278, -55092.89265786322, -44928.52627379016, -56613.92886804687, 0.018000000000000002, 0.802, 0.5640000000000001, 192.0, 0.0, 0.0, 0.0, 0.0, 0.0, 0.0, 0.0, 0.0, 0.0, 1.6541612094024296E9, 0.0, 2022-06-02 11:13:29.402
81.0, 30437.957398647955, 5483.195839309196, -74456.65591438484, -68680.87574015566, -54313.64379091785, -55089.87517236175, -44906.64391596841, -56609.72674008927, 0.018000000000000002, 0.802, 0.5640000000000001, 192.0, 0.0, 0.0, 0.0, 0.0, 0.0, 0.0, 0.0, 0.0, 0.0, 1.654161209402434E9, 0.0, 2022-06-02 11:13:29.402
82.0, 30443.679445228514, 5482.458231742172, -74437.94750427574, -68666.36945800418, -54294.48834591966, -55077.62641640025, -44864.57793290352, -56599.57904810656, 0.018000000000000002, 0.802, 0.5640000000000001, 192.0, 0.0, 0.0, 0.0, 0.0, 0.0, 0.0, 0.0, 0.0, 0.0, 1.65416120940244E9, 0.0, 2022-06-02 11:13:29.402
83.0, 30453.938895933497, 5494.438766770216, -74433.18658270677, -68661.80970213529, -54291.42615692928, -55088.42230897216, -44916.5010352732, -56651.70331617634, 0.018000000000000002, 0.802, 0.5640000000000001, 192.0, 0.0, 0.0, 0.0, 0.0, 0.0, 0.0, 0.0, 0.0, 0.0, 1.6541612094024448E9, 0.0, 2022-06-02 11:13:29.402
84.0, 30457.17989887952, 5501.658380229281, -74451.4256061823, -68681.90392040061, -54314.33669499597, -55087.57294268286, -45008.16553928442, -56690.97533118431, 0.018000000000000002, 0.802, 0.5640000000000001, 192.0, 0.0, 0.0, 0.0, 0.0, 0.0, 0.0, 0.0, 0.0, 0.0, 1.6541612094024491E9, 0.0, 2022-06-02 11:13:29.402
85.0, 30452.530736032815, 5501.3231040624505, -74455.60538239544, -68685.21197858, -54308.07820654848, -55031.090084444295, -44885.83444188052, -56560.82112322106, 0.018000000000000002, 0.802, 0.5640000000000001, 192.0, 0.0, 0.0, 0.0, 0.0, 0.0, 0.0, 0.0, 0.0, 0.0, 1.6541612094024537E9, 0.0, 2022-06-02 11:13:29.402
86.0, 30464.287753616307, 5516.924621692255, -74422.14482094585, -68660.13332130114, -54269.163819451795, -55022.81993899583, -44794.19228961376, -56551.701611483295, 0.018000000000000002, 0.802, 0.5640000000000001, 192.0, 0.0, 0.0, 0.0, 0.0, 0.0, 0.0, 0.0, 0.0, 0.0, 1.6541612094024656E9, 0.0, 2022-06-02 11:13:29.402
87.0, 30459.12450064713, 5510.442615800216, -74412.89119874134, -68654.34421948722, -54279.1103457344, -55029.905441988165, -44852.06095600855, -56579.306015885595, 0.026000000000000002, 0.8, 0.546, 192.0, 0.0, 208.0, 25.0, 0.0, 17.0, 16.0, 0.0, 0.0, 0.0, 1.6541612094024708E9, 0.0, 2022-06-02 11:13:29.402
88.0, 30455.145890134085, 5507.693351232213, -74410.32074812899, -68652.08669329724, -54277.32220617798, -55012.53813654639, -44858.319444456036, -56537.88823340991, 0.026000000000000002, 0.8, 0.546, 192.0, 0.0, 0.0, 0.0, 0.0, 0.0, 0.0, 0.0, 0.0, 0.0, 1.6541612094024749E9, 0.0, 2022-06-02 11:13:29.402
89.0, 30459.705646002967, 5514.488281546626, -74414.25465515311, -68659.99921083442, -54285.815869071, -55004.55856377585, -44876.78198537612, -56561.67048951036, 0.026000000000000002, 0.8, 0.546, 192.0, 0.0, 0.0, 0.0, 0.0, 0.0, 0.0, 0.0, 0.0, 0.0, 1.6541612094024787E9, 0.0, 2022-06-02 11:13:29.402
90.0, 30446.093433629685, 5502.887726174322, -74436.44993739724, -68691.13519086066, -54301.05975878952, -55041.14836944918, -44855.659586865855, -56611.42547266787, 0.026000000000000002, 0.8, 0.546, 192.0, 0.0, 0.0, 0.0, 0.0, 0.0, 0.0, 0.0, 0.0, 0.0, 1.6541612094024827E9, 0.0, 2022-06-02 11:13:29.402
91.0, 30431.8330206672, 5496.673941215747, -74437.79104206456, -68703.24983635543, -54323.99264860066, -55066.271730216955, -44880.134747044416, -56645.33306900658, 0.026000000000000002, 0.8, 0.546, 192.0, 0.0, 0.0, 0.0, 0.0, 0.0, 0.0, 0.0, 0.0, 0.0, 1.6541612094024868E9, 0.0, 2022-06-02 11:13:29.402
92.0, 30425.999215364365, 5502.440691285216, -74419.06028021101, -68686.08369661376, -54318.583526442475, -55042.288308416406, -44858.63236887841, -56577.74139377373, 0.026000000000000002, 0.8, 0.546, 192.0, 0.0, 0.0, 0.0, 0.0, 0.0, 0.0, 0.0, 0.0, 0.0, 1.654161209402491E9, 0.0, 2022-06-02 11:13:29.402
93.0, 30425.932160131, 5511.940182678722, -74410.67837604028, -68671.7562284179, -54301.0150553006, -55012.24756386848, -44882.861659867965, -56566.43141107934, 0.026000000000000002, 0.8, 0.546, 192.0, 0.0, 0.0, 0.0, 0.0, 0.0, 0.0, 0.0, 0.0, 0.0, 1.654161209402495E9, 0.0, 2022-06-02 11:13:29.402
94.0, 30416.54442745977, 5502.440691285216, -74441.79200432205, -68699.47239154248, -54318.18119504228, -55023.80341575187, -44945.781820509656, -56616.83459482606, 0.026000000000000002, 0.8, 0.546, 192.0, 0.0, 0.0, 0.0, 0.0, 0.0, 0.0, 0.0, 0.0, 0.0, 1.654161209402499E9, 0.0, 2022-06-02 11:13:29.402
95.0, 30403.423953464506, 5487.643836455803, -74458.22053649671, -68723.20994415402, -54315.722503152196, -55038.42145662564, -44906.66626771287, -56624.43418794086, 0.026000000000000002, 0.8, 0.546, 192.0, 0.0, 0.0, 0.0, 0.0, 0.0, 0.0, 0.0, 0.0, 0.0, 1.6541612094025047E9, 0.0, 2022-06-02 11:13:29.402
96.0, 30410.44240122347, 5499.80318543949, -74434.50533562963, -68703.02631891088, -54301.68560763427, -55038.935546748115, -44881.92288660084, -56627.56343216461, 0.03, 0.85, 0.56, 192.0, 0.0, 240.0, 26.0, 144.0, 17.0, 128.0, 0.0, 0.0, 0.0, 1.6541612094025087E9, 0.0, 2022-06-02 11:13:29.402
97.0, 30416.276206526305, 5507.402778554294, -74412.73473653015, -68686.50837975841, -54279.82560155697, -55030.12895943272, -44869.987055061705, -56617.79571983764, 0.03, 0.85, 0.56, 192.0, 0.0, 0.0, 0.0, 0.0, 0.0, 0.0, 0.0, 0.0, 0.0, 1.6541612094025128E9, 0.0, 2022-06-02 11:13:29.402
98.0, 30407.179046532998, 5500.18316509523, -74415.81927726499, -68665.67655392607, -54288.18515398326, -55022.149386662175, -44873.87625859693, -56600.71898707378, 0.03, 0.85, 0.56, 192.0, 0.0, 0.0, 0.0, 0.0, 0.0, 0.0, 0.0, 0.0, 0.0, 1.6541612094025168E9, 0.0, 2022-06-02 11:13:29.402
99.0, 30414.890398370077, 5510.1296913778415, -74422.27893141257, -68669.63281269465, -54283.625398114375, -55009.67711325611, -44856.37484268843, -56562.8998354554, 0.03, 0.85, 0.56, 192.0, 0.0, 0.0, 0.0, 0.0, 0.0, 0.0, 0.0, 0.0, 0.0, 1.654161209402521E9, 0.0, 2022-06-02 11:13:29.402
100.0, 30435.16343059104, 5527.564052052981, -74417.20508542121, -68670.79510340633, -54268.113287462395, -55019.60128779427, -44839.81220004705, -56593.54407710363, 0.03, 0.85, 0.56, 192.0, 0.0, 0.0, 0.0, 0.0, 0.0, 0.0, 0.0, 0.0, 0.0, 1.6541612094025247E9, 0.0, 2022-06-02 11:13:29.402
101.0, 30430.469564255425, 5521.1043979053975, -74413.07001269699, -68662.54730970232, -54276.22697069967, -55036.23098566902, -44876.0443778091, -56625.931754819365, 0.03, 0.85, 0.56, 192.0, 0.0, 0.0, 0.0, 0.0, 0.0, 0.0, 0.0, 0.0, 0.0, 1.6541612094025288E9, 0.0, 2022-06-02 11:13:29.402
102.0, 30437.577418992212, 5527.0946654194195, -74386.3596780729, -68636.3957686896, -54247.32616511895, -55026.619735553235, -44858.252389222675, -56633.6654584009, 0.03, 0.85, 0.56, 192.0, 0.0, 0.0, 0.0, 0.0, 0.0, 0.0, 0.0, 0.0, 0.0, 1.6541612094025345E9, 0.0, 2022-06-02 11:13:29.402
103.0, 30441.35486380516, 5532.794360255523, -74369.43940752023, -68614.58046610124, -54231.00939166658, -54992.376863047706, -44864.466174181245, -56589.69957705731, 0.03, 0.85, 0.56, 192.0, 0.0, 0.0, 0.0, 0.0, 0.0, 0.0, 0.0, 0.0, 0.0, 1.6541612094025388E9, 0.0, 2022-06-02 11:13:29.402
104.0, 30433.777622434813, 5523.607793284392, -74383.63276524935, -68620.36956791516, -54231.38937132232, -54972.796734904856, -44802.797711229054, -56508.205116773264, 0.03, 0.85, 0.56, 192.0, 0.0, 0.0, 0.0, 0.0, 0.0, 0.0, 0.0, 0.0, 0.0, 1.6541612094025426E9, 0.0, 2022-06-02 11:13:29.402
105.0, 30438.337378303695, 5531.252089888107, -74397.73671600065, -68624.70580633948, -54254.14344717783, -54982.6762059541, -44806.32928685299, -56541.73273345623, 0.03, 0.85, 0.56, 192.0, 0.0, 0.0, 0.0, 0.0, 0.0, 0.0, 0.0, 0.0, 0.0, 1.6541612094025466E9, 0.0, 2022-06-02 11:13:29.402
106.0, 30442.293637072282, 5549.692279063735, -74379.94472741423, -68605.0362712188, -54237.4019905808, -54984.59845597726, -44870.43408995082, -56564.88914071192, -0.004, 0.894, 0.59, 192.0, 255.0, 224.0, 27.0, 240.0, 18.0, 112.0, 0.0, 0.0, 0.0, 1.6541612094025505E9, 0.0, 2022-06-02 11:13:29.402
107.0, 30440.59490449368, 5557.8506657899225, -74349.7475206551, -68580.27053836234, -54215.20670833668, -54956.368202730206, -44866.81310734905, -56560.46349530977, -0.004, 0.894, 0.59, 192.0, 0.0, 0.0, 0.0, 0.0, 0.0, 0.0, 0.0, 0.0, 0.0, 1.6541612094025564E9, 0.0, 2022-06-02 11:13:29.402
108.0, 30450.228506353917, 5569.1159449953975, -74329.34037796741, -68552.48732000438, -54189.70336791317, -54920.963039513, -44801.00957167263, -56530.0427711061, -0.004, 0.894, 0.59, 192.0, 0.0, 0.0, 0.0, 0.0, 0.0, 0.0, 0.0, 0.0, 0.0, 1.6541612094025605E9, 0.0, 2022-06-02 11:13:29.402
109.0, 30449.759119720355, 5568.735965339657, -74352.38502650082, -68558.49993926287, -54212.3456850464, -54920.1136732237, -44852.73150834221, -56544.59375674651, -0.004, 0.894, 0.59, 192.0, 0.0, 0.0, 0.0, 0.0, 0.0, 0.0, 0.0, 0.0, 0.0, 1.6541612094025643E9, 0.0, 2022-06-02 11:13:29.402
110.0, 30448.30625633076, 5568.0654130059975, -74365.46079700718, -68570.72634347992, -54228.28247884304, -54929.30024019483, -44857.87240956693, -56557.82598946405, -0.004, 0.894, 0.59, 192.0, 0.0, 0.0, 0.0, 0.0, 0.0, 0.0, 0.0, 0.0, 0.0, 1.6541612094025683E9, 0.0, 2022-06-02 11:13:29.402
111.0, 30446.07108188523, 5571.8652095634, -74350.44042473321, -68561.60683174215, -54203.87437389784, -54932.89887105214, -44782.92701040829, -56520.43152099032, -0.004, 0.894, 0.59, 192.0, 0.0, 0.0, 0.0, 0.0, 0.0, 0.0, 0.0, 0.0, 0.0, 1.6541612094025724E9, 0.0, 2022-06-02 11:13:29.402
112.0, 30451.770776721332, 5572.9157415528, -74326.52405816603, -68543.50191873335, -54173.83362934991, -54926.081588993264, -44763.74921366564, -56520.9903146017, -0.004, 0.894, 0.59, 192.0, 0.0, 0.0, 0.0, 0.0, 0.0, 0.0, 0.0, 0.0, 0.0, 1.6541612094025764E9, 0.0, 2022-06-02 11:13:29.402
113.0, 30452.12840463262, 5566.567846127492, -74329.63095064533, -68552.26380255983, -54172.78309736051, -54935.64813562014, -44799.13202513839, -56556.82016096356, -0.004, 0.894, 0.59, 192.0, 0.0, 0.0, 0.0, 0.0, 0.0, 0.0, 0.0, 0.0, 0.0, 1.6541612094025805E9, 0.0, 2022-06-02 11:13:29.402
114.0, 30468.445178084992, 5575.48619216516, -74340.20332577269, -68556.73415145089, -54175.04062355049, -54925.34398142624, -44821.39436261587, -56578.79192576312, -0.004, 0.894, 0.59, 192.0, 0.0, 0.0, 0.0, 0.0, 0.0, 0.0, 0.0, 0.0, 0.0, 1.6541612094025843E9, 0.0, 2022-06-02 11:13:29.402
115.0, 30473.049637442786, 5565.67377634928, -74362.55507022799, -68558.4328840295, -54199.64989419578, -54932.00480127392, -44850.49633389668, -56570.52178031466, -0.004, 0.894, 0.59, 192.0, 0.0, 0.0, 0.0, 0.0, 0.0, 0.0, 0.0, 0.0, 0.0, 1.6541612094025884E9, 0.0, 2022-06-02 11:13:29.402
116.0, 30482.526777091836, 5570.345290940439, -74348.51817471006, -68541.73613092139, -54192.743205159095, -54914.63749583215, -44822.89192949438, -56504.62883766041, -0.016, 0.866, 0.604, 192.0, 255.0, 128.0, 27.0, 16.0, 18.0, 224.0, 0.0, 0.0, 0.0, 1.6541612094025927E9, 0.0, 2022-06-02 11:13:29.402
117.0, 30502.285719190328, 5589.701901638735, -74318.43272667321, -68507.62736888259, -54166.52460891302, -54893.24687638842, -44774.43334751527, -56468.19549419827, -0.016, 0.866, 0.604, 192.0, 0.0, 0.0, 0.0, 0.0, 0.0, 0.0, 0.0, 0.0, 0.0, 1.6541612094025967E9, 0.0, 2022-06-02 11:13:29.402
118.0, 30532.885257349644, 5614.601744961947, -74288.34727863637, -68476.22316792289, -54127.587870071875, -54872.34799532271, -44681.517145814556, -56434.533767048575, -0.016, 0.866, 0.604, 192.0, 0.0, 0.0, 0.0, 0.0, 0.0, 0.0, 0.0, 0.0, 0.0, 1.6541612094026012E9, 0.0, 2022-06-02 11:13:29.402
119.0, 30550.341969769237, 5622.201338076751, -74287.47556060262, -68483.62159533758, -54107.583058784374, -54869.30815807678, -44698.81739602297, -56460.61825282792, -0.016, 0.866, 0.604, 192.0, 0.0, 0.0, 0.0, 0.0, 0.0, 0.0, 0.0, 0.0, 0.0, 1.6541612094026058E9, 0.0, 2022-06-02 11:13:29.402
120.0, 30556.555754727815, 5615.831090906989, -74307.32390967893, -68505.66041537051, -54125.44210260417, -54879.612312270685, -44777.853164416934, -56509.52386969613, -0.016, 0.866, 0.604, 192.0, 0.0, 0.0, 0.0, 0.0, 0.0, 0.0, 0.0, 0.0, 0.0, 1.65416120940261E9, 0.0, 2022-06-02 11:13:29.402
121.0, 30568.849214178234, 5624.1235880999075, -74302.18300845422, -68495.44566815444, -54137.84732077686, -54899.10303343571, -44805.39051358587, -56511.66963716384, -0.016, 0.866, 0.604, 192.0, 0.0, 0.0, 0.0, 0.0, 0.0, 0.0, 0.0, 0.0, 0.0, 1.6541612098812585E9, 0.0, 2022-06-02 11:13:29.881
122.0, 30583.310792840817, 5635.075942883008, -74275.67383953021, -68468.69063004144, -54113.7744919985, -54894.38681535564, -44783.642266230854, -56470.2295029437, -0.016, 0.866, 0.604, 192.0, 0.0, 0.0, 0.0, 0.0, 0.0, 0.0, 0.0, 0.0, 0.0, 1.6541612098814049E9, 0.0, 2022-06-02 11:13:29.881
123.0, 30597.392391847658, 5647.570568033525, -74256.33958057637, -68453.78201648976, -54082.72791895008, -54879.85818145969, -44749.77937338107, -56448.07892418849, -0.016, 0.866, 0.604, 192.0, 0.0, 0.0, 0.0, 0.0, 0.0, 0.0, 0.0, 0.0, 0.0, 1.6541612098814318E9, 0.0, 2022-06-02 11:13:29.881
124.0, 30598.308813370328, 5649.559873290047, -74270.35412434985, -68462.99093520534, -54083.42082302819, -54888.59771354171, -44762.51986772059, -56458.83011327149, -0.016, 0.866, 0.604, 192.0, 0.0, 0.0, 0.0, 0.0, 0.0, 0.0, 0.0, 0.0, 0.0, 1.6541612098814445E9, 0.0, 2022-06-02 11:13:29.881
125.0, 30602.06390643882, 5652.934986702799, -74279.6300982988, -68464.53320557275, -54079.911599148705, -54892.93395196604, -44731.4062394388, -56456.907863248336, -0.016, 0.866, 0.604, 192.0, 0.0, 0.0, 0.0, 0.0, 0.0, 0.0, 0.0, 0.0, 0.0, 1.6541612098814561E9, 0.0, 2022-06-02 11:13:29.881
126.0, 30593.19026389006, 5648.710507000746, -74271.85169122835, -68468.7576852748, -54072.33435777836, -54909.27307716288, -44695.03995121002, -56449.93411897828, -0.05, 0.8320000000000001, 0.604, 192.0, 254.0, 112.0, 26.0, 0.0, 18.0, 224.0, 0.0, 0.0, 0.0, 1.6541612098814678E9, 0.0, 2022-06-02 11:13:29.881
127.0, 30584.026048663385, 5642.87670169791, -74263.35802833534, -68461.89569972703, -54064.89122687474, -54908.334303895754, -44694.57056457646, -56441.90984271882, -0.05, 0.8320000000000001, 0.604, 192.0, 0.0, 0.0, 0.0, 0.0, 0.0, 0.0, 0.0, 0.0, 0.0, 1.6541612098814871E9, 0.0, 2022-06-02 11:13:29.881
128.0, 30566.68109496607, 5626.045838123065, -74264.43091206919, -68466.56721431819, -54072.46846824509, -54914.6598475766, -44711.82611129595, -56454.82915101399, -0.05, 0.8320000000000001, 0.604, 192.0, 0.0, 0.0, 0.0, 0.0, 0.0, 0.0, 0.0, 0.0, 0.0, 1.6541612098815773E9, 0.0, 2022-06-02 11:13:29.881
129.0, 30557.718045439487, 5619.049742108553, -74284.94981347916, -68489.79067680726, -54077.85523865882, -54926.59567911574, -44733.462599928695, -56495.39756720037, -0.05, 0.8320000000000001, 0.604, 192.0, 0.0, 0.0, 0.0, 0.0, 0.0, 0.0, 0.0, 0.0, 0.0, 1.654161209881596E9, 0.0, 2022-06-02 11:13:29.881
130.0, 30545.46928947798, 5606.175137302296, -74311.41427891425, -68516.7245288759, -54106.30900935042, -54950.10971428272, -44798.05914140453, -56537.374143287445, -0.05, 0.8320000000000001, 0.604, 192.0, 0.0, 0.0, 0.0, 0.0, 0.0, 0.0, 0.0, 0.0, 0.0, 1.6541612098816104E9, 0.0, 2022-06-02 11:13:29.881
131.0, 30545.871620878177, 5608.767939659112, -74299.00906074156, -68508.78965959426, -54099.961113925114, -54954.691821896056, -44792.09122563496, -56542.55974800107, -0.05, 0.8320000000000001, 0.604, 192.0, 0.0, 0.0, 0.0, 0.0, 0.0, 0.0, 0.0, 0.0, 0.0, 1.6541612098816311E9, 0.0, 2022-06-02 11:13:29.881
132.0, 30534.449879461514, 5603.761148901123, -74288.74961003657, -68500.43010716798, -54085.45483177362, -54948.79096135986, -44782.52467900809, -56548.415905048365, -0.05, 0.8320000000000001, 0.604, 192.0, 0.0, 0.0, 0.0, 0.0, 0.0, 0.0, 0.0, 0.0, 0.0, 1.6541612098816483E9, 0.0, 2022-06-02 11:13:29.881
133.0, 30526.291492735327, 5604.945791357254, -74286.64854605777, -68492.02585125278, -54088.94170390865, -54926.28275469336, -44750.29346350354, -56493.83294508851, -0.05, 0.8320000000000001, 0.604, 192.0, 0.0, 0.0, 0.0, 0.0, 0.0, 0.0, 0.0, 0.0, 0.0, 1.6541612098816812E9, 0.0, 2022-06-02 11:13:29.881
134.0, 30522.871675833667, 5605.750454157645, -74300.66308983124, -68499.84896181214, -54103.068006404406, -54900.9582282255, -44762.34105376495, -56446.96133696572, -0.05, 0.8320000000000001, 0.604, 192.0, 0.0, 0.0, 0.0, 0.0, 0.0, 0.0, 0.0, 0.0, 0.0, 1.654161209881705E9, 0.0, 2022-06-02 11:13:29.881
135.0, 30519.38480369864, 5599.693131410258, -74330.59207565691, -68529.15209879304, -54120.61412580182, -54932.1165599962, -44814.82294974601, -56523.583116958514, -0.05, 0.8320000000000001, 0.604, 192.0, 0.0, 0.0, 0.0, 0.0, 0.0, 0.0, 0.0, 0.0, 0.0, 1.6541612098817232E9, 0.0, 2022-06-02 11:13:29.881
136.0, 30520.48003917695, 5598.620247676403, -74321.71843310815, -68520.07729054418, -54113.93095420968, -54930.507234395416, -44755.680233917265, -56487.75327059666, -0.07200000000000001, 0.802, 0.608, 192.0, 253.0, 192.0, 25.0, 16.0, 19.0, 0.0, 0.0, 0.0, 0.0, 1.654161209881739E9, 0.0, 2022-06-02 11:13:29.881
137.0, 30515.115620507673, 5592.58527667347, -74301.55715960947, -68505.34749094814, -54111.80753848643, -54922.68412383606, -44742.962091322195, -56436.45601707173, -0.07200000000000001, 0.802, 0.608, 192.0, 0.0, 0.0, 0.0, 0.0, 0.0, 0.0, 0.0, 0.0, 0.0, 1.654161209881755E9, 0.0, 2022-06-02 11:13:29.881
138.0, 30513.014556528877, 5596.161555786319, -74301.7359735651, -68499.84896181214, -54107.56070703992, -54910.658885319106, -44775.08154810448, -56436.5230723051, -0.07200000000000001, 0.802, 0.608, 192.0, 0.0, 0.0, 0.0, 0.0, 0.0, 0.0, 0.0, 0.0, 0.0, 1.6541612098817716E9, 0.0, 2022-06-02 11:13:29.881
139.0, 30496.451913887493, 5585.991512059154, -74329.42978494523, -68526.60399992514, -54120.07768393489, -54927.19917621603, -44807.02219093111, -56497.47627943472, -0.07200000000000001, 0.802, 0.608, 192.0, 0.0, 0.0, 0.0, 0.0, 0.0, 0.0, 0.0, 0.0, 0.0, 1.65416120988179E9, 0.0, 2022-06-02 11:13:29.881
140.0, 30481.275079402338, 5561.851628047422, -74358.10707308138, -68560.71276196394, -54145.849245291865, -54968.7734209029, -44813.77241775661, -56567.45959132428, -0.07200000000000001, 0.802, 0.608, 192.0, 0.0, 0.0, 0.0, 0.0, 0.0, 0.0, 0.0, 0.0, 0.0, 1.6541612098818078E9, 0.0, 2022-06-02 11:13:29.881
141.0, 30484.784303281824, 5558.342404167939, -74351.46860497816, -68560.46689277493, -54155.01346051854, -54992.04158688088, -44855.726642099224, -56578.52370482966, -0.07200000000000001, 0.802, 0.608, 192.0, 0.0, 0.0, 0.0, 0.0, 0.0, 0.0, 0.0, 0.0, 0.0, 1.654161209881836E9, 0.0, 2022-06-02 11:13:29.881
142.0, 30465.025361183332, 5543.8584737609, -74345.59009618641, -68558.63404972959, -54156.68984135269, -54988.26414206793, -44853.44676416478, -56550.2487480937, -0.07200000000000001, 0.802, 0.608, 192.0, 0.0, 0.0, 0.0, 0.0, 0.0, 0.0, 0.0, 0.0, 0.0, 1.6541612098818543E9, 0.0, 2022-06-02 11:13:29.881
143.0, 30468.02049494034, 5550.184017441752, -74332.11199427987, -68541.8255378992, -54136.685030065186, -54953.015441061914, -44807.133949653384, -56527.80759666057, -0.07200000000000001, 0.802, 0.608, 192.0, 0.0, 0.0, 0.0, 0.0, 0.0, 0.0, 0.0, 0.0, 0.0, 1.654161209881874E9, 0.0, 2022-06-02 11:13:29.881
144.0, 30454.40828256706, 5530.067447431976, -74368.70179995321, -68584.40561108656, -54158.142704742284, -54994.254409581954, -44847.478848395214, -56602.0600917411, -0.07200000000000001, 0.802, 0.608, 192.0, 0.0, 0.0, 0.0, 0.0, 0.0, 0.0, 0.0, 0.0, 0.0, 1.6541612098819058E9, 0.0, 2022-06-02 11:13:29.881
145.0, 30439.320855059726, 5507.268668087562, -74412.3100533855, -68626.60570461818, -54188.42931847922, -55045.59636659579, -44893.50109022869, -56645.91421436241, -0.07200000000000001, 0.802, 0.608, 192.0, 0.0, 0.0, 0.0, 0.0, 0.0, 0.0, 0.0, 0.0, 0.0, 1.6541612098819292E9, 0.0, 2022-06-02 11:13:29.881
146.0, 30423.384061263096, 5488.269685300552, -74421.20604767872, -68637.49100416792, -54198.77817616203, -55064.39418368271, -44888.91898261535, -56640.84036837106, -0.07, 0.768, 0.61, 192.0, 253.0, 208.0, 24.0, 0.0, 19.0, 16.0, 0.0, 0.0, 0.0, 1.6541612098819392E9, 0.0, 2022-06-02 11:13:29.881
147.0, 30407.53667444428, 5467.41550772375, -74418.814411022, -68638.0945012682, -54217.084254870926, -55059.968538280555, -44890.349494260496, -56608.117414488486, -0.07, 0.768, 0.61, 192.0, 0.0, 0.0, 0.0, 0.0, 0.0, 0.0, 0.0, 0.0, 0.0, 1.6541612098819592E9, 0.0, 2022-06-02 11:13:29.881
148.0, 30392.136322514576, 5451.74693486058, -74427.46453612621, -68644.5541554158, -54227.45546429819, -55057.37573592374, -44890.3941977494, -56588.1573066899, -0.07, 0.768, 0.61, 192.0, 0.0, 0.0, 0.0, 0.0, 0.0, 0.0, 0.0, 0.0, 0.0, 1.6541612098819757E9, 0.0, 2022-06-02 11:13:29.881
149.0, 30391.644584136557, 5456.50785642956, -74437.85809729793, -68653.38309447565, -54233.13280738983, -55067.031689528434, -44903.55937523358, -56632.63727815596, -0.07, 0.768, 0.61, 192.0, 0.0, 0.0, 0.0, 0.0, 0.0, 0.0, 0.0, 0.0, 0.0, 1.6541612098819945E9, 0.0, 2022-06-02 11:13:29.881
150.0, 30380.803988075735, 5443.499141156572, -74465.28368774458, -68680.92044364459, -54260.133714691845, -55102.23568704554, -44970.34638766604, -56692.98698818529, -0.07, 0.768, 0.61, 192.0, 0.0, 0.0, 0.0, 0.0, 0.0, 0.0, 0.0, 0.0, 0.0, 1.654161209882036E9, 0.0, 2022-06-02 11:13:29.882
151.0, 30372.377380416085, 5434.960774774644, -74473.5761849375, -68686.48602801395, -54276.003453255114, -55132.27643159348, -44994.083940277575, -56724.12296821153, -0.07, 0.768, 0.61, 192.0, 0.0, 0.0, 0.0, 0.0, 0.0, 0.0, 0.0, 0.0, 0.0, 1.6541612098820512E9, 0.0, 2022-06-02 11:13:29.882
152.0, 30356.909973253012, 5417.660524566237, -74475.2302140272, -68690.12936236017, -54270.72844156366, -55141.77592298698, -44977.163669724905, -56704.11815692403, -0.07, 0.768, 0.61, 192.0, 0.0, 0.0, 0.0, 0.0, 0.0, 0.0, 0.0, 0.0, 0.0, 1.6541612098820677E9, 0.0, 2022-06-02 11:13:29.882
153.0, 30343.700092279923, 5405.411768604728, -74479.2311762847, -68692.61040599471, -54287.69341560524, -55132.38819031575, -44981.924591293886, -56698.91020046594, -0.07, 0.768, 0.61, 192.0, 0.0, 0.0, 0.0, 0.0, 0.0, 0.0, 0.0, 0.0, 0.0, 1.6541612098820903E9, 0.0, 2022-06-02 11:13:29.882
154.0, 30344.750624269323, 5407.781053516991, -74483.58976645349, -68692.07396412778, -54284.117136492394, -55104.6049719578, -44942.02672744116, -56644.1707782949, -0.07, 0.768, 0.61, 192.0, 0.0, 0.0, 0.0, 0.0, 0.0, 0.0, 0.0, 0.0, 0.0, 1.6541612098821044E9, 0.0, 2022-06-02 11:13:29.882
155.0, 30344.504755080314, 5404.718864526613, -74502.49934226267, -68709.24010386945, -54302.646732645844, -55123.24632683353, -44990.172384997895, -56666.67898496139, -0.07, 0.768, 0.61, 192.0, 0.0, 0.0, 0.0, 0.0, 0.0, 0.0, 0.0, 0.0, 0.0, 1.6541612098821185E9, 0.0, 2022-06-02 11:13:29.882
156.0, 30337.598066043625, 5394.25824812153, -74504.30983356356, -68719.03016794087, -54309.46401470471, -55146.69330676715, -44979.130623236975, -56703.067624934636, -0.076, 0.756, 0.608, 192.0, 253.0, 160.0, 23.0, 160.0, 19.0, 0.0, 0.0, 0.0, 0.0, 1.6541612098821335E9, 0.0, 2022-06-02 11:13:29.882
157.0, 30325.416365315483, 5386.546896284449, -74497.42549627132, -68716.1244411617, -54313.30851475102, -55151.45422833613, -45022.64946969145, -56736.37172417304, -0.076, 0.756, 0.608, 192.0, 0.0, 0.0, 0.0, 0.0, 0.0, 0.0, 0.0, 0.0, 0.0, 1.6541612098821483E9, 0.0, 2022-06-02 11:13:29.882
158.0, 30289.85473988709, 5360.194189571642, -74512.02118540063, -68730.85424075773, -54328.03831434707, -55153.91292022621, -45030.02554536171, -56722.2901251662, -0.076, 0.756, 0.608, 192.0, 0.0, 0.0, 0.0, 0.0, 0.0, 0.0, 0.0, 0.0, 0.0, 1.654161209882172E9, 0.0, 2022-06-02 11:13:29.882
159.0, 30293.989812611322, 5372.06296587741, -74511.10476387797, -68727.68029304508, -54317.17536654179, -55132.678762993666, -45003.06934154861, -56713.41648261744, -0.076, 0.756, 0.608, 192.0, 0.0, 0.0, 0.0, 0.0, 0.0, 0.0, 0.0, 0.0, 0.0, 1.6541612098821883E9, 0.0, 2022-06-02 11:13:29.882
160.0, 30289.76533290927, 5367.190285586154, -74529.43319433132, -68754.54708988036, -54329.066494592014, -55146.15686490022, -45014.066399820615, -56736.30466893967, -0.076, 0.756, 0.608, 192.0, 0.0, 0.0, 0.0, 0.0, 0.0, 0.0, 0.0, 0.0, 0.0, 1.6541612098821993E9, 0.0, 2022-06-02 11:13:29.882
161.0, 30284.736190406824, 5359.255416304519, -74529.12026990895, -68765.94647955257, -54339.66122146383, -55173.62715883579, -45024.3258505256, -56783.869181140566, -0.076, 0.756, 0.608, 192.0, 0.0, 0.0, 0.0, 0.0, 0.0, 0.0, 0.0, 0.0, 0.0, 1.6541612098822217E9, 0.0, 2022-06-02 11:13:29.882
162.0, 30282.836292128122, 5360.529465738472, -74508.95899641025, -68755.9328980366, -54320.14814855435, -55170.05087972294, -44999.29189673566, -56798.263704569785, -0.076, 0.756, 0.608, 192.0, 0.0, 0.0, 0.0, 0.0, 0.0, 0.0, 0.0, 0.0, 0.0, 1.6541612098822353E9, 0.0, 2022-06-02 11:13:29.882
163.0, 30267.815919854158, 5352.974576112578, -74517.36325232545, -68758.65981086013, -54330.608764959434, -55168.03922272196, -45042.09548736757, -56809.0595971417, -0.076, 0.756, 0.608, 192.0, 0.0, 0.0, 0.0, 0.0, 0.0, 0.0, 0.0, 0.0, 0.0, 1.654161209882252E9, 0.0, 2022-06-02 11:13:29.882
164.0, 30271.258088500275, 5357.735497681559, -74523.08529890601, -68753.69772359106, -54321.869232877405, -55119.401826787216, -45009.19371952936, -56713.952924484365, -0.076, 0.756, 0.608, 192.0, 0.0, 0.0, 0.0, 0.0, 0.0, 0.0, 0.0, 0.0, 0.0, 1.6541612098822646E9, 0.0, 2022-06-02 11:13:29.882
165.0, 30280.75757989378, 5361.557645983416, -74536.45164209028, -68760.60441262776, -54352.87110243692, -55107.935381881645, -45067.37531034653, -56689.343653839074, -0.076, 0.756, 0.608, 192.0, 0.0, 0.0, 0.0, 0.0, 0.0, 0.0, 0.0, 0.0, 0.0, 1.6541612098822732E9, 0.0, 2022-06-02 11:13:29.882
166.0, 30277.114245547564, 5348.191302799142, -74542.93364798233, -68770.66269763264, -54365.56689328753, -55141.351239842326, -45105.28386894272, -56734.04714274969, -0.064, 0.808, 0.62, 192.0, 254.0, 0.0, 25.0, 64.0, 19.0, 96.0, 0.0, 0.0, 0.0, 1.6541612098822818E9, 0.0, 2022-06-02 11:13:29.882
167.0, 30255.03072202572, 5328.946450823123, -74535.37875835643, -68774.03781104539, -54342.38813428738, -55158.42797260618, -44996.36381821201, -56720.524337354225, -0.064, 0.808, 0.62, 192.0, 0.0, 0.0, 0.0, 0.0, 0.0, 0.0, 0.0, 0.0, 0.0, 1.6541612098822985E9, 0.0, 2022-06-02 11:13:29.882
168.0, 30241.105585230063, 5322.263279230986, -74533.94824671128, -68773.21079650054, -54332.75453242714, -55156.88570223877, -44979.17532672588, -56719.74202629829, -0.064, 0.808, 0.62, 192.0, 0.0, 0.0, 0.0, 0.0, 0.0, 0.0, 0.0, 0.0, 0.0, 1.654161209882312E9, 0.0, 2022-06-02 11:13:29.882
169.0, 30243.430166653416, 5326.644221144226, -74545.77231952814, -68780.20689251505, -54345.18210234429, -55149.37551610178, -45014.826359132094, -56732.79544506019, -0.064, 0.808, 0.62, 192.0, 0.0, 0.0, 0.0, 0.0, 0.0, 0.0, 0.0, 0.0, 0.0, 1.654161209882325E9, 0.0, 2022-06-02 11:13:29.882
170.0, 30249.643951611994, 5329.8628723457905, -74559.83156679054, -68788.40998273015, -54363.37642233091, -55151.49893182504, -45039.14505709947, -56765.18312277593, -0.064, 0.808, 0.62, 192.0, 0.0, 0.0, 0.0, 0.0, 0.0, 0.0, 0.0, 0.0, 0.0, 1.654161209882338E9, 0.0, 2022-06-02 11:13:29.882
171.0, 30251.74501559079, 5331.315735735386, -74556.7023225668, -68783.26908150544, -54368.27145436662, -55156.43866734966, -45048.42103104843, -56766.23365476533, -0.064, 0.808, 0.62, 192.0, 0.0, 0.0, 0.0, 0.0, 0.0, 0.0, 0.0, 0.0, 0.0, 1.6541612098823638E9, 0.0, 2022-06-02 11:13:29.882
172.0, 30237.0375677392, 5319.111683262788, -74553.03663647611, -68780.87744484871, -54368.1820473888, -55166.31813839891, -45051.34910957207, -56763.12676228604, -0.064, 0.808, 0.62, 192.0, 0.0, 0.0, 0.0, 0.0, 0.0, 0.0, 0.0, 0.0, 0.0, 1.6541612098823795E9, 0.0, 2022-06-02 11:13:29.882
173.0, 30235.1376694605, 5316.317715205874, -74546.95696198428, -68774.77541861242, -54365.90216945436, -55161.49016159656, -45079.6911215414, -56769.65347166699, -0.064, 0.808, 0.62, 192.0, 0.0, 0.0, 0.0, 0.0, 0.0, 0.0, 0.0, 0.0, 0.0, 1.6541612098823893E9, 0.0, 2022-06-02 11:13:29.882
174.0, 30238.490431128794, 5315.781273338946, -74558.62457258995, -68781.36918322674, -54379.961416716746, -55157.19862666114, -45121.06420052817, -56801.348245304616, -0.064, 0.808, 0.62, 192.0, 0.0, 0.0, 0.0, 0.0, 0.0, 0.0, 0.0, 0.0, 0.0, 1.654161209882402E9, 0.0, 2022-06-02 11:13:29.882
175.0, 30246.89468704399, 5319.111683262788, -74562.71494182527, -68788.81231413035, -54380.98959696169, -55166.094620954354, -45095.00206649328, -56814.37931232206, -0.064, 0.808, 0.62, 192.0, 0.0, 0.0, 0.0, 0.0, 0.0, 0.0, 0.0, 0.0, 0.0, 1.6541612098824117E9, 0.0, 2022-06-02 11:13:29.882
176.0, 30247.811108566657, 5315.8930320612235, -74551.6955318088, -68785.28073850641, -54367.7797159886, -55176.845810037354, -45064.02254867823, -56792.8545824116, -0.064, 0.8280000000000001, 0.626, 192.0, 254.0, 0.0, 25.0, 224.0, 19.0, 144.0, 0.0, 0.0, 0.0, 1.654161209882418E9, 0.0, 2022-06-02 11:13:29.882
177.0, 30237.305788672664, 5306.281781945441, -74539.53618282512, -68779.1340087812, -54352.87110243692, -55174.58828384737, -45037.40162103196, -56755.549520915694, -0.064, 0.8280000000000001, 0.626, 192.0, 0.0, 0.0, 0.0, 0.0, 0.0, 0.0, 0.0, 0.0, 0.0, 1.6541612098824253E9, 0.0, 2022-06-02 11:13:29.882
178.0, 30236.389367149994, 5309.500433147005, -74529.85787747597, -68773.233148245, -54335.81672141752, -55165.312309898414, -45020.25783303474, -56750.83330283562, -0.064, 0.8280000000000001, 0.626, 192.0, 0.0, 0.0, 0.0, 0.0, 0.0, 0.0, 0.0, 0.0, 0.0, 1.6541612098824375E9, 0.0, 2022-06-02 11:13:29.882
179.0, 30222.55363733216, 5298.950409764101, -74557.70815106729, -68806.38078527222, -54353.29578558157, -55192.939066045175, -45064.58134228961, -56818.69319900194, -0.064, 0.8280000000000001, 0.626, 192.0, 0.0, 0.0, 0.0, 0.0, 0.0, 0.0, 0.0, 0.0, 0.0, 1.6541612098824415E9, 0.0, 2022-06-02 11:13:29.882
180.0, 30220.229055908807, 5293.273066672453, -74584.64200313593, -68832.77819547393, -54382.21894290674, -55218.800034379965, -45114.4480841694, -56864.4248681575, -0.064, 0.8280000000000001, 0.626, 192.0, 0.0, 0.0, 0.0, 0.0, 0.0, 0.0, 0.0, 0.0, 0.0, 1.6541612098824472E9, 0.0, 2022-06-02 11:13:29.882
181.0, 30207.913244713935, 5285.09232820181, -74589.62644214946, -68837.00267517599, -54393.35011164548, -55221.30342975896, -45108.234299210824, -56827.79035899525, -0.064, 0.8280000000000001, 0.626, 192.0, 0.0, 0.0, 0.0, 0.0, 0.0, 0.0, 0.0, 0.0, 0.0, 1.654161209882452E9, 0.0, 2022-06-02 11:13:29.882
182.0, 30192.8258172066, 5272.284778628919, -74586.854825837, -68838.18731763212, -54389.59501857698, -55218.77768263551, -45086.53075534472, -56789.68063469895, -0.064, 0.8280000000000001, 0.626, 192.0, 0.0, 0.0, 0.0, 0.0, 0.0, 0.0, 0.0, 0.0, 0.0, 1.6541612098824584E9, 0.0, 2022-06-02 11:13:29.882
183.0, 30179.727694955793, 5263.634653524716, -74589.09000028254, -68842.16592814517, -54394.33358840151, -55225.05852282745, -45102.10992123007, -56804.11986161707, -0.064, 0.8280000000000001, 0.626, 192.0, 0.0, 0.0, 0.0, 0.0, 0.0, 0.0, 0.0, 0.0, 0.0, 1.6541612098824632E9, 0.0, 2022-06-02 11:13:29.882
184.0, 30165.24376454875, 5248.882502184213, -74619.64483495294, -68862.46131211058, -54417.8923270574, -55239.296584045485, -45143.12537230556, -56844.10713244762, -0.064, 0.8280000000000001, 0.626, 192.0, 0.0, 0.0, 0.0, 0.0, 0.0, 0.0, 0.0, 0.0, 0.0, 1.6541612098824687E9, 0.0, 2022-06-02 11:13:29.882
185.0, 30174.966773386812, 5252.458781297062, -74641.88482068597, -68878.3534024183, -54442.456894213785, -55263.950558179684, -45187.00184667133, -56889.90585683654, -0.066, 0.86, 0.636, 192.0, 253.0, 240.0, 26.0, 224.0, 19.0, 224.0, 0.0, 0.0, 0.0, 1.6541612098824747E9, 0.0, 2022-06-02 11:13:29.882
186.0, 30174.899718153447, 5257.644386010693, -74632.74295720375, -68869.05507672491, -54437.494806944705, -55255.65806098677, -45158.168096323985, -56831.45604508591, -0.066, 0.86, 0.636, 192.0, 0.0, 0.0, 0.0, 0.0, 0.0, 0.0, 0.0, 0.0, 0.0, 1.654161209882481E9, 0.0, 2022-06-02 11:13:29.882
187.0, 30164.863784893012, 5256.817371465847, -74631.37950079197, -68865.92583250116, -54433.516196431665, -55256.17215110924, -45146.612244440585, -56809.77485296427, -0.066, 0.86, 0.636, 192.0, 0.0, 0.0, 0.0, 0.0, 0.0, 0.0, 0.0, 0.0, 0.0, 1.654161209882486E9, 0.0, 2022-06-02 11:13:29.882
188.0, 30175.34675304255, 5265.981586692523, -74631.5136112587, -68863.46714061107, -54433.73971387622, -55260.687203489215, -45152.73662242134, -56827.49978631733, -0.066, 0.86, 0.636, 192.0, 0.0, 0.0, 0.0, 0.0, 0.0, 0.0, 0.0, 0.0, 0.0, 1.65416120988249E9, 0.0, 2022-06-02 11:13:29.882
189.0, 30171.368142529507, 5264.014633180455, -74636.45334678332, -68858.39329461972, -54429.76110336317, -55249.913662661755, -45157.31873003468, -56843.74950453633, -0.066, 0.86, 0.636, 192.0, 0.0, 0.0, 0.0, 0.0, 0.0, 0.0, 0.0, 0.0, 0.0, 1.654161209882496E9, 0.0, 2022-06-02 11:13:29.882
190.0, 30137.549953168626, 5232.901004898668, -74671.34441987806, -68883.78487632095, -54455.197388553315, -55278.63565428682, -45185.19135537045, -56878.171190997506, -0.066, 0.86, 0.636, 192.0, 0.0, 0.0, 0.0, 0.0, 0.0, 0.0, 0.0, 0.0, 0.0, 1.6541612098825004E9, 0.0, 2022-06-02 11:13:29.882
191.0, 30130.710319365302, 5232.811597920847, -74673.8254635126, -68882.22025420908, -54451.84462688502, -55297.299360907, -45152.89308463253, -56885.659025390036, -0.066, 0.86, 0.636, 192.0, 0.0, 0.0, 0.0, 0.0, 0.0, 0.0, 0.0, 0.0, 0.0, 1.6541612098825052E9, 0.0, 2022-06-02 11:13:29.882
192.0, 30127.938703052845, 5232.342211287286, -74656.92754470439, -68862.72953304405, -54432.08568478652, -55288.35866312488, -45127.07681978665, -56867.554112381236, -0.066, 0.86, 0.636, 192.0, 0.0, 0.0, 0.0, 0.0, 0.0, 0.0, 0.0, 0.0, 0.0, 1.6541612098825214E9, 0.0, 2022-06-02 11:13:29.882
193.0, 30115.15350522441, 5221.300449526364, -74658.08983541606, -68862.26014641048, -54430.722228374754, -55278.926226964744, -45128.97671806535, -56847.8175220272, -0.066, 0.86, 0.636, 192.0, 0.0, 0.0, 0.0, 0.0, 0.0, 0.0, 0.0, 0.0, 0.0, 1.654161209882527E9, 0.0, 2022-06-02 11:13:29.882
194.0, 30122.14960123892, 5229.257670552453, -74672.68552454538, -68865.27763191196, -54434.45496969879, -55266.43160181423, -45143.326538005655, -56838.72036203389, -0.066, 0.86, 0.636, 192.0, 0.0, 0.0, 0.0, 0.0, 0.0, 0.0, 0.0, 0.0, 0.0, 1.6541612098825338E9, 0.0, 2022-06-02 11:13:29.882
195.0, 30123.647168117426, 5223.535623971895, -74701.67573710391, -68890.24453046854, -54458.66190894388, -55293.09723294941, -45181.2127448574, -56877.2771212193, -0.07200000000000001, 0.844, 0.62, 192.0, 253.0, 192.0, 26.0, 96.0, 19.0, 96.0, 0.0, 0.0, 0.0, 1.6541612098825412E9, 0.0, 2022-06-02 11:13:29.882
196.0, 30117.433383158852, 5218.8641093807355, -74703.4862284048, -68892.25618746951, -54477.705595219806, -55311.24684944712, -45197.797739243244, -56880.763993354325, -0.07200000000000001, 0.844, 0.62, 192.0, 0.0, 0.0, 0.0, 0.0, 0.0, 0.0, 0.0, 0.0, 0.0, 1.6541612098825474E9, 0.0, 2022-06-02 11:13:29.882
197.0, 30119.57915062656, 5226.217833306531, -74686.78947529668, -68873.34661166032, -54470.06129861609, -55300.49566036411, -45193.0144659298, -56875.60074038515, -0.07200000000000001, 0.844, 0.62, 192.0, 0.0, 0.0, 0.0, 0.0, 0.0, 0.0, 0.0, 0.0, 0.0, 1.6541612098825529E9, 0.0, 2022-06-02 11:13:29.882
198.0, 30104.29055741913, 5214.684333167593, -74693.4279433999, -68884.52248388798, -54478.73377546475, -55299.71334930818, -45212.415780117015, -56898.667740663026, -0.07200000000000001, 0.844, 0.62, 192.0, 0.0, 0.0, 0.0, 0.0, 0.0, 0.0, 0.0, 0.0, 0.0, 1.6541612098825572E9, 0.0, 2022-06-02 11:13:29.882
199.0, 30087.81732175557, 5202.323818483808, -74714.55034191017, -68909.22116151109, -54486.93686567985, -55300.69682606421, -45166.8629249171, -56878.41706018652, -0.07200000000000001, 0.844, 0.62, 192.0, 0.0, 0.0, 0.0, 0.0, 0.0, 0.0, 0.0, 0.0, 0.0, 1.654161209882563E9, 0.0, 2022-06-02 11:13:29.882
200.0, 30091.61711831297, 5205.453062707551, -74726.15089728248, -68924.30858901842, -54497.59864778503, -55306.061244733486, -45132.19536926691, -56851.79613254024, -0.07200000000000001, 0.844, 0.62, 192.0, 0.0, 0.0, 0.0, 0.0, 0.0, 0.0, 0.0, 0.0, 0.0, 1.6541612098825696E9, 0.0, 2022-06-02 11:13:29.882
201.0, 30086.76678976617, 5203.642571406672, -74725.81562111565, -68930.56707746591, -54516.75409278323, -55321.41689317428, -45152.80367765471, -56864.58133036868, -0.07200000000000001, 0.844, 0.62, 192.0, 0.0, 0.0, 0.0, 0.0, 0.0, 0.0, 0.0, 0.0, 0.0, 1.6541612098825772E9, 0.0, 2022-06-02 11:13:29.882
202.0, 30072.32756284804, 5192.667864879116, -74723.71455713685, -68930.0753390879, -54516.79879627214, -55327.96595429969, -45182.88912569155, -56886.351929468154, -0.07200000000000001, 0.844, 0.62, 192.0, 0.0, 0.0, 0.0, 0.0, 0.0, 0.0, 0.0, 0.0, 0.0, 1.6541612098825831E9, 0.0, 2022-06-02 11:13:29.882
203.0, 30070.070036658057, 5191.460870678529, -74719.19950475688, -68925.94026636366, -54512.03787470316, -55335.02910554756, -45200.79287300025, -56908.34604601217, -0.07200000000000001, 0.844, 0.62, 192.0, 0.0, 0.0, 0.0, 0.0, 0.0, 0.0, 0.0, 0.0, 0.0, 1.6541612098825932E9, 0.0, 2022-06-02 11:13:29.882
204.0, 30073.601612281993, 5191.371463700708, -74735.04689157568, -68939.86540315932, -54528.39935164444, -55321.014561774085, -45221.356477899135, -56922.31588629674, -0.07200000000000001, 0.844, 0.62, 192.0, 0.0, 0.0, 0.0, 0.0, 0.0, 0.0, 0.0, 0.0, 0.0, 1.654161209882601E9, 0.0, 2022-06-02 11:13:29.882
205.0, 30063.56567902156, 5177.759251327426, -74770.42970304843, -68976.00817394354, -54570.822962620616, -55333.106855524406, -45277.839336137695, -56972.78612527682, -0.032, 0.856, 0.614, 192.0, 255.0, 0.0, 26.0, 192.0, 19.0, 48.0, 0.0, 0.0, 0.0, 1.654161209882606E9, 0.0, 2022-06-02 11:13:29.882
206.0, 30068.840690713012, 5181.290826951365, -74761.22078433285, -68974.19768264267, -54564.20684626184, -55348.216634776196, -45256.11344052714, -56968.27107289685, -0.032, 0.856, 0.614, 192.0, 0.0, 0.0, 0.0, 0.0, 0.0, 0.0, 0.0, 0.0, 0.0, 1.6541612098826106E9, 0.0, 2022-06-02 11:13:29.882
207.0, 30066.0467226561, 5173.467716392007, -74751.69894119489, -68969.16854014022, -54563.1786660169, -55343.38865797385, -45244.89286481057, -56927.05445612127, -0.032, 0.856, 0.614, 192.0, 0.0, 0.0, 0.0, 0.0, 0.0, 0.0, 0.0, 0.0, 0.0, 1.6541612098826156E9, 0.0, 2022-06-02 11:13:29.882
208.0, 30075.210937882777, 5178.318044938808, -74742.75824341277, -68962.30655459245, -54561.94932007186, -55329.17294850027, -45255.48759168239, -56923.79110143079, -0.032, 0.856, 0.614, 192.0, 0.0, 0.0, 0.0, 0.0, 0.0, 0.0, 0.0, 0.0, 0.0, 1.6541612098826206E9, 0.0, 2022-06-02 11:13:29.882
209.0, 30079.413065840374, 5180.843792062258, -74751.29660979469, -68969.57087154042, -54556.495494424766, -55318.93584953974, -45209.86768124911, -56890.86698184812, -0.032, 0.856, 0.614, 192.0, 0.0, 0.0, 0.0, 0.0, 0.0, 0.0, 0.0, 0.0, 0.0, 1.6541612098826258E9, 0.0, 2022-06-02 11:13:29.882
210.0, 30086.990307210723, 5185.336492697775, -74768.64156349201, -68988.25692990505, -54573.50517195525, -55326.64720137682, -45222.09408546616, -56900.679397664004, -0.032, 0.856, 0.614, 192.0, 0.0, 0.0, 0.0, 0.0, 0.0, 0.0, 0.0, 0.0, 0.0, 1.6541612098826308E9, 0.0, 2022-06-02 11:13:29.882
211.0, 30089.940737478824, 5181.268475206909, -74770.31794432616, -68994.76128754155, -54598.87440191203, -55342.51693994009, -45251.15135325806, -56927.76971194384, -0.032, 0.856, 0.614, 192.0, 0.0, 0.0, 0.0, 0.0, 0.0, 0.0, 0.0, 0.0, 0.0, 1.6541612098826358E9, 0.0, 2022-06-02 11:13:29.882
212.0, 30099.797856783614, 5183.615408374716, -74752.03421736172, -68983.3842496138, -54593.4876314983, -55348.8648353654, -45236.309794939734, -56926.5850694877, -0.032, 0.856, 0.614, 192.0, 0.0, 0.0, 0.0, 0.0, 0.0, 0.0, 0.0, 0.0, 0.0, 1.6541612098826408E9, 0.0, 2022-06-02 11:13:29.882
213.0, 30092.444132857818, 5169.533809367873, -74754.11292959606, -68992.95079624066, -54593.97936987632, -55361.31475702701, -45239.126114741106, -56941.76190397286, -0.032, 0.856, 0.614, 192.0, 0.0, 0.0, 0.0, 0.0, 0.0, 0.0, 0.0, 0.0, 0.0, 1.6541612098826456E9, 0.0, 2022-06-02 11:13:29.882
214.0, 30102.748287051712, 5175.233504203976, -74754.55996448518, -68996.50472360906, -54585.39630000548, -55344.014506818596, -45246.166914244524, -56933.7376277134, -0.032, 0.856, 0.614, 192.0, 0.0, 0.0, 0.0, 0.0, 0.0, 0.0, 0.0, 0.0, 0.0, 1.6541612098826523E9, 0.0, 2022-06-02 11:13:29.882
215.0, 30112.136019722944, 5176.686367593571, -74775.01181066177, -69017.9847500306, -54597.91327690045, -55356.37502150238, -45254.14648701507, -56935.68222948101, 0.026000000000000002, 0.85, 0.612, 192.0, 0.0, 208.0, 26.0, 144.0, 19.0, 32.0, 0.0, 0.0, 0.0, 1.6541612098826573E9, 0.0, 2022-06-02 11:13:29.882
216.0, 30117.880418047956, 5178.899190294646, -74767.68043848044, -69012.84384880589, -54584.99396860528, -55368.24379780815, -45211.74522778335, -56929.96018290045, 0.026000000000000002, 0.85, 0.612, 192.0, 0.0, 0.0, 0.0, 0.0, 0.0, 0.0, 0.0, 0.0, 0.0, 1.6541612098826616E9, 0.0, 2022-06-02 11:13:29.882
217.0, 30129.704490864813, 5191.438518934074, -74737.88556312151, -68982.26666239103, -54562.82103810561, -55352.95520460072, -45199.831747988675, -56922.22647931892, 0.026000000000000002, 0.85, 0.612, 192.0, 0.0, 0.0, 0.0, 0.0, 0.0, 0.0, 0.0, 0.0, 0.0, 1.6541612098826673E9, 0.0, 2022-06-02 11:13:29.882
218.0, 30129.05629027561, 5194.187783502077, -74732.83406887461, -68974.71177276513, -54561.658747393936, -55346.69671615324, -45225.08921922317, -56929.96018290045, 0.026000000000000002, 0.85, 0.612, 192.0, 0.0, 0.0, 0.0, 0.0, 0.0, 0.0, 0.0, 0.0, 0.0, 1.6541612098826716E9, 0.0, 2022-06-02 11:13:29.882
219.0, 30129.25745597571, 5189.851545077747, -74748.12266208204, -68988.61455781634, -54575.11449755603, -55355.32448951298, -45247.798591589766, -56956.17877914653, 0.026000000000000002, 0.85, 0.612, 192.0, 0.0, 0.0, 0.0, 0.0, 0.0, 0.0, 0.0, 0.0, 0.0, 1.6541612098826768E9, 0.0, 2022-06-02 11:13:29.882
220.0, 30146.021264317187, 5199.462795193529, -74755.69990345239, -68997.51055210955, -54577.77435514622, -55363.460524494716, -45247.68683286749, -56967.04172695181, 0.026000000000000002, 0.85, 0.612, 192.0, 0.0, 0.0, 0.0, 0.0, 0.0, 0.0, 0.0, 0.0, 0.0, 1.6541612098826816E9, 0.0, 2022-06-02 11:13:29.882
221.0, 30134.82304034508, 5192.556106156839, -74765.37820880154, -69006.51830512504, -54590.13486983, -55388.38271956238, -45247.932702056496, -56969.14279093061, 0.026000000000000002, 0.85, 0.612, 192.0, 0.0, 0.0, 0.0, 0.0, 0.0, 0.0, 0.0, 0.0, 0.0, 1.654161209882686E9, 0.0, 2022-06-02 11:13:29.882
222.0, 30132.476107177274, 5189.225696232998, -74749.86609814955, -68991.29676715097, -54577.528485957206, -55379.95611190273, -45211.1193789386, -56942.09718013969, 0.026000000000000002, 0.85, 0.612, 192.0, 0.0, 0.0, 0.0, 0.0, 0.0, 0.0, 0.0, 0.0, 0.0, 1.6541612098826911E9, 0.0, 2022-06-02 11:13:29.882
223.0, 30137.974636313276, 5188.666902621616, -74740.18779280041, -68979.58445305639, -54566.822000363114, -55366.50036174063, -45199.38471309957, -56931.52480501233, 0.026000000000000002, 0.85, 0.612, 192.0, 0.0, 0.0, 0.0, 0.0, 0.0, 0.0, 0.0, 0.0, 0.0, 1.6541612098826997E9, 0.0, 2022-06-02 11:13:29.882
224.0, 30151.20686903082, 5200.938010327579, -74739.62899918902, -68979.36093561184, -54559.93766307088, -55355.52565521308, -45202.625716045586, -56922.22647931892, 0.026000000000000002, 0.85, 0.612, 192.0, 0.0, 0.0, 0.0, 0.0, 0.0, 0.0, 0.0, 0.0, 0.0, 1.6541612098827052E9, 0.0, 2022-06-02 11:13:29.882
225.0, 30155.54310745515, 5200.468623694018, -74767.3004588247, -69005.44542139118, -54585.79863140567, -55382.50421077064, -45253.40887944805, -56971.82500026524, 0.05, 0.836, 0.606, 192.0, 1.0, 144.0, 26.0, 32.0, 18.0, 240.0, 0.0, 0.0, 0.0, 1.6541612098827095E9, 0.0, 2022-06-02 11:13:29.882
226.0, 30168.216546561307, 5209.632838920694, -74754.87288890754, -68992.8390375184, -54590.04546285218, -55388.539181773565, -45269.07745231121, -56965.7453257734, 0.05, 0.836, 0.606, 192.0, 0.0, 0.0, 0.0, 0.0, 0.0, 0.0, 0.0, 0.0, 0.0, 1.6541612098827157E9, 0.0, 2022-06-02 11:13:29.882
227.0, 30171.9716396298, 5215.1090163122435, -74734.66691191995, -68974.9799936986, -54575.31566325613, -55376.603350234436, -45239.57314963021, -56947.90863369807, 0.05, 0.836, 0.606, 192.0, 0.0, 0.0, 0.0, 0.0, 0.0, 0.0, 0.0, 0.0, 0.0, 1.65416120988272E9, 0.0, 2022-06-02 11:13:29.882
228.0, 30174.385628030974, 5223.602679205261, -74722.82048735864, -68960.16078712473, -54551.75692460024, -55355.86093137991, -45195.40610258652, -56924.64046772009, 0.05, 0.836, 0.606, 192.0, 0.0, 0.0, 0.0, 0.0, 0.0, 0.0, 0.0, 0.0, 0.0, 1.6541612098827248E9, 0.0, 2022-06-02 11:13:29.882
229.0, 30184.220395591306, 5231.626955464716, -74725.8379728601, -68960.04902840246, -54553.612119390025, -55341.80168411752, -45210.64999230504, -56923.969915386435, 0.05, 0.836, 0.606, 192.0, 0.0, 0.0, 0.0, 0.0, 0.0, 0.0, 0.0, 0.0, 0.0, 1.654161209882729E9, 0.0, 2022-06-02 11:13:29.882
230.0, 30186.612032248027, 5229.481187997007, -74744.43462424692, -68980.74674376808, -54570.1300585425, -55359.28074828157, -45225.51390236782, -56948.26626160935, 0.05, 0.836, 0.606, 192.0, 0.0, 0.0, 0.0, 0.0, 0.0, 0.0, 0.0, 0.0, 0.0, 1.654161209882734E9, 0.0, 2022-06-02 11:13:29.882
231.0, 30184.15334035794, 5230.263499052942, -74735.35981599806, -68975.09175242088, -54554.28267172369, -55362.72291692769, -45176.541230266244, -56926.7862351878, 0.05, 0.836, 0.606, 192.0, 0.0, 0.0, 0.0, 0.0, 0.0, 0.0, 0.0, 0.0, 0.0, 1.65416120988274E9, 0.0, 2022-06-02 11:13:29.882
232.0, 30197.29616609766, 5243.898063170679, -74705.20731272786, -68946.50387126254, -54531.79681680165, -55340.50528293911, -45153.58598871064, -56898.35481624065, 0.05, 0.836, 0.606, 192.0, 0.0, 0.0, 0.0, 0.0, 0.0, 0.0, 0.0, 0.0, 0.0, 1.6541612098827446E9, 0.0, 2022-06-02 11:13:29.882
233.0, 30215.490486084283, 5264.0593366693665, -74677.84877751456, -68916.32901624788, -54506.20406940032, -55313.41496865928, -45150.27793053126, -56880.92045556551, 0.05, 0.836, 0.606, 192.0, 0.0, 0.0, 0.0, 0.0, 0.0, 0.0, 0.0, 0.0, 0.0, 1.6541612098827505E9, 0.0, 2022-06-02 11:13:29.882
234.0, 30221.41369836494, 5268.70849951607, -74684.48724561778, -68915.47964995858, -54505.75703451122, -55294.14776493881, -45145.76287815128, -56851.617318584606, 0.05, 0.836, 0.606, 192.0, 0.0, 0.0, 0.0, 0.0, 0.0, 0.0, 0.0, 0.0, 0.0, 1.6541612098827558E9, 0.0, 2022-06-02 11:13:29.882
235.0, 30236.74699506128, 5289.294456159408, -74688.44350438638, -68915.83727786985, -54510.09327293555, -55292.4490323602, -45181.168041368495, -56881.0769177767, 0.046, 0.8160000000000001, 0.586, 192.0, 1.0, 112.0, 25.0, 128.0, 18.0, 80.0, 0.0, 0.0, 0.0, 1.654161209882766E9, 0.0, 2022-06-02 11:13:29.882
236.0, 30246.358245177064, 5300.0009417535, -74672.46200710082, -68903.87909458627, -54507.38871185645, -55288.26925614706, -45174.61898024309, -56873.0749932617, 0.046, 0.8160000000000001, 0.586, 192.0, 0.0, 0.0, 0.0, 0.0, 0.0, 0.0, 0.0, 0.0, 0.0, 1.6541612098827713E9, 0.0, 2022-06-02 11:13:29.882
237.0, 30248.168736477943, 5302.750206321502, -74644.34351257604, -68882.06379199789, -54482.01948189968, -55275.796982741, -45110.08949400062, -56845.49294060385, 0.046, 0.8160000000000001, 0.586, 192.0, 0.0, 0.0, 0.0, 0.0, 0.0, 0.0, 0.0, 0.0, 0.0, 1.654161209882776E9, 0.0, 2022-06-02 11:13:29.882
238.0, 30262.876184329532, 5317.457654173095, -74618.99663436374, -68859.22030916456, -54454.79505715312, -55259.68137498872, -45099.13713921751, -56837.78158876677, 0.046, 0.8160000000000001, 0.586, 192.0, 0.0, 0.0, 0.0, 0.0, 0.0, 0.0, 0.0, 0.0, 0.0, 1.654161209882782E9, 0.0, 2022-06-02 11:13:29.882
239.0, 30263.814957596656, 5320.9445263081225, -74621.23180880926, -68863.19891967761, -54457.566673465575, -55245.733886448616, -45113.352848691095, -56842.69897254694, 0.046, 0.8160000000000001, 0.586, 192.0, 0.0, 0.0, 0.0, 0.0, 0.0, 0.0, 0.0, 0.0, 0.0, 1.654161209882788E9, 0.0, 2022-06-02 11:13:29.882
240.0, 30257.75763484927, 5314.931907049645, -74636.72156771678, -68881.48264664205, -54475.13514460745, -55244.59394748139, -45118.225528982344, -56836.10520793262, 0.046, 0.8160000000000001, 0.586, 192.0, 0.0, 0.0, 0.0, 0.0, 0.0, 0.0, 0.0, 0.0, 0.0, 1.6541612098827946E9, 0.0, 2022-06-02 11:13:29.882
241.0, 30264.664323885958, 5320.698657119115, -74624.13753558845, -68872.29607967092, -54468.87665615996, -55251.29947081798, -45108.70368584439, -56831.03136194126, 0.046, 0.8160000000000001, 0.586, 192.0, 0.0, 0.0, 0.0, 0.0, 0.0, 0.0, 0.0, 0.0, 0.0, 1.6541612103611512E9, 0.0, 2022-06-02 11:13:30.361
242.0, 30277.762446136767, 5334.936718337145, -74591.97337531726, -68844.42345433515, -54438.36652497847, -55238.13429333381, -45078.55118257418, -56806.377387807064, 0.046, 0.8160000000000001, 0.586, 192.0, 0.0, 0.0, 0.0, 0.0, 0.0, 0.0, 0.0, 0.0, 0.0, 1.654161210361189E9, 0.0, 2022-06-02 11:13:30.361
243.0, 30288.692449175414, 5347.453695232117, -74569.08518899503, -68820.86471567926, -54417.60175437949, -55209.97109532012, -45080.071101197136, -56789.99355912132, 0.046, 0.8160000000000001, 0.586, 192.0, 0.0, 0.0, 0.0, 0.0, 0.0, 0.0, 0.0, 0.0, 0.0, 1.6541612103612204E9, 0.0, 2022-06-02 11:13:30.361
244.0, 30287.820731141655, 5349.666517933192, -74579.098770511, -68828.10668088277, -54420.10514975848, -55206.7300923741, -45105.105054987085, -56794.7544806903, 0.046, 0.8160000000000001, 0.586, 192.0, 0.0, 0.0, 0.0, 0.0, 0.0, 0.0, 0.0, 0.0, 0.0, 1.6541612103612845E9, 0.0, 2022-06-02 11:13:30.361
245.0, 30280.93639384942, 5345.039706830944, -74598.52243644267, -68847.03860843643, -54425.268402727655, -55220.141139047286, -45078.528830829724, -56807.29380932973, 0.016, 0.812, 0.5700000000000001, 192.0, 0.0, 128.0, 25.0, 96.0, 17.0, 208.0, 0.0, 0.0, 0.0, 1.6541612103612995E9, 0.0, 2022-06-02 11:13:30.361
246.0, 30274.834367613123, 5341.82105562938, -74588.64296539343, -68840.82482347784, -54413.176108977335, -55228.27717402902, -45060.088641654096, -56813.97698092186, 0.016, 0.812, 0.5700000000000001, 192.0, 0.0, 0.0, 0.0, 0.0, 0.0, 0.0, 0.0, 0.0, 0.0, 1.6541612103613043E9, 0.0, 2022-06-02 11:13:30.361
247.0, 30280.645821171503, 5358.786029670958, -74561.08326448002, -68813.37688128673, -54396.47935586922, -55209.65817089775, -45063.91078995595, -56792.541657989226, 0.016, 0.812, 0.5700000000000001, 192.0, 0.0, 0.0, 0.0, 0.0, 0.0, 0.0, 0.0, 0.0, 0.0, 1.6541612103613088E9, 0.0, 2022-06-02 11:13:30.361
248.0, 30285.026763084745, 5378.813192702913, -74537.54687756859, -68788.76761064144, -54380.54256207259, -55184.15483047424, -45069.18580164741, -56778.72827991585, 0.016, 0.812, 0.5700000000000001, 192.0, 0.0, 0.0, 0.0, 0.0, 0.0, 0.0, 0.0, 0.0, 0.0, 1.6541612103613167E9, 0.0, 2022-06-02 11:13:30.361
249.0, 30294.012164355776, 5388.7373672410695, -74529.27673212012, -68787.9852995855, -54367.310329355045, -55179.39390890526, -45063.642569022486, -56797.28022781375, 0.016, 0.812, 0.5700000000000001, 192.0, 0.0, 0.0, 0.0, 0.0, 0.0, 0.0, 0.0, 0.0, 0.0, 1.6541612103613214E9, 0.0, 2022-06-02 11:13:30.361
250.0, 30285.51850146276, 5382.903561938234, -74552.097863209, -68807.94540738409, -54378.24033239369, -55200.628066137804, -45045.671766480424, -56828.2150421399, 0.016, 0.812, 0.5700000000000001, 192.0, 0.0, 0.0, 0.0, 0.0, 0.0, 0.0, 0.0, 0.0, 0.0, 1.6541612103613265E9, 0.0, 2022-06-02 11:13:30.361
251.0, 30283.350382250595, 5386.166916628709, -74547.42634861784, -68799.78702065791, -54377.07804168201, -55200.292789970976, -45069.54342955869, -56817.30739084571, 0.016, 0.812, 0.5700000000000001, 192.0, 0.0, 0.0, 0.0, 0.0, 0.0, 0.0, 0.0, 0.0, 0.0, 1.6541612103613312E9, 0.0, 2022-06-02 11:13:30.361
252.0, 30275.907251346976, 5390.905486453234, -74528.24855187518, -68781.25742450445, -54367.55619854405, -55177.270493182004, -45050.61150200504, -56744.06072426566, 0.016, 0.812, 0.5700000000000001, 192.0, 0.0, 0.0, 0.0, 0.0, 0.0, 0.0, 0.0, 0.0, 0.0, 1.6541612103613355E9, 0.0, 2022-06-02 11:13:30.361
253.0, 30271.28044024473, 5396.4263673336945, -74514.01049065715, -68764.80654058536, -54360.738916485185, -55154.44936209314, -45026.67278369341, -56719.27263966473, 0.016, 0.812, 0.5700000000000001, 192.0, 0.0, 0.0, 0.0, 0.0, 0.0, 0.0, 0.0, 0.0, 0.0, 1.65416121036134E9, 0.0, 2022-06-02 11:13:30.361
254.0, 30263.971419807844, 5397.141623156264, -74521.43126981631, -68770.05920053234, -54357.47556179471, -55154.829341748875, -45007.360876484025, -56738.71865734085, 0.016, 0.812, 0.5700000000000001, 192.0, 0.0, 0.0, 0.0, 0.0, 0.0, 0.0, 0.0, 0.0, 0.0, 1.6541612103613443E9, 0.0, 2022-06-02 11:13:30.361
255.0, 30263.591440152104, 5400.203812146641, -74541.97252297074, -68786.75595364046, -54378.55325681606, -55173.82832453589, -45062.4355748219, -56819.22964086886, -0.032, 0.81, 0.55, 192.0, 255.0, 0.0, 25.0, 80.0, 17.0, 48.0, 0.0, 0.0, 0.0, 1.6541612103613486E9, 0.0, 2022-06-02 11:13:30.361
0.0, 30257.355303449072, 5399.980294702089, -74535.11053742297, -68780.36335472624, -54377.97211146023, -55182.25493219554, -45059.14986838697, -56824.14702464903, -0.032, 0.81, 0.55, 192.0, 0.0, 0.0, 0.0, 0.0, 0.0, 0.0, 0.0, 0.0, 0.0, 1.6541612103613653E9, 0.0, 2022-06-02 11:13:30.361
1.0, 30245.263009698752, 5396.739291756069, -74514.8822086909, -68760.3808951832, -54351.08296288049, -55148.548501556936, -45009.41723697391, -56712.1871366724, -0.032, 0.81, 0.55, 192.0, 0.0, 0.0, 0.0, 0.0, 0.0, 0.0, 0.0, 0.0, 0.0, 1.6541612103613706E9, 0.0, 2022-06-02 11:13:30.361
2.0, 30238.065747984143, 5398.438024334672, -74502.00760388466, -68747.61804909921, -54338.856558663436, -55131.80704495991, -45006.48915845027, -56687.399052071465, -0.032, 0.81, 0.55, 192.0, 0.0, 0.0, 0.0, 0.0, 0.0, 0.0, 0.0, 0.0, 0.0, 1.6541612103613749E9, 0.0, 2022-06-02 11:13:30.361
3.0, 30236.344663661086, 5402.438986592172, -74516.3350720805, -68759.0844940048, -54361.364765329934, -55143.18408288767, -45063.150830644474, -56734.918860783444, -0.032, 0.81, 0.55, 192.0, 0.0, 0.0, 0.0, 0.0, 0.0, 0.0, 0.0, 0.0, 0.0, 1.654161210361379E9, 0.0, 2022-06-02 11:13:30.361
4.0, 30249.778062078723, 5422.220280435119, -74538.82092700254, -68778.75402912546, -54389.93029474381, -55161.78073427448, -45101.88640378552, -56789.99355912132, -0.032, 0.81, 0.55, 192.0, 0.0, 0.0, 0.0, 0.0, 0.0, 0.0, 0.0, 0.0, 0.0, 1.6541612103613827E9, 0.0, 2022-06-02 11:13:30.361
5.0, 30249.71100684536, 5421.21445193463, -74523.86760996195, -68771.42265694412, -54383.71650978524, -55167.413373877214, -45081.456909353365, -56782.1033933286, -0.032, 0.81, 0.55, 192.0, 0.0, 0.0, 0.0, 0.0, 0.0, 0.0, 0.0, 0.0, 0.0, 1.6541612103613868E9, 0.0, 2022-06-02 11:13:30.361
6.0, 30224.006500721756, 5387.508021296027, -74494.81034217005, -68750.0320375004, -54345.56208200003, -55135.94211768414, -44994.508623422225, -56708.789671515195, -0.032, 0.81, 0.55, 192.0, 0.0, 0.0, 0.0, 0.0, 0.0, 0.0, 0.0, 0.0, 0.0, 1.654161210361391E9, 0.0, 2022-06-02 11:13:30.361
7.0, 30207.019174935722, 5370.63245423227, -74495.48089450371, -68752.31191543484, -54334.18504407228, -55128.09665538033, -44991.04410303165, -56709.773148271226, -0.032, 0.81, 0.55, 192.0, 0.0, 0.0, 0.0, 0.0, 0.0, 0.0, 0.0, 0.0, 0.0, 1.6541612103613951E9, 0.0, 2022-06-02 11:13:30.361
8.0, 30199.508988798738, 5363.077564606377, -74515.35159532448, -68776.16122676864, -54344.51155001063, -55149.174350401685, -45038.742725699274, -56768.200608277395, -0.076, 0.8260000000000001, 0.542, 192.0, 253.0, 160.0, 25.0, 208.0, 16.0, 240.0, 0.0, 0.0, 0.0, 1.6541612103613992E9, 0.0, 2022-06-02 11:13:30.361
9.0, 30182.834587435078, 5341.798703884924, -74534.46233683376, -68797.64125319019, -54359.487218795686, -55146.60389978933, -45049.47156303783, -56758.0976197836, -0.076, 0.8260000000000001, 0.542, 192.0, 0.0, 0.0, 0.0, 0.0, 0.0, 0.0, 0.0, 0.0, 0.0, 1.6541612103614037E9, 0.0, 2022-06-02 11:13:30.361
10.0, 30184.890947924967, 5347.63250918776, -74525.9910256852, -68790.4886949645, -54355.55331177155, -55144.636946277256, -45026.181045315396, -56720.77020654324, -0.076, 0.8260000000000001, 0.542, 192.0, 0.0, 0.0, 0.0, 0.0, 0.0, 0.0, 0.0, 0.0, 0.0, 1.6541612103614075E9, 0.0, 2022-06-02 11:13:30.361
11.0, 30185.472093280805, 5350.180608055664, -74506.54500800908, -68776.51885467993, -54342.18696858728, -55136.880890951266, -45005.3715712275, -56710.4884040938, -0.076, 0.8260000000000001, 0.542, 192.0, 0.0, 0.0, 0.0, 0.0, 0.0, 0.0, 0.0, 0.0, 0.0, 1.6541612103614116E9, 0.0, 2022-06-02 11:13:30.361
12.0, 30175.413808275916, 5342.9609945966, -74494.20684506976, -68771.08738077729, -54326.630154446386, -55124.8109489454, -44982.46103316081, -56704.14050866849, -0.076, 0.8260000000000001, 0.542, 192.0, 0.0, 0.0, 0.0, 0.0, 0.0, 0.0, 0.0, 0.0, 0.0, 1.6541612103614175E9, 0.0, 2022-06-02 11:13:30.361
13.0, 30172.35161928554, 5347.319584765385, -74514.94926392428, -68788.61114843025, -54341.80698893154, -55140.211300875104, -45037.82630417661, -56744.172482987946, -0.076, 0.8260000000000001, 0.542, 192.0, 0.0, 0.0, 0.0, 0.0, 0.0, 0.0, 0.0, 0.0, 0.0, 1.654161210361422E9, 0.0, 2022-06-02 11:13:30.361
14.0, 30172.575136730095, 5353.131038323765, -74541.65959854837, -68811.3428725413, -54369.07611716702, -55158.58443481737, -45065.69892951238, -56764.221997764354, -0.076, 0.8260000000000001, 0.542, 192.0, 0.0, 0.0, 0.0, 0.0, 0.0, 0.0, 0.0, 0.0, 0.0, 1.654161210361426E9, 0.0, 2022-06-02 11:13:30.361
15.0, 30177.671334465904, 5363.055212861921, -74536.85397349048, -68809.0853463513, -54374.2840736251, -55163.83709476436, -45054.65716775145, -56766.77009663226, -0.076, 0.8260000000000001, 0.542, 192.0, 0.0, 0.0, 0.0, 0.0, 0.0, 0.0, 0.0, 0.0, 0.0, 1.65416121036143E9, 0.0, 2022-06-02 11:13:30.361
16.0, 30176.218471076307, 5356.439096503151, -74530.52842980962, -68808.14657308419, -54376.34043411499, -55175.21413269212, -45062.39087133299, -56806.60090525162, -0.076, 0.8260000000000001, 0.542, 192.0, 0.0, 0.0, 0.0, 0.0, 0.0, 0.0, 0.0, 0.0, 0.0, 1.654161210361434E9, 0.0, 2022-06-02 11:13:30.361
17.0, 30174.050351864145, 5351.901692378723, -74537.14454616839, -68815.20972433206, -54386.86810575344, -55188.334606687386, -45108.77074107775, -56844.82238827019, -0.076, 0.8260000000000001, 0.542, 192.0, 0.0, 0.0, 0.0, 0.0, 0.0, 0.0, 0.0, 0.0, 0.0, 1.654161210361438E9, 0.0, 2022-06-02 11:13:30.361
18.0, 30176.821968176602, 5354.0474598464325, -74543.96182822727, -68816.28260806591, -54384.655283052365, -55163.993556975554, -45076.293656384194, -56789.457117254395, -0.078, 0.854, 0.536, 192.0, 253.0, 144.0, 26.0, 176.0, 16.0, 192.0, 0.0, 0.0, 0.0, 1.6541612103614423E9, 0.0, 2022-06-02 11:13:30.361
19.0, 30195.172750374408, 5371.861800177312, -74548.85686026298, -68811.94636964159, -54387.38219587591, -55135.65154500622, -45039.70385071085, -56723.22889843332, -0.078, 0.854, 0.536, 192.0, 0.0, 0.0, 0.0, 0.0, 0.0, 0.0, 0.0, 0.0, 0.0, 1.6541612103614469E9, 0.0, 2022-06-02 11:13:30.361
20.0, 30207.80148599166, 5382.434175304673, -74543.00070321569, -68809.15240158468, -54396.76992854714, -55143.83228347687, -45064.15665914496, -56747.793465589704, -0.078, 0.854, 0.536, 192.0, 0.0, 0.0, 0.0, 0.0, 0.0, 0.0, 0.0, 0.0, 0.0, 1.654161210361451E9, 0.0, 2022-06-02 11:13:30.361
21.0, 30206.661547024436, 5378.612027002815, -74531.71307226576, -68806.06786084984, -54385.057614452555, -55149.50962656851, -45054.18778111789, -56774.704965913894, -0.078, 0.854, 0.536, 192.0, 0.0, 0.0, 0.0, 0.0, 0.0, 0.0, 0.0, 0.0, 0.0, 1.6541612103614552E9, 0.0, 2022-06-02 11:13:30.361
22.0, 30202.437067322382, 5374.521657767494, -74527.06390941906, -68807.990110873, -54373.121782913426, -55151.72244926959, -45043.928330412906, -56769.899340856, -0.078, 0.854, 0.536, 192.0, 0.0, 0.0, 0.0, 0.0, 0.0, 0.0, 0.0, 0.0, 0.0, 1.6541612103614616E9, 0.0, 2022-06-02 11:13:30.361
23.0, 30218.172695418918, 5388.312684096419, -74523.66644426185, -68802.71509918154, -54367.869122966425, -55126.9120129242, -45038.630966977, -56725.95581125687, -0.078, 0.854, 0.536, 192.0, 0.0, 0.0, 0.0, 0.0, 0.0, 0.0, 0.0, 0.0, 0.0, 1.6541612103614655E9, 0.0, 2022-06-02 11:13:30.361
24.0, 30218.865599497036, 5388.960884685622, -74539.96086596977, -68816.50612551048, -54378.37444286042, -55122.0616843774, -45061.31798759913, -56724.50294786727, -0.078, 0.854, 0.536, 192.0, 0.0, 0.0, 0.0, 0.0, 0.0, 0.0, 0.0, 0.0, 0.0, 1.6541612103614693E9, 0.0, 2022-06-02 11:13:30.361
25.0, 30224.162962932944, 5395.621704533303, -74534.23881938921, -68817.17667784414, -54383.00125396267, -55138.11023689631, -45081.92629598693, -56751.16857900246, -0.078, 0.854, 0.536, 192.0, 0.0, 0.0, 0.0, 0.0, 0.0, 0.0, 0.0, 0.0, 0.0, 1.654161210361473E9, 0.0, 2022-06-02 11:13:30.361
26.0, 30235.94233226089, 5407.244611650063, -74514.50222903518, -68803.25154104848, -54378.2850358826, -55138.08788515185, -45087.40247337848, -56768.40177397749, -0.078, 0.854, 0.536, 192.0, 0.0, 0.0, 0.0, 0.0, 0.0, 0.0, 0.0, 0.0, 0.0, 1.6541612103614771E9, 0.0, 2022-06-02 11:13:30.361
27.0, 30227.538076345692, 5395.107614410832, -74521.72184249424, -68812.90749465318, -54385.19172491929, -55142.513530554, -45089.68235131292, -56782.99746310681, -0.078, 0.854, 0.536, 192.0, 0.0, 0.0, 0.0, 0.0, 0.0, 0.0, 0.0, 0.0, 0.0, 1.6541612103614812E9, 0.0, 2022-06-02 11:13:30.361
28.0, 30233.997730493276, 5399.533259812983, -74521.94535993879, -68814.1368405982, -54378.39679460488, -55125.30268732342, -45053.785449717696, -56750.162750501964, -0.058, 0.886, 0.532, 192.0, 254.0, 48.0, 27.0, 176.0, 16.0, 160.0, 0.0, 0.0, 0.0, 1.6541612103614855E9, 0.0, 2022-06-02 11:13:30.361
29.0, 30221.346643131572, 5383.819983460901, -74553.12604345394, -68846.9939049475, -54391.11493719995, -55145.15103639973, -45018.894376622964, -56730.89554678149, -0.058, 0.886, 0.532, 192.0, 0.0, 0.0, 0.0, 0.0, 0.0, 0.0, 0.0, 0.0, 0.0, 1.6541612103614895E9, 0.0, 2022-06-02 11:13:30.361
30.0, 30221.74897453177, 5381.428346804184, -74553.64013357641, -68849.16202415968, -54406.2917716851, -55158.02564120599, -45031.09842909556, -56733.80127356068, -0.058, 0.886, 0.532, 192.0, 0.0, 0.0, 0.0, 0.0, 0.0, 0.0, 0.0, 0.0, 0.0, 1.6541612103614933E9, 0.0, 2022-06-02 11:13:30.361
31.0, 30226.956930989854, 5384.78110847248, -74536.51869732366, -68829.0454541499, -54404.078948984024, -55148.66026027921, -45046.27526358071, -56741.84790156459, -0.058, 0.886, 0.532, 192.0, 0.0, 0.0, 0.0, 0.0, 0.0, 0.0, 0.0, 0.0, 0.0, 1.6541612103614974E9, 0.0, 2022-06-02 11:13:30.361
32.0, 30237.84223053959, 5388.580905029882, -74523.6440925174, -68814.87444816524, -54386.80105052007, -55138.08788515185, -45033.04303086317, -56733.667163093945, -0.058, 0.886, 0.532, 192.0, 0.0, 0.0, 0.0, 0.0, 0.0, 0.0, 0.0, 0.0, 0.0, 1.6541612103615017E9, 0.0, 2022-06-02 11:13:30.361
33.0, 30231.36022464755, 5383.35059682734, -74540.78788051462, -68829.38073031673, -54390.10910869946, -55148.257928879015, -45054.99244391829, -56772.469791468364, -0.058, 0.886, 0.532, 192.0, 0.0, 0.0, 0.0, 0.0, 0.0, 0.0, 0.0, 0.0, 0.0, 1.6541612103615055E9, 0.0, 2022-06-02 11:13:30.361
34.0, 30234.75768980476, 5387.217448618108, -74554.17657544334, -68841.8977072117, -54401.75436756067, -55151.43187659167, -45062.90496145546, -56772.58155019064, -0.058, 0.886, 0.532, 192.0, 0.0, 0.0, 0.0, 0.0, 0.0, 0.0, 0.0, 0.0, 0.0, 1.6541612103615096E9, 0.0, 2022-06-02 11:13:30.361
35.0, 30242.714910830848, 5391.643094020259, -74546.15229918389, -68826.6985209821, -54403.72132107274, -55148.257928879015, -45055.23831310729, -56753.40375344799, -0.058, 0.886, 0.532, 192.0, 0.0, 0.0, 0.0, 0.0, 0.0, 0.0, 0.0, 0.0, 0.0, 1.6541612103615136E9, 0.0, 2022-06-02 11:13:30.361
36.0, 30235.227076438317, 5380.534277025971, -74538.41859560234, -68819.18833484511, -54405.57651586253, -55156.55042607194, -45057.071156152626, -56777.498933970805, -0.058, 0.886, 0.532, 192.0, 0.0, 0.0, 0.0, 0.0, 0.0, 0.0, 0.0, 0.0, 0.0, 1.654161210361518E9, 0.0, 2022-06-02 11:13:30.361
37.0, 30227.403965878962, 5380.333111325874, -74531.26603737666, -68810.91818939665, -54399.20626869277, -55140.77009448649, -45050.34328107158, -56729.554442114175, -0.058, 0.886, 0.532, 192.0, 0.0, 0.0, 0.0, 0.0, 0.0, 0.0, 0.0, 0.0, 0.0, 1.654161210361522E9, 0.0, 2022-06-02 11:13:30.361
38.0, 30235.383538649505, 5390.25728586403, -74532.20481064377, -68807.31955853934, -54386.44342260879, -55129.54951876993, -45037.26751056522, -56733.600107860584, -0.052000000000000005, 0.884, 0.528, 192.0, 254.0, 96.0, 27.0, 160.0, 16.0, 128.0, 0.0, 0.0, 0.0, 1.654161210361526E9, 0.0, 2022-06-02 11:13:30.361
39.0, 30232.611922337048, 5378.410861302717, -74562.75964531417, -68835.12512864174, -54410.33743743151, -55161.06547845191, -45056.89234219699, -56807.87495468557, -0.052000000000000005, 0.884, 0.528, 192.0, 0.0, 0.0, 0.0, 0.0, 0.0, 0.0, 0.0, 0.0, 0.0, 1.6541612103615303E9, 0.0, 2022-06-02 11:13:30.361
40.0, 30231.494335114283, 5375.549838012438, -74563.29608718111, -68831.66060825117, -54415.18776597831, -55170.29674891195, -45054.545409029175, -56778.214189793376, -0.052000000000000005, 0.884, 0.528, 192.0, 0.0, 0.0, 0.0, 0.0, 0.0, 0.0, 0.0, 0.0, 0.0, 1.6541612103615344E9, 0.0, 2022-06-02 11:13:30.361
41.0, 30240.859716041057, 5384.691701494658, -74525.87926696292, -68799.40704100217, -54374.865218980936, -55141.57475728688, -45011.540652697164, -56707.82854650361, -0.052000000000000005, 0.884, 0.528, 192.0, 0.0, 0.0, 0.0, 0.0, 0.0, 0.0, 0.0, 0.0, 0.0, 1.6541612103615386E9, 0.0, 2022-06-02 11:13:30.361
42.0, 30240.88206778551, 5385.719881739603, -74517.58676977, -68792.92503511012, -54370.32781485651, -55133.796350216435, -45033.95945238584, -56709.79550001568, -0.052000000000000005, 0.884, 0.528, 192.0, 0.0, 0.0, 0.0, 0.0, 0.0, 0.0, 0.0, 0.0, 0.0, 1.6541612103615427E9, 0.0, 2022-06-02 11:13:30.361
43.0, 30248.41460566695, 5388.379739329785, -74521.76654598315, -68799.29528227988, -54373.05472768006, -55139.317231096895, -45022.00126910225, -56732.50487238227, -0.052000000000000005, 0.884, 0.528, 192.0, 0.0, 0.0, 0.0, 0.0, 0.0, 0.0, 0.0, 0.0, 0.0, 1.654161210361549E9, 0.0, 2022-06-02 11:13:30.361
44.0, 30247.721701588835, 5383.819983460901, -74544.81119451657, -68819.23303833402, -54394.53475410161, -55158.78560051747, -45035.81464717563, -56765.38428847603, -0.052000000000000005, 0.884, 0.528, 192.0, 0.0, 0.0, 0.0, 0.0, 0.0, 0.0, 0.0, 0.0, 0.0, 1.6541612103615527E9, 0.0, 2022-06-02 11:13:30.361
45.0, 30228.02981472371, 5365.0221663739885, -74564.39132265942, -68840.26602986647, -54414.71837934475, -55198.9293335592, -45073.16441216045, -56798.1072423586, -0.052000000000000005, 0.884, 0.528, 192.0, 0.0, 0.0, 0.0, 0.0, 0.0, 0.0, 0.0, 0.0, 0.0, 1.6541612103615568E9, 0.0, 2022-06-02 11:13:30.361
46.0, 30219.35733787505, 5365.268035562996, -74556.5011568667, -68830.38655881722, -54403.67661758383, -55198.83992658138, -45088.20713617887, -56815.474547800375, -0.052000000000000005, 0.884, 0.528, 192.0, 0.0, 0.0, 0.0, 0.0, 0.0, 0.0, 0.0, 0.0, 0.0, 1.6541612103615606E9, 0.0, 2022-06-02 11:13:30.361
47.0, 30208.628500536503, 5360.507113994016, -74551.67318006435, -68826.67616923765, -54410.98563802071, -55178.052804237945, -45111.58706087912, -56793.636893467534, -0.052000000000000005, 0.884, 0.528, 192.0, 0.0, 0.0, 0.0, 0.0, 0.0, 0.0, 0.0, 0.0, 0.0, 1.6541612103615646E9, 0.0, 2022-06-02 11:13:30.361
48.0, 30191.93174742839, 5354.24862554653, -74559.853918535, -68833.15817512968, -54403.27428618363, -55173.984786747074, -45044.44242053538, -56744.37364868804, -0.062, 0.872, 0.52, 192.0, 254.0, 16.0, 27.0, 64.0, 16.0, 64.0, 0.0, 0.0, 0.0, 1.6541612103615687E9, 0.0, 2022-06-02 11:13:30.361
49.0, 30201.095962655065, 5360.0377273604545, -74564.88306103743, -68841.16009964468, -54388.47743135422, -55176.10820247033, -45027.566853471624, -56764.847846609104, -0.062, 0.872, 0.52, 192.0, 0.0, 0.0, 0.0, 0.0, 0.0, 0.0, 0.0, 0.0, 0.0, 1.6541612103615725E9, 0.0, 2022-06-02 11:13:30.361
50.0, 30206.88506446899, 5363.435192517662, -74561.3514854135, -68836.68975075362, -54399.474489626235, -55182.61256010683, -45060.356862587556, -56782.57277996216, -0.062, 0.872, 0.52, 192.0, 0.0, 0.0, 0.0, 0.0, 0.0, 0.0, 0.0, 0.0, 0.0, 1.6541612103615763E9, 0.0, 2022-06-02 11:13:30.361
51.0, 30203.64406152297, 5362.228198317075, -74544.96765672775, -68821.15528835717, -54390.95847498876, -55170.989652990065, -45035.72524019781, -56761.94211982991, -0.062, 0.872, 0.52, 192.0, 0.0, 0.0, 0.0, 0.0, 0.0, 0.0, 0.0, 0.0, 0.0, 1.6541612103615804E9, 0.0, 2022-06-02 11:13:30.361
52.0, 30200.291299854674, 5357.556683725916, -74535.62462754543, -68815.85792492126, -54377.63683529339, -55171.123763456795, -45045.3811938025, -56784.45032649641, -0.062, 0.872, 0.52, 192.0, 0.0, 0.0, 0.0, 0.0, 0.0, 0.0, 0.0, 0.0, 0.0, 1.6541612103615844E9, 0.0, 2022-06-02 11:13:30.361
53.0, 30190.9259189279, 5354.270977290986, -74552.23197367573, -68821.42350929065, -54390.95847498876, -55155.254024893526, -45068.51524931374, -56756.06361103817, -0.062, 0.872, 0.52, 192.0, 0.0, 0.0, 0.0, 0.0, 0.0, 0.0, 0.0, 0.0, 0.0, 1.6541612103615885E9, 0.0, 2022-06-02 11:13:30.361
54.0, 30185.82972119209, 5349.621814444282, -74579.32228795557, -68843.50703281249, -54416.55122239009, -55169.76030704502, -45084.11676694355, -56771.843942623615, -0.062, 0.872, 0.52, 192.0, 0.0, 0.0, 0.0, 0.0, 0.0, 0.0, 0.0, 0.0, 0.0, 1.6541612103615923E9, 0.0, 2022-06-02 11:13:30.361
55.0, 30192.132913128487, 5352.125209823276, -74570.29218319562, -68834.61103851927, -54414.58426887802, -55173.76126930252, -45070.32574061462, -56783.95858811839, -0.062, 0.872, 0.52, 192.0, 0.0, 0.0, 0.0, 0.0, 0.0, 0.0, 0.0, 0.0, 0.0, 1.6541612103615963E9, 0.0, 2022-06-02 11:13:30.361
56.0, 30194.815122463126, 5359.3895267712505, -74554.78007254364, -68815.36618654325, -54405.554164118075, -55164.77586803149, -45091.15756644697, -56791.133498088544, -0.062, 0.872, 0.52, 192.0, 0.0, 0.0, 0.0, 0.0, 0.0, 0.0, 0.0, 0.0, 0.0, 1.6541612103616004E9, 0.0, 2022-06-02 11:13:30.361
57.0, 30176.68785770987, 5349.353593510818, -74551.36025564198, -68815.45559352108, -54401.12851871592, -55163.81474301991, -45111.96704053486, -56801.23648658234, -0.062, 0.872, 0.52, 192.0, 0.0, 0.0, 0.0, 0.0, 0.0, 0.0, 0.0, 0.0, 0.0, 1.6541612103616047E9, 0.0, 2022-06-02 11:13:30.361
58.0, 30182.096979868053, 5356.72966918107, -74553.12604345394, -68814.67328246514, -54403.609562350466, -55152.191835903155, -45125.42279069695, -56785.59026546362, -0.07200000000000001, 0.866, 0.51, 192.0, 253.0, 192.0, 27.0, 16.0, 15.0, 240.0, 0.0, 0.0, 0.0, 1.6541612103616087E9, 0.0, 2022-06-02 11:13:30.361
59.0, 30181.73935195677, 5349.599462699826, -74572.81793031907, -68836.75680598698, -54403.7883763061, -55170.564969845414, -45081.85924075356, -56786.81961140867, -0.07200000000000001, 0.866, 0.51, 192.0, 0.0, 0.0, 0.0, 0.0, 0.0, 0.0, 0.0, 0.0, 0.0, 1.654161210361613E9, 0.0, 2022-06-02 11:13:30.361
60.0, 30185.20387234734, 5351.074677833877, -74557.596392345, -68819.45655577857, -54396.457004124764, -55169.06740296691, -45052.57845551711, -56772.58155019064, -0.07200000000000001, 0.866, 0.51, 192.0, 0.0, 0.0, 0.0, 0.0, 0.0, 0.0, 0.0, 0.0, 0.0, 1.654161210361617E9, 0.0, 2022-06-02 11:13:30.361
61.0, 30168.507119239228, 5344.212692286097, -74554.71301731026, -68813.53334349791, -54398.80393729257, -55161.04312670745, -45054.545409029175, -56748.86634932356, -0.07200000000000001, 0.866, 0.51, 192.0, 0.0, 0.0, 0.0, 0.0, 0.0, 0.0, 0.0, 0.0, 0.0, 1.6541612103616223E9, 0.0, 2022-06-02 11:13:30.361
62.0, 30168.12713958349, 5343.542139952438, -74546.08524395053, -68806.11256433875, -54391.60667557796, -55147.54267305645, -45044.57653100211, -56730.582622359114, -0.07200000000000001, 0.866, 0.51, 192.0, 0.0, 0.0, 0.0, 0.0, 0.0, 0.0, 0.0, 0.0, 0.0, 1.6541612103616264E9, 0.0, 2022-06-02 11:13:30.361
63.0, 30176.218471076307, 5345.10676206431, -74546.80049977309, -68810.76172718545, -54391.785489533606, -55149.88960622426, -45056.3335485856, -56759.66224189547, -0.07200000000000001, 0.866, 0.51, 192.0, 0.0, 0.0, 0.0, 0.0, 0.0, 0.0, 0.0, 0.0, 0.0, 1.6541612103616304E9, 0.0, 2022-06-02 11:13:30.361
64.0, 30168.507119239228, 5335.473160204072, -74579.23288097774, -68839.75193974399, -54421.62506838144, -55167.23455992158, -45088.56476409016, -56781.92457937296, -0.07200000000000001, 0.866, 0.51, 192.0, 0.0, 0.0, 0.0, 0.0, 0.0, 0.0, 0.0, 0.0, 0.0, 1.654161210361636E9, 0.0, 2022-06-02 11:13:30.361
65.0, 30166.763683171714, 5333.305040991908, -74589.2017590048, -68852.51478582797, -54438.23241451173, -55202.080929527394, -45147.72983166335, -56833.62416429808, -0.07200000000000001, 0.866, 0.51, 192.0, 0.0, 0.0, 0.0, 0.0, 0.0, 0.0, 0.0, 0.0, 0.0, 1.65416121036164E9, 0.0, 2022-06-02 11:13:30.361
66.0, 30154.9172586104, 5321.592726897326, -74582.31742171258, -68852.11245442778, -54429.38112370743, -55203.86906908382, -45147.88629387454, -56824.52700430477, -0.07200000000000001, 0.866, 0.51, 192.0, 0.0, 0.0, 0.0, 0.0, 0.0, 0.0, 0.0, 0.0, 0.0, 1.654161210361644E9, 0.0, 2022-06-02 11:13:30.361
67.0, 30145.39541547244, 5306.505299389994, -74583.07738102405, -68857.52157658596, -54423.592021893506, -55200.49395567107, -45101.77464506324, -56827.43273108396, -0.07200000000000001, 0.866, 0.51, 192.0, 0.0, 0.0, 0.0, 0.0, 0.0, 0.0, 0.0, 0.0, 0.0, 1.654161210361648E9, 0.0, 2022-06-02 11:13:30.361
68.0, 30144.657807905416, 5309.723950591559, -74581.75862810119, -68853.81118700639, -54409.08573974201, -55184.691272341166, -45061.49680155478, -56784.785602663236, -0.062, 0.872, 0.51, 192.0, 254.0, 16.0, 27.0, 64.0, 15.0, 240.0, 0.0, 0.0, 0.0, 1.654161210361652E9, 0.0, 2022-06-02 11:13:30.361
69.0, 30141.886191592956, 5308.9639912800785, -74596.82370386407, -68865.18822493413, -54420.507481158675, -55184.15483047424, -45084.20617392137, -56773.54267520222, -0.062, 0.872, 0.51, 192.0, 0.0, 0.0, 0.0, 0.0, 0.0, 0.0, 0.0, 0.0, 0.0, 1.6541612103616557E9, 0.0, 2022-06-02 11:13:30.361
70.0, 30124.027147773166, 5290.9484852491005, -74615.01802385069, -68884.8130565659, -54450.1011908175, -55216.922487845724, -45113.08462775763, -56800.43182378195, -0.062, 0.872, 0.51, 192.0, 0.0, 0.0, 0.0, 0.0, 0.0, 0.0, 0.0, 0.0, 0.0, 1.6541612103616598E9, 0.0, 2022-06-02 11:13:30.361
71.0, 30131.9620170548, 5304.560697622383, -74594.72263988527, -68863.51184409998, -54438.65709765638, -55201.25391498255, -45093.95153450388, -56808.34434131913, -0.062, 0.872, 0.51, 192.0, 0.0, 0.0, 0.0, 0.0, 0.0, 0.0, 0.0, 0.0, 0.0, 1.6541612103616636E9, 0.0, 2022-06-02 11:13:30.361
72.0, 30130.375043198474, 5303.62192435526, -74590.6099189055, -68855.12993992925, -54438.83591161203, -55204.65138013976, -45115.14098824751, -56858.47930413238, -0.062, 0.872, 0.51, 192.0, 0.0, 0.0, 0.0, 0.0, 0.0, 0.0, 0.0, 0.0, 0.0, 1.6541612103616676E9, 0.0, 2022-06-02 11:13:30.361
73.0, 30126.910522807902, 5298.279857430442, -74596.19785501932, -68856.53809982992, -54435.48314994373, -55195.19659223516, -45095.8961362715, -56828.77383575128, -0.062, 0.872, 0.51, 192.0, 0.0, 0.0, 0.0, 0.0, 0.0, 0.0, 0.0, 0.0, 0.0, 1.6541612103616717E9, 0.0, 2022-06-02 11:13:30.361
74.0, 30103.463542874284, 5272.307130373375, -74639.49318402926, -68896.39126019375, -54476.16332485239, -55212.87682209931, -45133.916453589976, -56812.76998672128, -0.062, 0.872, 0.51, 192.0, 0.0, 0.0, 0.0, 0.0, 0.0, 0.0, 0.0, 0.0, 0.0, 1.6541612103616757E9, 0.0, 2022-06-02 11:13:30.361
75.0, 30093.89699624741, 5264.126391902732, -74646.0198934102, -68904.39318470874, -54488.27797034717, -55226.60079319487, -45133.134142534036, -56821.7106845034, -0.062, 0.872, 0.51, 192.0, 0.0, 0.0, 0.0, 0.0, 0.0, 0.0, 0.0, 0.0, 0.0, 1.6541612103616798E9, 0.0, 2022-06-02 11:13:30.361
76.0, 30092.801760769104, 5262.919397702146, -74632.63119848147, -68895.72070786008, -54480.52191502118, -55226.10905481685, -45124.08168602964, -56814.93810593344, -0.062, 0.872, 0.51, 192.0, 0.0, 0.0, 0.0, 0.0, 0.0, 0.0, 0.0, 0.0, 0.0, 1.654161210361684E9, 0.0, 2022-06-02 11:13:30.361
77.0, 30089.225481656253, 5254.448086553584, -74632.40768103692, -68901.08512652936, -54483.24882784472, -55242.51523524705, -45149.38386075305, -56864.4248681575, -0.062, 0.872, 0.51, 192.0, 0.0, 0.0, 0.0, 0.0, 0.0, 0.0, 0.0, 0.0, 0.0, 1.6541612103616881E9, 0.0, 2022-06-02 11:13:30.361
78.0, 30086.029182199145, 5250.46947604054, -74639.22496309578, -68906.49424868754, -54485.41694705689, -55244.884520159314, -45156.044680600724, -56883.37914745559, -0.04, 0.886, 0.522, 192.0, 254.0, 192.0, 27.0, 176.0, 16.0, 80.0, 0.0, 0.0, 0.0, 1.6541612103616922E9, 0.0, 2022-06-02 11:13:30.361
79.0, 30090.56658632357, 5253.688127242104, -74651.3172568461, -68919.79353663845, -54489.797888970126, -55236.346153777384, -45150.948482864915, -56863.709612334926, -0.04, 0.886, 0.522, 192.0, 0.0, 0.0, 0.0, 0.0, 0.0, 0.0, 0.0, 0.0, 0.0, 1.654161210361696E9, 0.0, 2022-06-02 11:13:30.361
80.0, 30101.183664939843, 5259.767801733948, -74637.45917528382, -68903.09678353033, -54482.19829585532, -55221.77281639252, -45144.44412522842, -56826.516309561295, -0.04, 0.886, 0.522, 192.0, 0.0, 0.0, 0.0, 0.0, 0.0, 0.0, 0.0, 0.0, 0.0, 1.6541612103617003E9, 0.0, 2022-06-02 11:13:30.361
81.0, 30107.375098153963, 5260.103077900777, -74614.41452675039, -68892.3679461918, -54473.03408062865, -55225.796130394476, -45143.72886940585, -56848.0186877273, -0.04, 0.886, 0.522, 192.0, 0.0, 0.0, 0.0, 0.0, 0.0, 0.0, 0.0, 0.0, 0.0, 1.654161210361704E9, 0.0, 2022-06-02 11:13:30.361
82.0, 30104.75994405269, 5252.168208619143, -74604.98209059026, -68887.4058589227, -54468.92135964887, -55224.29856351597, -45116.906776059484, -56829.9137747185, -0.04, 0.886, 0.522, 192.0, 0.0, 0.0, 0.0, 0.0, 0.0, 0.0, 0.0, 0.0, 0.0, 1.654161210361708E9, 0.0, 2022-06-02 11:13:30.361
83.0, 30107.084525476042, 5254.537493531406, -74607.66429992489, -68885.260091455, -54479.225513842764, -55202.59501964987, -45132.843569856115, -56788.76421317628, -0.04, 0.886, 0.522, 192.0, 0.0, 0.0, 0.0, 0.0, 0.0, 0.0, 0.0, 0.0, 0.0, 1.654161210361712E9, 0.0, 2022-06-02 11:13:30.361
84.0, 30104.916406263877, 5251.520008029939, -74628.9208089019, -68902.98502480806, -54490.73666223725, -55213.81559536643, -45149.98735785334, -56813.999332666324, -0.04, 0.886, 0.522, 192.0, 0.0, 0.0, 0.0, 0.0, 0.0, 0.0, 0.0, 0.0, 0.0, 1.654161210361716E9, 0.0, 2022-06-02 11:13:30.361
85.0, 30109.67732783286, 5253.688127242104, -74630.37367229148, -68905.08608878686, -54489.39555756993, -55226.354924005864, -45125.869825586065, -56824.10232116012, -0.04, 0.886, 0.522, 192.0, 0.0, 0.0, 0.0, 0.0, 0.0, 0.0, 0.0, 0.0, 0.0, 1.65416121036172E9, 0.0, 2022-06-02 11:13:30.361
86.0, 30103.172970196363, 5248.189598106098, -74621.70119544283, -68897.33003346086, -54478.91258942039, -55233.59688920938, -45119.79015109422, -56831.903079975025, -0.04, 0.886, 0.522, 192.0, 0.0, 0.0, 0.0, 0.0, 0.0, 0.0, 0.0, 0.0, 0.0, 1.6541612103617253E9, 0.0, 2022-06-02 11:13:30.361
87.0, 30101.51894110667, 5249.128371373221, -74617.72258492978, -68890.89273105774, -54480.09723187653, -55241.174130579726, -45151.55197996521, -56857.94286226545, -0.04, 0.886, 0.522, 192.0, 0.0, 0.0, 0.0, 0.0, 0.0, 0.0, 0.0, 0.0, 0.0, 1.6541612103617294E9, 0.0, 2022-06-02 11:13:30.361
88.0, 30102.703583562805, 5249.061316139855, -74620.42714600888, -68890.33393744635, -54473.235246328746, -55228.254822284565, -45117.35381094859, -56820.16841413599, -0.022, 0.89, 0.536, 192.0, 255.0, 80.0, 27.0, 208.0, 16.0, 192.0, 0.0, 0.0, 0.0, 1.6541612103617332E9, 0.0, 2022-06-02 11:13:30.361
89.0, 30105.095220219522, 5248.65898473966, -74635.64868398293, -68900.90631257372, -54476.386842296946, -55228.99242985158, -45106.78143582123, -56833.713571275905, -0.022, 0.89, 0.536, 192.0, 0.0, 0.0, 0.0, 0.0, 0.0, 0.0, 0.0, 0.0, 0.0, 1.6541612103617373E9, 0.0, 2022-06-02 11:13:30.361
90.0, 30101.228368428754, 5243.8086561928585, -74643.56120152012, -68903.83439109736, -54479.11375512049, -55238.98365962311, -45131.681279144446, -56826.27044037228, -0.022, 0.89, 0.536, 192.0, 0.0, 0.0, 0.0, 0.0, 0.0, 0.0, 0.0, 0.0, 0.0, 1.6541612103617413E9, 0.0, 2022-06-02 11:13:30.361
91.0, 30097.80855152709, 5238.354830545763, -74633.94995140433, -68893.19496073663, -54469.7036707048, -55231.07114208593, -45104.613316609066, -56799.22482958136, -0.022, 0.89, 0.536, 192.0, 0.0, 0.0, 0.0, 0.0, 0.0, 0.0, 0.0, 0.0, 0.0, 1.654161210361745E9, 0.0, 2022-06-02 11:13:30.361
92.0, 30104.42466788586, 5242.020516636434, -74623.04230011014, -68878.88984428524, -54459.935958377835, -55225.8855373723, -45119.723095860856, -56805.885649429045, -0.022, 0.89, 0.536, 192.0, 0.0, 0.0, 0.0, 0.0, 0.0, 0.0, 0.0, 0.0, 0.0, 1.6541612103617492E9, 0.0, 2022-06-02 11:13:30.361
93.0, 30105.586958597538, 5244.792132948892, -74630.99952113623, -68884.32131818788, -54460.003013611204, -55233.30631653146, -45134.050564056706, -56835.54641432124, -0.022, 0.89, 0.536, 192.0, 0.0, 0.0, 0.0, 0.0, 0.0, 0.0, 0.0, 0.0, 0.0, 1.6541612103617532E9, 0.0, 2022-06-02 11:13:30.361
94.0, 30104.20115044131, 5242.936938159101, -74651.67488475739, -68900.43692594016, -54476.11862136348, -55243.81163642545, -45144.31001476169, -56857.65228958754, -0.022, 0.89, 0.536, 192.0, 0.0, 0.0, 0.0, 0.0, 0.0, 0.0, 0.0, 0.0, 0.0, 1.6541612103617573E9, 0.0, 2022-06-02 11:13:30.361
95.0, 30103.62000508547, 5241.618185236238, -74652.9712859358, -68898.93935906165, -54489.88729594795, -55251.70180221818, -45150.47909623136, -56855.73003956438, -0.022, 0.89, 0.536, 192.0, 0.0, 0.0, 0.0, 0.0, 0.0, 0.0, 0.0, 0.0, 0.0, 1.6541612103617744E9, 0.0, 2022-06-02 11:13:30.361
96.0, 30116.58401686955, 5259.119601144744, -74621.38827102045, -68867.98219299104, -54467.82612417056, -55234.69212468769, -45156.08938408964, -56850.29856566174, -0.022, 0.89, 0.536, 192.0, 0.0, 0.0, 0.0, 0.0, 0.0, 0.0, 0.0, 0.0, 0.0, 1.6541612103617785E9, 0.0, 2022-06-02 11:13:30.361
97.0, 30098.523807349662, 5244.210987593054, -74624.67397745539, -68872.45254188211, -54462.104077590004, -55239.7883224235, -45147.79688689672, -56869.76693508231, -0.02, 0.89, 0.546, 192.0, 255.0, 96.0, 27.0, 208.0, 17.0, 16.0, 0.0, 0.0, 0.0, 1.6541612103617823E9, 0.0, 2022-06-02 11:13:30.361
98.0, 30098.881435260944, 5245.8650166827465, -74617.47671574078, -68876.47585588407, -54447.083705316036, -55237.73196193361, -45112.83875856862, -56873.25380721734, -0.02, 0.89, 0.546, 192.0, 0.0, 0.0, 0.0, 0.0, 0.0, 0.0, 0.0, 0.0, 0.0, 1.6541612103617866E9, 0.0, 2022-06-02 11:13:30.361
99.0, 30100.96014749529, 5252.458781297062, -74628.38436703496, -68886.5117891445, -54468.38491778194, -55233.619240953834, -45136.26338675778, -56852.243167429355, -0.02, 0.89, 0.546, 192.0, 0.0, 0.0, 0.0, 0.0, 0.0, 0.0, 0.0, 0.0, 0.0, 1.6541612103617907E9, 0.0, 2022-06-02 11:13:30.361
100.0, 30087.81732175557, 5237.371353789729, -74636.52040201669, -68892.63616712525, -54474.57635099606, -55231.540528719495, -45109.53070038923, -56798.01783538078, -0.02, 0.89, 0.546, 192.0, 0.0, 0.0, 0.0, 0.0, 0.0, 0.0, 0.0, 0.0, 0.0, 1.6541612103617947E9, 0.0, 2022-06-02 11:13:30.361
101.0, 30076.641449527917, 5227.357772273752, -74629.1666780909, -68891.63033862476, -54468.049641615115, -55228.813615895946, -45101.77464506324, -56784.42797475195, -0.02, 0.89, 0.546, 192.0, 0.0, 0.0, 0.0, 0.0, 0.0, 0.0, 0.0, 0.0, 0.0, 1.6541612103617985E9, 0.0, 2022-06-02 11:13:30.361
102.0, 30080.37419085195, 5234.800903177369, -74608.93834935884, -68876.27469018397, -54457.87959788795, -55223.94093560469, -45117.91260455998, -56797.43669002494, -0.02, 0.89, 0.546, 192.0, 0.0, 0.0, 0.0, 0.0, 0.0, 0.0, 0.0, 0.0, 0.0, 1.6541612103618028E9, 0.0, 2022-06-02 11:13:30.361
103.0, 30078.27312687315, 5231.4257897646185, -74610.63708193744, -68878.21929195158, -54449.050658828106, -55221.526947203514, -45104.3450956756, -56815.20632686691, -0.02, 0.89, 0.546, 192.0, 0.0, 0.0, 0.0, 0.0, 0.0, 0.0, 0.0, 0.0, 0.0, 1.6541612103618088E9, 0.0, 2022-06-02 11:13:30.361
104.0, 30070.76294073617, 5215.8689756237245, -74643.9188294314, -68902.85091434132, -54472.47528701727, -55237.329630533415, -45131.994203566814, -56850.81265578421, -0.02, 0.89, 0.546, 192.0, 0.0, 0.0, 0.0, 0.0, 0.0, 0.0, 0.0, 0.0, 0.0, 1.6541612103618128E9, 0.0, 2022-06-02 11:13:30.361
105.0, 30075.747379749704, 5213.589097689283, -74645.70696898783, -68900.74985036252, -54484.969912167784, -55247.00793588257, -45155.55294222271, -56863.53079837928, -0.02, 0.89, 0.546, 192.0, 0.0, 0.0, 0.0, 0.0, 0.0, 0.0, 0.0, 0.0, 0.0, 1.6541612108415844E9, 0.0, 2022-06-02 11:13:30.841
106.0, 30081.71529551927, 5218.640591936182, -74628.80905017961, -68881.97438502006, -54471.02242362767, -55240.41417126825, -45147.57336945217, -56853.83014128568, -0.02, 0.89, 0.546, 192.0, 0.0, 0.0, 0.0, 0.0, 0.0, 0.0, 0.0, 0.0, 0.0, 1.654161210841712E9, 0.0, 2022-06-02 11:13:30.841
107.0, 30078.42958908434, 5216.427769235107, -74619.42131750839, -68869.61387033628, -54451.57640595155, -55236.12263633283, -45122.07002902866, -56841.24610915734, -0.012, 0.884, 0.5700000000000001, 192.0, 255.0, 160.0, 27.0, 160.0, 17.0, 208.0, 0.0, 0.0, 0.0, 1.654161210841725E9, 0.0, 2022-06-02 11:13:30.841
108.0, 30086.543272321618, 5222.999182104967, -74622.50585824321, -68862.43896036613, -54444.08857155903, -55214.64260991128, -45091.42578738044, -56811.1606611205, -0.012, 0.884, 0.5700000000000001, 192.0, 0.0, 0.0, 0.0, 0.0, 0.0, 0.0, 0.0, 0.0, 0.0, 1.6541612108417292E9, 0.0, 2022-06-02 11:13:30.841
109.0, 30096.869778259967, 5228.922394385623, -74645.37169282099, -68875.47002738358, -54456.806714154096, -55214.9331825892, -45112.726999846345, -56825.7116467609, -0.012, 0.884, 0.5700000000000001, 192.0, 0.0, 0.0, 0.0, 0.0, 0.0, 0.0, 0.0, 0.0, 0.0, 1.6541612108417337E9, 0.0, 2022-06-02 11:13:30.841
110.0, 30102.301252162608, 5229.8388159082915, -74652.23367836878, -68879.1580652187, -54466.75324043671, -55232.65811594226, -45126.31686047517, -56843.45893185842, -0.012, 0.884, 0.5700000000000001, 192.0, 0.0, 0.0, 0.0, 0.0, 0.0, 0.0, 0.0, 0.0, 0.0, 1.6541612108417377E9, 0.0, 2022-06-02 11:13:30.841
111.0, 30101.04955447311, 5228.587118218794, -74644.36586432051, -68867.98219299104, -54461.56763572308, -55239.31893578994, -45109.64245911151, -56838.608603311615, -0.012, 0.884, 0.5700000000000001, 192.0, 0.0, 0.0, 0.0, 0.0, 0.0, 0.0, 0.0, 0.0, 0.0, 1.654161210841742E9, 0.0, 2022-06-02 11:13:30.841
112.0, 30077.222594883755, 5212.046827321867, -74653.46302431381, -68877.66049834019, -54471.06712711658, -55252.23824408511, -45130.16136052148, -56857.98756575437, -0.012, 0.884, 0.5700000000000001, 192.0, 0.0, 0.0, 0.0, 0.0, 0.0, 0.0, 0.0, 0.0, 0.0, 1.654161210841746E9, 0.0, 2022-06-02 11:13:30.841
113.0, 30082.63171704194, 5221.501615226462, -74650.15496613443, -68868.83155928034, -54457.61137695448, -55242.80580792497, -45135.704593146394, -56862.63672860107, -0.012, 0.884, 0.5700000000000001, 192.0, 0.0, 0.0, 0.0, 0.0, 0.0, 0.0, 0.0, 0.0, 0.0, 1.6541612108417504E9, 0.0, 2022-06-02 11:13:30.841
114.0, 30089.024315956154, 5226.0837228397995, -74667.03053319818, -68881.6614605977, -54470.64244397193, -55240.749447435075, -45207.25252714784, -56907.69784542297, -0.012, 0.884, 0.5700000000000001, 192.0, 0.0, 0.0, 0.0, 0.0, 0.0, 0.0, 0.0, 0.0, 0.0, 1.6541612108417544E9, 0.0, 2022-06-02 11:13:30.841
115.0, 30093.51701659167, 5225.212004806042, -74671.41147511142, -68882.86845479828, -54473.235246328746, -55254.249901086085, -45190.28755310626, -56924.32754329772, -0.012, 0.884, 0.5700000000000001, 192.0, 0.0, 0.0, 0.0, 0.0, 0.0, 0.0, 0.0, 0.0, 0.0, 1.6541612108417585E9, 0.0, 2022-06-02 11:13:30.841
116.0, 30088.33141187804, 5215.801920390359, -74660.45912032832, -68870.35147790331, -54454.25861528619, -55242.67169745824, -45123.12056101806, -56841.87195800209, -0.012, 0.884, 0.5700000000000001, 192.0, 0.0, 0.0, 0.0, 0.0, 0.0, 0.0, 0.0, 0.0, 0.0, 1.6541612108417623E9, 0.0, 2022-06-02 11:13:30.841
117.0, 30076.48498731673, 5205.520117940917, -74663.54366106316, -68874.91123377219, -54466.440316014334, -55246.11386610435, -45111.98939227932, -56814.58047802216, -0.01, 0.854, 0.578, 192.0, 255.0, 176.0, 26.0, 176.0, 18.0, 16.0, 0.0, 0.0, 0.0, 1.6541612108417666E9, 0.0, 2022-06-02 11:13:30.841
118.0, 30073.95924019328, 5206.704760397049, -74667.36580936502, -68879.38158266325, -54476.49860101922, -55242.80580792497, -45145.27113977327, -56824.37054209359, -0.01, 0.854, 0.578, 192.0, 0.0, 0.0, 0.0, 0.0, 0.0, 0.0, 0.0, 0.0, 0.0, 1.6541612108417706E9, 0.0, 2022-06-02 11:13:30.841
119.0, 30071.791120981114, 5202.815556861825, -74686.4765508743, -68899.78872535095, -54491.20604887081, -55256.79799995399, -45175.13307036556, -56874.21493222892, -0.01, 0.854, 0.578, 192.0, 0.0, 0.0, 0.0, 0.0, 0.0, 0.0, 0.0, 0.0, 0.0, 1.6541612108417747E9, 0.0, 2022-06-02 11:13:30.841
120.0, 30068.527766290637, 5194.9700945580125, -74696.80305681266, -68914.89850460274, -54502.53838330965, -55287.41988985776, -45180.5645442682, -56886.01665330132, -0.01, 0.854, 0.578, 192.0, 0.0, 0.0, 0.0, 0.0, 0.0, 0.0, 0.0, 0.0, 0.0, 1.6541612108417788E9, 0.0, 2022-06-02 11:13:30.841
121.0, 30059.38590280842, 5187.705777610037, -74687.66119333044, -68908.57296092188, -54495.251714617225, -55283.70950027818, -45146.209913040395, -56848.55512959423, -0.01, 0.854, 0.578, 192.0, 0.0, 0.0, 0.0, 0.0, 0.0, 0.0, 0.0, 0.0, 0.0, 1.6541612108417828E9, 0.0, 2022-06-02 11:13:30.841
122.0, 30045.28195205712, 5183.16837348561, -74679.45810311534, -68904.70610913112, -54490.58020002607, -55280.13322116533, -45138.92324434796, -56851.259690673316, -0.01, 0.854, 0.578, 192.0, 0.0, 0.0, 0.0, 0.0, 0.0, 0.0, 0.0, 0.0, 0.0, 1.654161210841787E9, 0.0, 2022-06-02 11:13:30.841
123.0, 30033.927265873823, 5175.054690248334, -74690.34340266508, -68914.71969064709, -54503.03012168767, -55290.86205850387, -45151.32846252066, -56887.29070273527, -0.01, 0.854, 0.578, 192.0, 0.0, 0.0, 0.0, 0.0, 0.0, 0.0, 0.0, 0.0, 0.0, 1.654161210841791E9, 0.0, 2022-06-02 11:13:30.841
124.0, 30026.46178322575, 5167.522152366895, -74719.46772569034, -68940.40184502624, -54528.57816560008, -55309.52576512406, -45202.37984685658, -56929.66961022253, -0.01, 0.854, 0.578, 192.0, 0.0, 0.0, 0.0, 0.0, 0.0, 0.0, 0.0, 0.0, 0.0, 1.6541612108417952E9, 0.0, 2022-06-02 11:13:30.841
125.0, 30030.775669905626, 5174.8982280371465, -74716.69610937788, -68938.39018802527, -54536.31186918162, -55315.51603263808, -45199.36236135511, -56901.528763953305, -0.01, 0.854, 0.578, 192.0, 0.0, 0.0, 0.0, 0.0, 0.0, 0.0, 0.0, 0.0, 0.0, 1.6541612108417993E9, 0.0, 2022-06-02 11:13:30.841
126.0, 30029.99335884969, 5178.362748427719, -74702.32393769312, -68926.87903963077, -54532.75794181323, -55301.65795107579, -45199.60823054412, -56897.90778135155, -0.01, 0.854, 0.578, 192.0, 0.0, 0.0, 0.0, 0.0, 0.0, 0.0, 0.0, 0.0, 0.0, 1.6541612108418033E9, 0.0, 2022-06-02 11:13:30.841
127.0, 30021.767916890138, 5172.908922780624, -74698.01005101325, -68925.73910066356, -54527.28176442168, -55300.16038419728, -45213.242794661855, -56918.449034505975, -0.004, 0.8300000000000001, 0.586, 192.0, 255.0, 224.0, 25.0, 240.0, 18.0, 80.0, 0.0, 0.0, 0.0, 1.6541612108418071E9, 0.0, 2022-06-02 11:13:30.841
128.0, 30024.293664013585, 5175.144097226155, -74698.12180973552, -68928.68953093166, -54523.973706242294, -55295.26535216157, -45197.50716656532, -56897.0807668067, -0.004, 0.8300000000000001, 0.586, 192.0, 0.0, 0.0, 0.0, 0.0, 0.0, 0.0, 0.0, 0.0, 0.0, 1.6541612108418148E9, 0.0, 2022-06-02 11:13:30.841
129.0, 30021.36558548994, 5168.304463422831, -74722.19463851389, -68956.04806614495, -54541.9221570399, -55310.7551110691, -45221.66940232151, -56915.856232149155, -0.004, 0.8300000000000001, 0.586, 192.0, 0.0, 0.0, 0.0, 0.0, 0.0, 0.0, 0.0, 0.0, 0.0, 1.654161210841819E9, 0.0, 2022-06-02 11:13:30.841
130.0, 30012.871922596925, 5156.569797583795, -74742.31120852366, -68978.19864490017, -54557.85895083654, -55341.80168411752, -45218.338992397665, -56934.519938769336, -0.004, 0.8300000000000001, 0.586, 192.0, 0.0, 0.0, 0.0, 0.0, 0.0, 0.0, 0.0, 0.0, 0.0, 1.654161210841823E9, 0.0, 2022-06-02 11:13:30.841
131.0, 30019.37628023342, 5160.302538907831, -74731.3365019961, -68968.14035989527, -54555.95905255784, -55345.02033531909, -45210.56058532722, -56928.574374744225, -0.004, 0.8300000000000001, 0.586, 192.0, 0.0, 0.0, 0.0, 0.0, 0.0, 0.0, 0.0, 0.0, 0.0, 1.6541612108418272E9, 0.0, 2022-06-02 11:13:30.841
132.0, 30017.789306377093, 5166.672786077594, -74715.80203959967, -68952.33767656538, -54547.5771483871, -55333.01744854658, -45163.912494649, -56909.9330198685, -0.004, 0.8300000000000001, 0.586, 192.0, 0.0, 0.0, 0.0, 0.0, 0.0, 0.0, 0.0, 0.0, 0.0, 1.6541612108418312E9, 0.0, 2022-06-02 11:13:30.841
133.0, 30010.27912024011, 5161.934216253068, -74719.66889139044, -68962.55242378145, -54540.402238416944, -55327.63067813286, -45192.410968829514, -56911.855269891654, -0.004, 0.8300000000000001, 0.586, 192.0, 0.0, 0.0, 0.0, 0.0, 0.0, 0.0, 0.0, 0.0, 0.0, 1.6541612108418353E9, 0.0, 2022-06-02 11:13:30.841
134.0, 30006.814599849535, 5153.954643482523, -74743.02646434623, -68987.67578454921, -54551.801628089146, -55341.73462888416, -45237.18151297349, -56940.86783419464, -0.004, 0.8300000000000001, 0.586, 192.0, 0.0, 0.0, 0.0, 0.0, 0.0, 0.0, 0.0, 0.0, 0.0, 1.6541612108418393E9, 0.0, 2022-06-02 11:13:30.841
135.0, 30007.194579505278, 5154.893416749646, -74748.12266208204, -68992.45905786265, -54564.720936384314, -55357.58201570297, -45243.70822235444, -56948.06509590925, -0.004, 0.8300000000000001, 0.586, 192.0, 0.0, 0.0, 0.0, 0.0, 0.0, 0.0, 0.0, 0.0, 0.0, 1.6541612108418436E9, 0.0, 2022-06-02 11:13:30.841
136.0, 29997.538625900583, 5148.880797491169, -74739.02550208873, -68990.1344764393, -54558.79772410366, -55364.62281520639, -45228.44198089147, -56934.251717835876, -0.004, 0.8300000000000001, 0.586, 192.0, 0.0, 0.0, 0.0, 0.0, 0.0, 0.0, 0.0, 0.0, 0.0, 1.6541612108418477E9, 0.0, 2022-06-02 11:13:30.841
137.0, 30003.551245159062, 5155.45221036103, -74717.67958613392, -68969.34735409587, -54541.76569482872, -55345.5120736971, -45200.390541600056, -56892.58806617118, 0.002, 0.834, 0.578, 192.0, 0.0, 16.0, 26.0, 16.0, 18.0, 16.0, 0.0, 0.0, 0.0, 1.6541612108418517E9, 0.0, 2022-06-02 11:13:30.841
138.0, 30000.46670442423, 5155.474562105484, -74721.09940303558, -68972.02956343051, -54540.625755861496, -55342.80751261801, -45206.045532947246, -56936.28572658131, 0.002, 0.834, 0.578, 192.0, 0.0, 0.0, 0.0, 0.0, 0.0, 0.0, 0.0, 0.0, 0.0, 1.6541612108418555E9, 0.0, 2022-06-02 11:13:30.841
139.0, 29987.83796880698, 5142.599957299228, -74757.51039475328, -69008.8875900373, -54575.60623593405, -55372.28946355456, -45261.36610047414, -57004.39149193663, 0.002, 0.834, 0.578, 192.0, 0.0, 0.0, 0.0, 0.0, 0.0, 0.0, 0.0, 0.0, 0.0, 1.6541612108418598E9, 0.0, 2022-06-02 11:13:30.841
140.0, 29991.79422757557, 5143.9634137110015, -74754.67172320744, -69008.44055514819, -54585.508058727755, -55370.94835888724, -45250.2796352243, -56961.56554956026, 0.002, 0.834, 0.578, 192.0, 0.0, 0.0, 0.0, 0.0, 0.0, 0.0, 0.0, 0.0, 0.0, 1.6541612108418639E9, 0.0, 2022-06-02 11:13:30.841
141.0, 30010.435582451297, 5160.97309124149, -74720.138278024, -68972.43189483069, -54557.389564202975, -55340.14765502783, -45202.93864046796, -56896.99135982888, 0.002, 0.834, 0.578, 192.0, 0.0, 0.0, 0.0, 0.0, 0.0, 0.0, 0.0, 0.0, 0.0, 1.654161210841868E9, 0.0, 2022-06-02 11:13:30.841
142.0, 30005.965233560233, 5157.866198762203, -74713.8350860876, -68962.82064471491, -54548.18064548739, -55324.14380599783, -45191.74041649585, -56878.46176367543, 0.002, 0.834, 0.578, 192.0, 0.0, 0.0, 0.0, 0.0, 0.0, 0.0, 0.0, 0.0, 0.0, 1.654161210841872E9, 0.0, 2022-06-02 11:13:30.841
143.0, 29990.631936863894, 5147.316175379297, -74730.06245256215, -68977.57279605542, -54564.98915731778, -55329.5082246671, -45234.05226874975, -56921.868851407635, 0.002, 0.834, 0.578, 192.0, 0.0, 0.0, 0.0, 0.0, 0.0, 0.0, 0.0, 0.0, 0.0, 1.654161210841876E9, 0.0, 2022-06-02 11:13:30.841
144.0, 29990.49782639716, 5145.572739311783, -74760.08084536564, -69002.71850856763, -54599.50025075678, -55344.68505915226, -45321.29112735881, -56996.43427091054, 0.002, 0.834, 0.578, 192.0, 0.0, 0.0, 0.0, 0.0, 0.0, 0.0, 0.0, 0.0, 0.0, 1.65416121084188E9, 0.0, 2022-06-02 11:13:30.841
145.0, 29999.483227668195, 5150.288957391854, -74751.69894119489, -69002.18206670071, -54588.99493086278, -55348.551910943024, -45278.755757660365, -56969.76863977536, 0.002, 0.834, 0.578, 192.0, 0.0, 0.0, 0.0, 0.0, 0.0, 0.0, 0.0, 0.0, 0.0, 1.6541612108418844E9, 0.0, 2022-06-02 11:13:30.841
146.0, 30004.22179749272, 5157.083887706267, -74724.60862691505, -68975.15880765424, -54550.751096099746, -55323.51795715308, -45175.22247734338, -56888.56475216922, 0.002, 0.834, 0.578, 192.0, 0.0, 0.0, 0.0, 0.0, 0.0, 0.0, 0.0, 0.0, 0.0, 1.6541612108418884E9, 0.0, 2022-06-02 11:13:30.841
