%OpenBCI Raw EEG Data
%Number of channels = 8
%Sample Rate = 250 Hz
%Board = OpenBCI_GUI$BoardCytonSerial
Sample Index, EXG Channel 0, EXG Channel 1, EXG Channel 2, EXG Channel 3, EXG Channel 4, EXG Channel 5, EXG Channel 6, EXG Channel 7, Accel Channel 0, Accel Channel 1, Accel Channel 2, Other, Other, Other, Other, Other, Other, Other, Analog Channel 0, Analog Channel 1, Analog Channel 2, Timestamp, Other, Timestamp (Formatted)
0.0, 0.0, 0.0, 0.0, 0.0, 0.0, 0.0, 0.0, 0.0, 0.032, 0.914, 0.462, 192.0, 1.0, 0.0, 28.0, 144.0, 14.0, 112.0, 0.0, 0.0, 0.0, 1.654609198553471E9, 0.0, 2022-06-07 15:39:58.553
1.0, 39526.73548778719, 14535.227660563907, -19153.433341197175, -21437.938086740745, -4822.701790654873, -5885.259018571261, 15768.887492285668, 7577.867219193843, 0.032, 0.914, 0.462, 192.0, 0.0, 0.0, 0.0, 0.0, 0.0, 0.0, 0.0, 0.0, 0.0, 1.654609198612966E9, 0.0, 2022-06-07 15:39:58.612
2.0, 39557.96087479125, 14523.895326125066, -19173.03582108448, -21425.935199968244, -4821.315982498644, -5840.622584894012, 15775.50360864444, 7566.0431463769855, 0.032, 0.914, 0.462, 192.0, 0.0, 0.0, 0.0, 0.0, 0.0, 0.0, 0.0, 0.0, 0.0, 1.654609198612969E9, 0.0, 2022-06-07 15:39:58.612
3.0, 39453.08648980695, 14488.020776274298, -19221.874382719325, -21444.017761232586, -4866.332395831632, -5812.727607813788, 15755.655259568128, 7555.604881716357, 0.032, 0.914, 0.462, 192.0, 0.0, 0.0, 0.0, 0.0, 0.0, 0.0, 0.0, 0.0, 0.0, 1.654609198612971E9, 0.0, 2022-06-07 15:39:58.612
4.0, 39359.27621832803, 14479.169485469996, -19225.316551365442, -21464.983697531665, -4896.708416546395, -5848.021012308719, 15731.470672067486, 7548.318213023927, 0.032, 0.914, 0.462, 192.0, 0.0, 0.0, 0.0, 0.0, 0.0, 0.0, 0.0, 0.0, 0.0, 1.654609198612974E9, 0.0, 2022-06-07 15:39:58.612
5.0, 39405.119646205865, 14513.121785297608, -19192.079507360402, -21463.419075419795, -4877.284750614733, -5903.4086350689695, 15733.482329068464, 7550.687497936189, 0.032, 0.914, 0.462, 192.0, 0.0, 0.0, 0.0, 0.0, 0.0, 0.0, 0.0, 0.0, 0.0, 1.654609198612976E9, 0.0, 2022-06-07 15:39:58.612
6.0, 39538.24663618167, 14556.26065209635, -19145.587878893362, -21432.126633182364, -4824.445226722387, -5899.45237630038, 15766.339393417764, 7565.9313876547085, 0.032, 0.914, 0.462, 192.0, 0.0, 0.0, 0.0, 0.0, 0.0, 0.0, 0.0, 0.0, 0.0, 1.654609198612979E9, 0.0, 2022-06-07 15:39:58.612
7.0, 39574.52351743264, 14550.87388168262, -19156.875509843292, -21420.034339432044, -4821.204223776367, -5840.06379128263, 15778.856370312737, 7566.02079463253, 0.032, 0.914, 0.462, 192.0, 0.0, 0.0, 0.0, 0.0, 0.0, 0.0, 0.0, 0.0, 0.0, 1.654609198612981E9, 0.0, 2022-06-07 15:39:58.612
8.0, 39467.10103358043, 14507.958532328432, -19214.028920415512, -21450.879746780367, -4872.792049979216, -5814.269878181205, 15753.353029889231, 7552.16271307024, 0.028, 0.914, 0.46, 192.0, 0.0, 224.0, 28.0, 144.0, 14.0, 96.0, 0.0, 0.0, 0.0, 1.654609198612983E9, 0.0, 2022-06-07 15:39:58.612
9.0, 39366.65229399828, 14483.572779127691, -19233.541993324994, -21461.787398074557, -4908.823062041171, -5847.596329164068, 15729.146090644133, 7546.865349634332, 0.028, 0.914, 0.46, 192.0, 0.0, 0.0, 0.0, 0.0, 0.0, 0.0, 0.0, 0.0, 0.0, 1.654609198612986E9, 0.0, 2022-06-07 15:39:58.612
10.0, 39404.53850085002, 14502.080023536686, -19200.61787374233, -21465.855415565424, -4894.853221756604, -5904.593277525101, 15723.222878363476, 7547.401791501259, 0.028, 0.914, 0.46, 192.0, 0.0, 0.0, 0.0, 0.0, 0.0, 0.0, 0.0, 0.0, 0.0, 1.654609198612988E9, 0.0, 2022-06-07 15:39:58.612
11.0, 39525.77436277561, 14528.499785482858, -19160.630602911784, -21442.207269931707, -4849.143904345501, -5905.4649955588575, 15749.866157754203, 7562.802143430966, 0.028, 0.914, 0.46, 192.0, 0.0, 0.0, 0.0, 0.0, 0.0, 0.0, 0.0, 0.0, 0.0, 1.65460919861299E9, 0.0, 2022-06-07 15:39:58.612
12.0, 39563.57116264953, 14531.181994817496, -19171.314736761422, -21420.794298743524, -4841.097276341591, -5840.86845408302, 15768.12753297419, 7568.390079544793, 0.028, 0.914, 0.46, 192.0, 0.0, 0.0, 0.0, 0.0, 0.0, 0.0, 0.0, 0.0, 0.0, 1.654609198612993E9, 0.0, 2022-06-07 15:39:58.612
13.0, 39450.67250140578, 14494.323968210694, -19223.573115297928, -21443.324857154472, -4883.207962895389, -5809.754825801233, 15758.136303202666, 7558.220035817628, 0.028, 0.914, 0.46, 192.0, 0.0, 0.0, 0.0, 0.0, 0.0, 0.0, 0.0, 0.0, 0.0, 1.654609198612995E9, 0.0, 2022-06-07 15:39:58.612
14.0, 39349.59791297888, 14478.320119180695, -19247.10950220937, -21471.018668534598, -4911.281753931255, -5837.873320326009, 15739.763169260405, 7556.096620094374, 0.028, 0.914, 0.46, 192.0, 0.0, 0.0, 0.0, 0.0, 0.0, 0.0, 0.0, 0.0, 0.0, 1.654609198612998E9, 0.0, 2022-06-07 15:39:58.612
15.0, 39397.65416355779, 14505.589247416168, -19203.65771098825, -21460.602755618427, -4880.190477393923, -5881.503925502769, 15744.300573384831, 7570.312329567949, 0.028, 0.914, 0.46, 192.0, 0.0, 0.0, 0.0, 0.0, 0.0, 0.0, 0.0, 0.0, 0.0, 1.654609198613E9, 0.0, 2022-06-07 15:39:58.613
16.0, 39525.46143835324, 14536.479358253404, -19147.085445771867, -21431.947819226723, -4828.289726768699, -5874.038442854696, 15767.1217044737, 7584.036300663508, 0.028, 0.914, 0.46, 192.0, 0.0, 0.0, 0.0, 0.0, 0.0, 0.0, 0.0, 0.0, 0.0, 1.654609198673231E9, 0.0, 2022-06-07 15:39:58.673
17.0, 39557.62559862442, 14534.847680908166, -19165.25741401403, -21418.49206906463, -4818.209090019356, -5815.700389826345, 15779.191646479565, 7583.298693096483, 0.026000000000000002, 0.912, 0.462, 192.0, 0.0, 208.0, 28.0, 128.0, 14.0, 112.0, 0.0, 0.0, 0.0, 1.654609198673236E9, 0.0, 2022-06-07 15:39:58.673
18.0, 39451.387757228345, 14497.00617754533, -19215.727652994115, -21446.699970567224, -4860.610349251074, -5780.027005675674, 15767.233463195977, 7573.732146469611, 0.026000000000000002, 0.912, 0.462, 192.0, 0.0, 0.0, 0.0, 0.0, 0.0, 0.0, 0.0, 0.0, 0.0, 1.654609198673239E9, 0.0, 2022-06-07 15:39:58.673
19.0, 39354.24707582558, 14467.8147992867, -19238.41467361625, -21476.87482558189, -4893.06508220018, -5819.634296850479, 15744.747608273938, 7565.126724854318, 0.026000000000000002, 0.912, 0.462, 192.0, 0.0, 0.0, 0.0, 0.0, 0.0, 0.0, 0.0, 0.0, 0.0, 1.654609198673241E9, 0.0, 2022-06-07 15:39:58.673
20.0, 39385.405407596285, 14481.896398293544, -19207.882190690303, -21473.566767402503, -4875.608369780585, -5878.7546609347655, 15738.712637271004, 7566.02079463253, 0.026000000000000002, 0.912, 0.462, 192.0, 0.0, 0.0, 0.0, 0.0, 0.0, 0.0, 0.0, 0.0, 0.0, 1.654609198673243E9, 0.0, 2022-06-07 15:39:58.673
21.0, 39506.618917777414, 14515.625180676601, -19167.447884970654, -21453.316086925995, -4831.106046570068, -5887.874172672531, 15751.900166499636, 7569.485315023103, 0.026000000000000002, 0.912, 0.462, 192.0, 0.0, 0.0, 0.0, 0.0, 0.0, 0.0, 0.0, 0.0, 0.0, 1.654609198673245E9, 0.0, 2022-06-07 15:39:58.673
22.0, 39556.21743872374, 14526.599887204158, -19168.766637893517, -21427.321008124472, -4811.771787616228, -5826.809206820632, 15773.0225650099, 7573.9109604252535, 0.026000000000000002, 0.912, 0.462, 192.0, 0.0, 0.0, 0.0, 0.0, 0.0, 0.0, 0.0, 0.0, 0.0, 1.654609198673257E9, 0.0, 2022-06-07 15:39:58.673
23.0, 39450.694853150235, 14483.796296572245, -19224.04250193149, -21451.19267120274, -4859.895093428504, -5797.237848906261, 15756.325811901786, 7558.8235329179215, 0.026000000000000002, 0.912, 0.462, 192.0, 0.0, 0.0, 0.0, 0.0, 0.0, 0.0, 0.0, 0.0, 0.0, 1.654609198673259E9, 0.0, 2022-06-07 15:39:58.673
24.0, 39344.90404664326, 14457.95767998191, -19251.848072033892, -21487.78247687608, -4906.453777128909, -5841.762523861233, 15727.894392954637, 7542.171483298717, 0.026000000000000002, 0.912, 0.462, 192.0, 0.0, 0.0, 0.0, 0.0, 0.0, 0.0, 0.0, 0.0, 0.0, 1.654609198673261E9, 0.0, 2022-06-07 15:39:58.673
25.0, 39387.93115471973, 14489.048956519242, -19211.883152947805, -21479.48997968316, -4882.939741961925, -5895.429062298425, 15767.792256807359, 7555.023736360519, 0.026000000000000002, 0.912, 0.462, 192.0, 0.0, 0.0, 0.0, 0.0, 0.0, 0.0, 0.0, 0.0, 0.0, 1.654609198673263E9, 0.0, 2022-06-07 15:39:58.673
26.0, 39520.29818538406, 14532.612506462636, -19163.491626202063, -21444.598906588424, -4822.880604610516, -5896.323132076637, 15784.489009915473, 7578.157791871762, 0.026000000000000002, 0.912, 0.462, 192.0, 0.0, 0.0, 0.0, 0.0, 0.0, 0.0, 0.0, 0.0, 0.0, 1.654609198673265E9, 0.0, 2022-06-07 15:39:58.673
27.0, 39567.728587118225, 14531.45021575096, -19173.348745506853, -21430.606714559402, -4813.582278917108, -5834.63231737999, 15777.828190067792, 7579.163620372251, 0.028, 0.906, 0.462, 192.0, 0.0, 224.0, 28.0, 80.0, 14.0, 112.0, 0.0, 0.0, 0.0, 1.654609198673268E9, 0.0, 2022-06-07 15:39:58.673
28.0, 39467.92804812528, 14497.319101967705, -19215.258266360554, -21438.027493718564, -4863.605483008085, -5802.1552326864285, 15764.55125386134, 7564.322062053927, 0.028, 0.906, 0.462, 192.0, 0.0, 0.0, 0.0, 0.0, 0.0, 0.0, 0.0, 0.0, 0.0, 1.65460919867327E9, 0.0, 2022-06-07 15:39:58.673
29.0, 39360.88554392881, 14478.767154069801, -19243.62263007434, -21471.778627846077, -4910.141814964034, -5846.970480319319, 15730.978933689468, 7548.385268257292, 0.028, 0.906, 0.462, 192.0, 0.0, 0.0, 0.0, 0.0, 0.0, 0.0, 0.0, 0.0, 0.0, 1.654609198673272E9, 0.0, 2022-06-07 15:39:58.673
30.0, 39390.45690184318, 14506.952703827943, -19209.066833146433, -21471.018668534598, -4892.595695566618, -5897.21720185485, 15734.041122679846, 7558.376498028815, 0.028, 0.906, 0.462, 192.0, 0.0, 0.0, 0.0, 0.0, 0.0, 0.0, 0.0, 0.0, 0.0, 1.654609198673274E9, 0.0, 2022-06-07 15:39:58.673
31.0, 39513.10092366945, 14536.233489064394, -19162.239928512565, -21441.156737942307, -4842.3713257755435, -5897.440719299402, 15764.081867227778, 7573.754498214066, 0.028, 0.906, 0.462, 192.0, 0.0, 0.0, 0.0, 0.0, 0.0, 0.0, 0.0, 0.0, 0.0, 1.654609198733542E9, 0.0, 2022-06-07 15:39:58.733
32.0, 39558.16204049135, 14531.137291328585, -19163.245757013054, -21415.228714374152, -4824.71344765585, -5833.3806196904925, 15781.31506220282, 7581.443498306692, 0.028, 0.906, 0.462, 192.0, 0.0, 0.0, 0.0, 0.0, 0.0, 0.0, 0.0, 0.0, 0.0, 1.654609198733555E9, 0.0, 2022-06-07 15:39:58.733
33.0, 39457.28861776455, 14490.68063386448, -19215.727652994115, -21433.49008959414, -4872.881456957038, -5799.696540796344, 15757.957489247025, 7568.658300478256, 0.028, 0.906, 0.462, 192.0, 0.0, 0.0, 0.0, 0.0, 0.0, 0.0, 0.0, 0.0, 0.0, 1.654609198733562E9, 0.0, 2022-06-07 15:39:58.733
34.0, 39352.59304673589, 14474.252101689828, -19248.47295862114, -21467.57649988848, -4918.434312156954, -5838.767390104222, 15728.520241799384, 7556.275434050016, 0.028, 0.906, 0.462, 192.0, 0.0, 0.0, 0.0, 0.0, 0.0, 0.0, 0.0, 0.0, 0.0, 1.654609198733565E9, 0.0, 2022-06-07 15:39:58.733
35.0, 39386.21007039667, 14501.856506092134, -19211.458469803154, -21465.67660160978, -4900.709378803895, -5890.601085496079, 15733.392922090641, 7565.886684165798, 0.028, 0.906, 0.462, 192.0, 0.0, 0.0, 0.0, 0.0, 0.0, 0.0, 0.0, 0.0, 0.0, 1.654609198733569E9, 0.0, 2022-06-07 15:39:58.733
36.0, 39514.7773045036, 14532.076064595709, -19160.004754067035, -21430.42790060376, -4839.3761920185325, -5884.119079604039, 15765.758248061926, 7585.355053586371, 0.028, 0.906, 0.462, 192.0, 0.0, 0.0, 0.0, 0.0, 0.0, 0.0, 0.0, 0.0, 0.0, 1.654609198733576E9, 0.0, 2022-06-07 15:39:58.733
37.0, 39555.07749975652, 14519.424977234004, -19173.46050422913, -21415.51928705207, -4827.865043624049, -5829.603174877546, 15777.671727856605, 7579.45419305017, 0.03, 0.906, 0.468, 192.0, 0.0, 240.0, 28.0, 80.0, 14.0, 160.0, 0.0, 0.0, 0.0, 1.654609198733579E9, 0.0, 2022-06-07 15:39:58.733
38.0, 39460.0155305881, 14492.021738531797, -19225.584772298906, -21433.49008959414, -4869.81926796666, -5791.918133725898, 15763.746591060948, 7571.07228887943, 0.03, 0.906, 0.468, 192.0, 0.0, 0.0, 0.0, 0.0, 0.0, 0.0, 0.0, 0.0, 0.0, 1.654609198733582E9, 0.0, 2022-06-07 15:39:58.733
39.0, 39349.37439553432, 14475.570854612692, -19245.388417886308, -21474.72905811418, -4915.617992355585, -5830.921927800408, 15736.410407592108, 7562.7350881976, 0.03, 0.906, 0.468, 192.0, 0.0, 0.0, 0.0, 0.0, 0.0, 0.0, 0.0, 0.0, 0.0, 1.654609198733586E9, 0.0, 2022-06-07 15:39:58.733
40.0, 39385.85244248539, 14501.945913069954, -19202.69658597667, -21456.378275916373, -4891.2545908993, -5875.625416711023, 15746.602803063728, 7577.084908137907, 0.03, 0.906, 0.468, 192.0, 0.0, 0.0, 0.0, 0.0, 0.0, 0.0, 0.0, 0.0, 0.0, 1.654609198733588E9, 0.0, 2022-06-07 15:39:58.733
41.0, 39512.45272308025, 14536.322896042217, -19156.383771465276, -21424.81761274548, -4837.319831528644, -5876.45243125587, 15779.191646479565, 7594.899248468787, 0.03, 0.906, 0.468, 192.0, 0.0, 0.0, 0.0, 0.0, 0.0, 0.0, 0.0, 0.0, 0.0, 1.65460919873359E9, 0.0, 2022-06-07 15:39:58.733
42.0, 39552.79762182208, 14530.913773884033, -19166.88909135927, -21409.752536982603, -4828.602651191074, -5817.622639849501, 15788.735841361982, 7588.93133269922, 0.03, 0.906, 0.468, 192.0, 0.0, 0.0, 0.0, 0.0, 0.0, 0.0, 0.0, 0.0, 0.0, 1.654609198733592E9, 0.0, 2022-06-07 15:39:58.733
43.0, 39456.55101019752, 14495.15098275554, -19218.94630419568, -21433.445386105228, -4874.066099413169, -5788.587723802058, 15760.103256714734, 7568.59124524489, 0.03, 0.906, 0.468, 192.0, 0.0, 0.0, 0.0, 0.0, 0.0, 0.0, 0.0, 0.0, 0.0, 1.654609198733602E9, 0.0, 2022-06-07 15:39:58.733
44.0, 39346.06633735494, 14474.855598790122, -19242.437987618207, -21463.24026146415, -4913.293410932232, -5821.265974195716, 15740.92545997208, 7566.378422543815, 0.03, 0.906, 0.468, 192.0, 0.0, 0.0, 0.0, 0.0, 0.0, 0.0, 0.0, 0.0, 0.0, 1.654609198733604E9, 0.0, 2022-06-07 15:39:58.733
45.0, 39372.061416156466, 14492.513476909815, -19211.257304103056, -21463.24026146415, -4891.746329277316, -5878.195867323383, 15746.669858297093, 7572.413393546748, 0.03, 0.906, 0.468, 192.0, 0.0, 0.0, 0.0, 0.0, 0.0, 0.0, 0.0, 0.0, 0.0, 1.654609198733607E9, 0.0, 2022-06-07 15:39:58.733
46.0, 39498.46053105123, 14526.689294181979, -19164.765675636016, -21435.81467101749, -4833.900014626982, -5888.20944883936, 15769.31217543032, 7580.080041894918, 0.03, 0.906, 0.468, 192.0, 0.0, 0.0, 0.0, 0.0, 0.0, 0.0, 0.0, 0.0, 0.0, 1.654609198793837E9, 0.0, 2022-06-07 15:39:58.793
47.0, 39548.10375548646, 14522.129538313096, -19173.482855973587, -21415.34047309643, -4819.349028986577, -5827.926794043397, 15811.400510239662, 7581.287036095505, 0.032, 0.91, 0.468, 192.0, 1.0, 0.0, 28.0, 112.0, 14.0, 160.0, 0.0, 0.0, 0.0, 1.654609198793844E9, 0.0, 2022-06-07 15:39:58.793
48.0, 39445.106917036406, 14489.20541873043, -19225.94240021019, -21436.75344428461, -4867.070003398658, -5796.947276228342, 15778.49874240145, 7562.802143430966, 0.032, 0.91, 0.468, 192.0, 0.0, 0.0, 0.0, 0.0, 0.0, 0.0, 0.0, 0.0, 0.0, 1.654609198793847E9, 0.0, 2022-06-07 15:39:58.793
49.0, 39343.74175593159, 14476.844904046644, -19245.61193533086, -21469.58815688946, -4903.324532905166, -5827.591517876568, 15727.670875510083, 7561.550445741469, 0.032, 0.91, 0.468, 192.0, 0.0, 0.0, 0.0, 0.0, 0.0, 0.0, 0.0, 0.0, 0.0, 1.654609198793863E9, 0.0, 2022-06-07 15:39:58.793
50.0, 39379.43749182671, 14495.218037988907, -19218.27575186202, -21456.937069527754, -4884.705529773895, -5882.286236558704, 15727.670875510083, 7566.9819196441085, 0.032, 0.91, 0.468, 192.0, 0.0, 0.0, 0.0, 0.0, 0.0, 0.0, 0.0, 0.0, 0.0, 1.654609198793865E9, 0.0, 2022-06-07 15:39:58.793
51.0, 39507.6247462779, 14532.433692506993, -19178.959033365136, -21431.56783957098, -4836.001078605781, -5890.019940140241, 15756.325811901786, 7577.554294771468, 0.032, 0.91, 0.468, 192.0, 0.0, 0.0, 0.0, 0.0, 0.0, 0.0, 0.0, 0.0, 0.0, 1.654609198793867E9, 0.0, 2022-06-07 15:39:58.793
52.0, 39555.99392127919, 14529.259744794339, -19173.84048388487, -21409.43961256023, -4819.3043254976665, -5835.01229703573, 15787.88647507268, 7583.477507052125, 0.032, 0.91, 0.468, 192.0, 0.0, 0.0, 0.0, 0.0, 0.0, 0.0, 0.0, 0.0, 0.0, 1.654609198793869E9, 0.0, 2022-06-07 15:39:58.793
53.0, 39451.29835025053, 14489.25012221934, -19232.022074702036, -21435.34528438393, -4871.070965656158, -5810.403026390437, 15764.59595735025, 7559.382326529304, 0.032, 0.91, 0.468, 192.0, 0.0, 0.0, 0.0, 0.0, 0.0, 0.0, 0.0, 0.0, 0.0, 1.654609198793872E9, 0.0, 2022-06-07 15:39:58.793
54.0, 39337.25975003955, 14468.306537664717, -19259.313554681965, -21469.990488289655, -4915.081550488657, -5842.813055850632, 15735.181061647067, 7544.227843788606, 0.032, 0.91, 0.468, 192.0, 0.0, 0.0, 0.0, 0.0, 0.0, 0.0, 0.0, 0.0, 0.0, 1.654609198793874E9, 0.0, 2022-06-07 15:39:58.793
55.0, 39366.29466608699, 14495.642721133558, -19220.9356094522, -21469.29758421154, -4897.557782835696, -5899.07239664464, 15737.662105281604, 7553.056782848452, 0.032, 0.91, 0.468, 192.0, 0.0, 0.0, 0.0, 0.0, 0.0, 0.0, 0.0, 0.0, 0.0, 1.654609198793876E9, 0.0, 2022-06-07 15:39:58.793
56.0, 39498.59464151796, 14521.615448190625, -19169.906576860736, -21434.361807627894, -4847.512227000264, -5902.559268779668, 15755.78937003486, 7571.07228887943, 0.032, 0.91, 0.468, 192.0, 0.0, 0.0, 0.0, 0.0, 0.0, 0.0, 0.0, 0.0, 0.0, 1.654609198793878E9, 0.0, 2022-06-07 15:39:58.793
57.0, 39558.31850270254, 14524.185898802985, -19163.55868143543, -21405.930388680743, -4826.188662789901, -5836.465160425325, 15773.804876065837, 7579.230675605617, 0.028, 0.912, 0.466, 192.0, 0.0, 224.0, 28.0, 128.0, 14.0, 144.0, 0.0, 0.0, 0.0, 1.654609198793881E9, 0.0, 2022-06-07 15:39:58.793
58.0, 39463.90473412332, 14490.747689097845, -19210.676158747217, -21424.348226111917, -4875.228390124845, -5802.043473964152, 15758.181006691577, 7567.183085344206, 0.028, 0.912, 0.466, 192.0, 0.0, 0.0, 0.0, 0.0, 0.0, 0.0, 0.0, 0.0, 0.0, 1.654609198793883E9, 0.0, 2022-06-07 15:39:58.793
59.0, 39351.54251474649, 14469.401773143027, -19235.844223003893, -21455.953592771722, -4916.959097022903, -5834.6099656355345, 15734.286991868854, 7556.275434050016, 0.028, 0.912, 0.466, 192.0, 0.0, 0.0, 0.0, 0.0, 0.0, 0.0, 0.0, 0.0, 0.0, 1.654609198793885E9, 0.0, 2022-06-07 15:39:58.793
60.0, 39382.56673605046, 14496.49208742286, -19201.131963864802, -21461.34036318545, -4897.535431091241, -5888.432966283914, 15730.01780867789, 7562.891550408787, 0.028, 0.912, 0.466, 192.0, 0.0, 0.0, 0.0, 0.0, 0.0, 0.0, 0.0, 0.0, 0.0, 1.654609198793887E9, 0.0, 2022-06-07 15:39:58.793
61.0, 39508.25059512265, 14529.326800027706, -19161.9717075791, -21443.749540299123, -4846.90872989997, -5894.3114750756595, 15758.538634602863, 7580.415318061748, 0.028, 0.912, 0.466, 192.0, 0.0, 0.0, 0.0, 0.0, 0.0, 0.0, 0.0, 0.0, 0.0, 1.654609198853339E9, 0.0, 2022-06-07 15:39:58.853
62.0, 39556.57506663502, 14527.471605237915, -19159.624774411295, -21408.031452659543, -4826.233366278811, -5830.050209766652, 15777.448210412053, 7588.663111765756, 0.028, 0.912, 0.466, 192.0, 0.0, 0.0, 0.0, 0.0, 0.0, 0.0, 0.0, 0.0, 0.0, 1.654609198853344E9, 0.0, 2022-06-07 15:39:58.853
63.0, 39454.38289098536, 14486.187933228963, -19202.69658597667, -21430.8078802595, -4872.993215679314, -5793.415700604403, 15760.729105559481, 7572.145172613285, 0.028, 0.912, 0.466, 192.0, 0.0, 0.0, 0.0, 0.0, 0.0, 0.0, 0.0, 0.0, 0.0, 1.654609198853346E9, 0.0, 2022-06-07 15:39:58.853
64.0, 39348.212104822655, 14462.919767250987, -19233.877269491826, -21459.99925851813, -4909.940649263936, -5820.595421862057, 15742.02069545039, 7566.02079463253, 0.028, 0.912, 0.466, 192.0, 0.0, 0.0, 0.0, 0.0, 0.0, 0.0, 0.0, 0.0, 0.0, 1.654609198853356E9, 0.0, 2022-06-07 15:39:58.853
65.0, 39374.36364583536, 14488.981901285875, -19207.770431968027, -21465.207214976217, -4891.746329277316, -5879.089937101596, 15738.511471570906, 7569.798239445477, 0.028, 0.912, 0.466, 192.0, 0.0, 0.0, 0.0, 0.0, 0.0, 0.0, 0.0, 0.0, 0.0, 1.654609198853358E9, 0.0, 2022-06-07 15:39:58.853
66.0, 39499.64517350736, 14530.198518061463, -19158.30602148843, -21432.171336671276, -4839.420895507443, -5878.933474890408, 15765.244157939454, 7591.099451911385, 0.028, 0.912, 0.466, 192.0, 0.0, 0.0, 0.0, 0.0, 0.0, 0.0, 0.0, 0.0, 0.0, 1.65460919885336E9, 0.0, 2022-06-07 15:39:58.853
67.0, 39551.30005494357, 14527.292791282272, -19161.07763780089, -21406.802106714502, -4818.946697586382, -5815.1862997038725, 15785.450134927052, 7596.374463602837, 0.03, 0.91, 0.468, 192.0, 0.0, 240.0, 28.0, 112.0, 14.0, 160.0, 0.0, 0.0, 0.0, 1.654609198853362E9, 0.0, 2022-06-07 15:39:58.853
68.0, 39461.64720793333, 14493.519305410304, -19213.60423727086, -21430.986694215142, -4860.431535295432, -5784.340892355549, 15772.93315803208, 7581.108222139862, 0.03, 0.91, 0.468, 192.0, 0.0, 0.0, 0.0, 0.0, 0.0, 0.0, 0.0, 0.0, 0.0, 1.654609198853365E9, 0.0, 2022-06-07 15:39:58.853
69.0, 39350.223761823625, 14469.20060744293, -19240.649848061785, -21469.834026078468, -4902.586925338141, -5821.534195129179, 15750.246137409942, 7572.748669713577, 0.03, 0.91, 0.468, 192.0, 0.0, 0.0, 0.0, 0.0, 0.0, 0.0, 0.0, 0.0, 0.0, 1.654609198853367E9, 0.0, 2022-06-07 15:39:58.853
70.0, 39376.77763423653, 14490.166543742007, -19207.211638356643, -21456.557089872014, -4886.672483285962, -5877.25709405626, 15747.943907731047, 7579.9012279392755, 0.03, 0.91, 0.468, 192.0, 0.0, 0.0, 0.0, 0.0, 0.0, 0.0, 0.0, 0.0, 0.0, 1.654609198853369E9, 0.0, 2022-06-07 15:39:58.853
71.0, 39498.72875198469, 14523.87297438061, -19160.94352733416, -21428.930333725257, -4839.130322829524, -5890.154050606972, 15773.469599899006, 7589.512478055058, 0.03, 0.91, 0.468, 192.0, 0.0, 0.0, 0.0, 0.0, 0.0, 0.0, 0.0, 0.0, 0.0, 1.654609198853371E9, 0.0, 2022-06-07 15:39:58.853
72.0, 39552.484697399705, 14528.119805827118, -19171.739419906073, -21409.596074771416, -4825.495758711786, -5834.207634235338, 15820.900001633168, 7588.21607687665, 0.03, 0.91, 0.468, 192.0, 0.0, 0.0, 0.0, 0.0, 0.0, 0.0, 0.0, 0.0, 0.0, 1.654609198853374E9, 0.0, 2022-06-07 15:39:58.853
73.0, 39463.703568423225, 14486.925540795988, -19221.069719918934, -21430.316141881485, -4872.881456957038, -5800.836479763566, 15761.332602659775, 7569.440611534192, 0.03, 0.91, 0.468, 192.0, 0.0, 0.0, 0.0, 0.0, 0.0, 0.0, 0.0, 0.0, 0.0, 1.654609198853376E9, 0.0, 2022-06-07 15:39:58.853
74.0, 39365.13237537532, 14475.839075546155, -19230.770377012537, -21459.753389329122, -4916.065027244691, -5830.743113844766, 15731.649486023127, 7560.902245152265, 0.03, 0.91, 0.468, 192.0, 0.0, 0.0, 0.0, 0.0, 0.0, 0.0, 0.0, 0.0, 0.0, 1.654609198853378E9, 0.0, 2022-06-07 15:39:58.853
75.0, 39391.21686115466, 14500.247180491351, -19202.65188248776, -21460.82627306298, -4896.060215957191, -5887.628303483522, 15730.353084844719, 7560.835189918899, 0.03, 0.91, 0.468, 192.0, 0.0, 0.0, 0.0, 0.0, 0.0, 0.0, 0.0, 0.0, 0.0, 1.65460919885338E9, 0.0, 2022-06-07 15:39:58.853
76.0, 39514.933766714785, 14537.529890242802, -19154.707390631127, -21431.679598293256, -4844.33827928761, -5899.698245489389, 15752.727181044482, 7570.491143523592, 0.03, 0.91, 0.468, 192.0, 0.0, 0.0, 0.0, 0.0, 0.0, 0.0, 0.0, 0.0, 0.0, 1.654609198912935E9, 0.0, 2022-06-07 15:39:58.912
77.0, 39574.568220921545, 14548.057561881253, -19147.197204494143, -21402.599978756905, -4820.62307842053, -5838.074486026107, 15782.946739548057, 7577.934274427209, 0.022, 0.914, 0.468, 192.0, 0.0, 176.0, 28.0, 144.0, 14.0, 160.0, 0.0, 0.0, 0.0, 1.65460919891294E9, 0.0, 2022-06-07 15:39:58.912
78.0, 39482.54608899904, 14506.908000339032, -19200.79668769797, -21422.94006621123, -4868.209942365878, -5802.334046642071, 15760.840864281758, 7556.722468939122, 0.022, 0.914, 0.468, 192.0, 0.0, 0.0, 0.0, 0.0, 0.0, 0.0, 0.0, 0.0, 0.0, 1.654609198912943E9, 0.0, 2022-06-07 15:39:58.912
79.0, 39372.463747556656, 14488.020776274298, -19227.395263599785, -21455.707723582713, -4911.080588231157, -5831.39131443397, 15731.783596489859, 7544.92074786672, 0.022, 0.914, 0.468, 192.0, 0.0, 0.0, 0.0, 0.0, 0.0, 0.0, 0.0, 0.0, 0.0, 1.654609198912945E9, 0.0, 2022-06-07 15:39:58.912
80.0, 39403.37621013835, 14510.327817240694, -19200.908446420246, -21462.86028180841, -4899.144756692023, -5887.695358716889, 15729.34725634423, 7547.960585112642, 0.022, 0.914, 0.468, 192.0, 0.0, 0.0, 0.0, 0.0, 0.0, 0.0, 0.0, 0.0, 0.0, 1.654609198912948E9, 0.0, 2022-06-07 15:39:58.912
81.0, 39528.367165132426, 14544.548338001769, -19151.55579466293, -21441.46966236468, -4846.394639777499, -5893.104480875073, 15756.839902024258, 7567.9206929112315, 0.022, 0.914, 0.468, 192.0, 0.0, 0.0, 0.0, 0.0, 0.0, 0.0, 0.0, 0.0, 0.0, 1.654609198912963E9, 0.0, 2022-06-07 15:39:58.912
82.0, 39579.798529124084, 14547.275250825316, -19150.997001051546, -21399.984824655632, -4824.7581511447615, -5824.864605053021, 15779.370460435208, 7579.387137816804, 0.022, 0.914, 0.468, 192.0, 0.0, 0.0, 0.0, 0.0, 0.0, 0.0, 0.0, 0.0, 0.0, 1.654609198912965E9, 0.0, 2022-06-07 15:39:58.912
83.0, 39487.99991464614, 14511.065424807719, -19209.22329535762, -21420.637836532336, -4870.109840644579, -5788.073633679585, 15761.511416615418, 7561.952777141664, 0.022, 0.914, 0.468, 192.0, 0.0, 0.0, 0.0, 0.0, 0.0, 0.0, 0.0, 0.0, 0.0, 1.654609198912967E9, 0.0, 2022-06-07 15:39:58.912
84.0, 39373.82720396843, 14488.49016290786, -19248.070627220946, -21457.138235227852, -4909.717131819383, -5820.371904417504, 15738.712637271004, 7553.257948548549, 0.022, 0.914, 0.468, 192.0, 0.0, 0.0, 0.0, 0.0, 0.0, 0.0, 0.0, 0.0, 0.0, 1.654609198912969E9, 0.0, 2022-06-07 15:39:58.912
85.0, 39395.06136120098, 14507.623256161602, -19218.432214073207, -21463.262613208608, -4892.930971733448, -5870.1268875750175, 15739.047913437835, 7566.892512666287, 0.022, 0.914, 0.468, 192.0, 0.0, 0.0, 0.0, 0.0, 0.0, 0.0, 0.0, 0.0, 0.0, 1.654609198912971E9, 0.0, 2022-06-07 15:39:58.912
86.0, 39528.858903510445, 14534.311239041239, -19159.75888487803, -21435.43469136175, -4837.900976884482, -5875.7371754333, 15766.607614351227, 7586.986730931608, 0.022, 0.914, 0.468, 192.0, 0.0, 0.0, 0.0, 0.0, 0.0, 0.0, 0.0, 0.0, 0.0, 1.654609198912978E9, 0.0, 2022-06-07 15:39:58.912
87.0, 39583.531270448126, 14522.353055757649, -19167.89491985976, -21419.27438012056, -4823.19352903289, -5815.901555526442, 15787.03710878338, 7592.21703913415, 0.026000000000000002, 0.914, 0.464, 192.0, 0.0, 208.0, 28.0, 144.0, 14.0, 128.0, 0.0, 0.0, 0.0, 1.65460919891298E9, 0.0, 2022-06-07 15:39:58.912
88.0, 39485.74238845616, 14478.29776743624, -19215.928818694214, -21439.033322219053, -4863.20315160789, -5771.890970693943, 15774.207207466032, 7584.148059385784, 0.026000000000000002, 0.914, 0.464, 192.0, 0.0, 0.0, 0.0, 0.0, 0.0, 0.0, 0.0, 0.0, 0.0, 1.654609198912982E9, 0.0, 2022-06-07 15:39:58.912
89.0, 39373.022541168044, 14456.348354381127, -19247.91416500976, -21476.606604648427, -4906.721998062372, -5809.978343245786, 15745.865195496703, 7571.385213301804, 0.026000000000000002, 0.914, 0.464, 192.0, 0.0, 0.0, 0.0, 0.0, 0.0, 0.0, 0.0, 0.0, 0.0, 1.654609198912985E9, 0.0, 2022-06-07 15:39:58.912
90.0, 39406.550157851, 14486.411450673515, -19208.128059879313, -21473.902043569335, -4881.688044272429, -5862.504942715757, 15745.976954218979, 7583.611617518857, 0.026000000000000002, 0.914, 0.464, 192.0, 0.0, 0.0, 0.0, 0.0, 0.0, 0.0, 0.0, 0.0, 0.0, 1.654609198912987E9, 0.0, 2022-06-07 15:39:58.912
91.0, 39539.4312786378, 14526.912811626533, -19158.55189067744, -21444.218926932685, -4827.2391947793, -5872.719689931833, 15768.686326585572, 7596.352111858382, 0.026000000000000002, 0.914, 0.464, 192.0, 0.0, 0.0, 0.0, 0.0, 0.0, 0.0, 0.0, 0.0, 0.0, 1.654609198973266E9, 0.0, 2022-06-07 15:39:58.973
92.0, 39596.31646827656, 14536.367599531128, -19159.55771917793, -21419.632008031847, -4808.977819559314, -5819.097854983551, 15789.585207651284, 7597.939085714708, 0.026000000000000002, 0.914, 0.464, 192.0, 0.0, 0.0, 0.0, 0.0, 0.0, 0.0, 0.0, 0.0, 0.0, 1.654609198973271E9, 0.0, 2022-06-07 15:39:58.973
93.0, 39502.75206598664, 14500.493049680359, -19208.508039535052, -21431.99252271563, -4846.327584544133, -5782.083366165562, 15781.516227902917, 7585.623274519834, 0.026000000000000002, 0.914, 0.464, 192.0, 0.0, 0.0, 0.0, 0.0, 0.0, 0.0, 0.0, 0.0, 0.0, 1.654609198973274E9, 0.0, 2022-06-07 15:39:58.973
94.0, 39390.769826265554, 14475.168523212496, -19237.297086393486, -21461.720342841192, -4892.7298060333505, -5811.878241524487, 15754.694134556548, 7573.866256936343, 0.026000000000000002, 0.914, 0.464, 192.0, 0.0, 0.0, 0.0, 0.0, 0.0, 0.0, 0.0, 0.0, 0.0, 1.654609198973276E9, 0.0, 2022-06-07 15:39:58.973
95.0, 39406.32664040645, 14493.832229832678, -19212.352539581363, -21468.984659789166, -4888.706492031395, -5876.094803344585, 15751.721352543993, 7570.35703305686, 0.026000000000000002, 0.914, 0.464, 192.0, 0.0, 0.0, 0.0, 0.0, 0.0, 0.0, 0.0, 0.0, 0.0, 1.654609198973279E9, 0.0, 2022-06-07 15:39:58.973
96.0, 39540.41475539384, 14537.261669309339, -19160.18356802268, -21444.487147866148, -4835.934023372415, -5888.432966283914, 15811.26639977293, 7584.081004152418, 0.026000000000000002, 0.914, 0.464, 192.0, 0.0, 0.0, 0.0, 0.0, 0.0, 0.0, 0.0, 0.0, 0.0, 1.654609198973281E9, 0.0, 2022-06-07 15:39:58.973
97.0, 39606.28534630362, 14543.810730434745, -19158.618945910806, -21400.09658337791, -4812.3752847165215, -5825.110474242029, 15807.019568326423, 7589.7583472440665, 0.036000000000000004, 0.91, 0.466, 192.0, 1.0, 32.0, 28.0, 112.0, 14.0, 144.0, 0.0, 0.0, 0.0, 1.654609198973284E9, 0.0, 2022-06-07 15:39:58.973
98.0, 39517.77243826061, 14507.422090461505, -19199.969673153126, -21415.116955651876, -4855.4023927929875, -5788.364206357504, 15764.819474794804, 7571.8545999353655, 0.036000000000000004, 0.91, 0.466, 192.0, 0.0, 0.0, 0.0, 0.0, 0.0, 0.0, 0.0, 0.0, 0.0, 1.654609198973286E9, 0.0, 2022-06-07 15:39:58.973
99.0, 39408.15948345178, 14488.758383841323, -19224.42248158723, -21450.857395035913, -4901.156413693001, -5816.1250729709955, 15744.814663507303, 7563.383288786804, 0.036000000000000004, 0.91, 0.466, 192.0, 0.0, 0.0, 0.0, 0.0, 0.0, 0.0, 0.0, 0.0, 0.0, 1.654609198973289E9, 0.0, 2022-06-07 15:39:58.973
100.0, 39429.572454639965, 14516.608657432636, -19189.397298025764, -21453.070217736986, -4882.112727417079, -5863.3766607495145, 15745.239346651953, 7572.234579591105, 0.036000000000000004, 0.91, 0.466, 192.0, 0.0, 0.0, 0.0, 0.0, 0.0, 0.0, 0.0, 0.0, 0.0, 1.654609198973291E9, 0.0, 2022-06-07 15:39:58.973
101.0, 39554.56340963404, 14559.524006786825, -19140.60343987983, -21423.163583655787, -4822.992363332792, -5871.043309097685, 15770.966204520013, 7586.539696042502, 0.036000000000000004, 0.91, 0.466, 192.0, 0.0, 0.0, 0.0, 0.0, 0.0, 0.0, 0.0, 0.0, 0.0, 1.654609198973294E9, 0.0, 2022-06-07 15:39:58.973
102.0, 39604.34074453601, 14556.618280007635, -19151.399332451743, -21407.0032724146, -4812.911726583448, -5814.180471203384, 15782.522056403406, 7583.745727985589, 0.036000000000000004, 0.91, 0.466, 192.0, 0.0, 0.0, 0.0, 0.0, 0.0, 0.0, 0.0, 0.0, 0.0, 1.654609198973296E9, 0.0, 2022-06-07 15:39:58.973
103.0, 39518.59945280546, 14517.010988832832, -19203.56830401043, -21422.604790044403, -4856.385869549021, -5773.634406761456, 15763.366611405208, 7568.792410944988, 0.036000000000000004, 0.91, 0.466, 192.0, 0.0, 0.0, 0.0, 0.0, 0.0, 0.0, 0.0, 0.0, 0.0, 1.654609198973299E9, 0.0, 2022-06-07 15:39:58.973
104.0, 39403.86794851637, 14491.842924576154, -19228.37874035582, -21452.466720636694, -4897.334265391143, -5797.506069839725, 15741.707771028015, 7563.807971931455, 0.036000000000000004, 0.91, 0.466, 192.0, 0.0, 0.0, 0.0, 0.0, 0.0, 0.0, 0.0, 0.0, 0.0, 1.654609198973302E9, 0.0, 2022-06-07 15:39:58.973
105.0, 39414.7532480661, 14512.853564364144, -19196.70631846265, -21455.931241027265, -4881.196305894412, -5848.333936731093, 15742.31126812831, 7573.352166813871, 0.036000000000000004, 0.91, 0.466, 192.0, 0.0, 0.0, 0.0, 0.0, 0.0, 0.0, 0.0, 0.0, 0.0, 1.654609198973317E9, 0.0, 2022-06-07 15:39:58.973
106.0, 39535.05033672456, 14550.560957260246, -19143.50916665902, -21423.61061854489, -4821.695962154385, -5845.227044251806, 15782.812629081325, 7601.358902616371, 0.03, 0.908, 0.464, 192.0, 0.0, 240.0, 28.0, 96.0, 14.0, 128.0, 0.0, 0.0, 0.0, 1.65460919903359E9, 0.0, 2022-06-07 15:39:59.033
107.0, 39599.378657266934, 14555.768913718333, -19137.653009611728, -21395.335661808927, -4798.785424087694, -5780.921075453887, 15810.12646080571, 7612.244202166105, 0.03, 0.908, 0.464, 192.0, 0.0, 0.0, 0.0, 0.0, 0.0, 0.0, 0.0, 0.0, 0.0, 1.654609199033605E9, 0.0, 2022-06-07 15:39:59.033
108.0, 39502.997935175656, 14512.831212619689, -19192.59359748287, -21424.281170878552, -4849.367421790054, -5748.108714593496, 15780.622158124705, 7590.607713533368, 0.03, 0.908, 0.464, 192.0, 0.0, 0.0, 0.0, 0.0, 0.0, 0.0, 0.0, 0.0, 0.0, 1.654609199033607E9, 0.0, 2022-06-07 15:39:59.033
109.0, 39382.387922094815, 14484.15392448353, -19232.46910959114, -21458.09936023943, -4895.970808979369, -5785.883162722965, 15744.1664629181, 7573.151001113773, 0.03, 0.908, 0.464, 192.0, 0.0, 0.0, 0.0, 0.0, 0.0, 0.0, 0.0, 0.0, 0.0, 1.65460919903361E9, 0.0, 2022-06-07 15:39:59.033
110.0, 39412.13809396483, 14504.58341891568, -19207.055176145455, -21459.14989222883, -4882.8726867285595, -5846.143465774473, 15750.11202694321, 7579.588303516902, 0.03, 0.908, 0.464, 192.0, 0.0, 0.0, 0.0, 0.0, 0.0, 0.0, 0.0, 0.0, 0.0, 1.654609199033612E9, 0.0, 2022-06-07 15:39:59.033
111.0, 39532.79281053458, 14548.035210136797, -19135.350779932833, -21430.830232003955, -4822.947659843881, -5858.928663602908, 15787.21592273902, 7602.163565416761, 0.03, 0.908, 0.464, 192.0, 0.0, 0.0, 0.0, 0.0, 0.0, 0.0, 0.0, 0.0, 0.0, 1.654609199033615E9, 0.0, 2022-06-07 15:39:59.033
112.0, 39591.17556705184, 14560.485131798403, -19130.947486275138, -21407.09267939242, -4794.113909496536, -5803.67515130939, 15812.048710828867, 7611.640705065812, 0.03, 0.908, 0.464, 192.0, 0.0, 0.0, 0.0, 0.0, 0.0, 0.0, 0.0, 0.0, 0.0, 1.654609199033617E9, 0.0, 2022-06-07 15:39:59.033
113.0, 39506.90949045533, 14528.8797651386, -19185.709260190637, -21424.325874367463, -4828.468540724342, -5768.292339836638, 15799.621140911717, 7597.827326992432, 0.03, 0.908, 0.464, 192.0, 0.0, 0.0, 0.0, 0.0, 0.0, 0.0, 0.0, 0.0, 0.0, 1.65460919903362E9, 0.0, 2022-06-07 15:39:59.033
114.0, 39392.110930932875, 14507.779718372789, -19218.56632453994, -21455.975944516176, -4872.5461807902075, -5798.869526251498, 15768.283995185377, 7580.16944887274, 0.03, 0.908, 0.464, 192.0, 0.0, 0.0, 0.0, 0.0, 0.0, 0.0, 0.0, 0.0, 0.0, 1.654609199033622E9, 0.0, 2022-06-07 15:39:59.033
115.0, 39403.286803160525, 14524.811747647733, -19199.723803964116, -21464.804883576024, -4875.6530732694955, -5854.860646112043, 15750.44730311004, 7575.699099981678, 0.03, 0.908, 0.464, 192.0, 0.0, 0.0, 0.0, 0.0, 0.0, 0.0, 0.0, 0.0, 0.0, 1.654609199033625E9, 0.0, 2022-06-07 15:39:59.033
116.0, 39522.64511855187, 14559.389896320094, -19154.305059230934, -21436.932258240256, -4832.536558215208, -5866.081221828606, 15772.955509776535, 7592.418204834248, 0.026000000000000002, 0.912, 0.464, 192.0, 0.0, 208.0, 28.0, 128.0, 14.0, 128.0, 0.0, 0.0, 0.0, 1.654609199033627E9, 0.0, 2022-06-07 15:39:59.033
117.0, 39589.812110640065, 14557.98173641941, -19149.767655106505, -21406.980920670143, -4808.1508050144685, -5805.53034609918, 15796.1789722656, 7597.6932165257, 0.026000000000000002, 0.912, 0.464, 192.0, 0.0, 0.0, 0.0, 0.0, 0.0, 0.0, 0.0, 0.0, 0.0, 1.65460919903363E9, 0.0, 2022-06-07 15:39:59.033
118.0, 39505.635441021375, 14519.648494678557, -19199.835562686392, -21425.42110984577, -4846.081715355124, -5772.874447449976, 15786.12068726071, 7580.415318061748, 0.026000000000000002, 0.912, 0.464, 192.0, 0.0, 0.0, 0.0, 0.0, 0.0, 0.0, 0.0, 0.0, 0.0, 1.654609199033632E9, 0.0, 2022-06-07 15:39:59.033
119.0, 39392.49091058861, 14498.749613612845, -19234.011379958556, -21456.53473812756, -4893.892096745026, -5800.747072785744, 15754.269451411898, 7564.344413798382, 0.026000000000000002, 0.912, 0.464, 192.0, 0.0, 0.0, 0.0, 0.0, 0.0, 0.0, 0.0, 0.0, 0.0, 1.654609199033635E9, 0.0, 2022-06-07 15:39:59.033
120.0, 39407.3995241403, 14519.626142934101, -19208.977426168614, -21449.225717690675, -4886.560724563686, -5856.537026946191, 15747.809797264314, 7563.942082398186, 0.026000000000000002, 0.912, 0.464, 192.0, 0.0, 0.0, 0.0, 0.0, 0.0, 0.0, 0.0, 0.0, 0.0, 1.654609199033638E9, 0.0, 2022-06-07 15:39:59.033
121.0, 39540.4818106272, 14566.721268501435, -19158.618945910806, -21420.034339432044, -4828.133264557513, -5868.897541629975, 15807.578361937805, 7582.02464366253, 0.026000000000000002, 0.912, 0.464, 192.0, 0.0, 0.0, 0.0, 0.0, 0.0, 0.0, 0.0, 0.0, 0.0, 1.654609199093891E9, 0.0, 2022-06-07 15:39:59.093
122.0, 39611.78387543963, 14573.180922649019, -19144.403236437232, -21394.32983330844, -4803.501642167765, -5810.760654301722, 15786.947701805557, 7588.283132110016, 0.026000000000000002, 0.912, 0.464, 192.0, 0.0, 0.0, 0.0, 0.0, 0.0, 0.0, 0.0, 0.0, 0.0, 1.654609199093898E9, 0.0, 2022-06-07 15:39:59.093
123.0, 39512.72094401371, 14528.365675016126, -19201.958978409646, -21420.77194699907, -4850.842636924104, -5774.841400962044, 15754.425913623085, 7571.87695167982, 0.026000000000000002, 0.912, 0.464, 192.0, 0.0, 0.0, 0.0, 0.0, 0.0, 0.0, 0.0, 0.0, 0.0, 1.654609199093901E9, 0.0, 2022-06-07 15:39:59.093
124.0, 39381.829128483434, 14506.148041027553, -19236.157147426267, -21454.567784615494, -4896.3731403795655, -5803.496337353747, 15724.474576052973, 7559.918768396231, 0.026000000000000002, 0.912, 0.464, 192.0, 0.0, 0.0, 0.0, 0.0, 0.0, 0.0, 0.0, 0.0, 0.0, 1.654609199093903E9, 0.0, 2022-06-07 15:39:59.093
125.0, 39393.20616641118, 14520.408453990038, -19213.648940759773, -21463.10615099742, -4887.097166430613, -5858.6827944139, 15721.16651787359, 7564.679689965212, 0.026000000000000002, 0.912, 0.464, 192.0, 0.0, 0.0, 0.0, 0.0, 0.0, 0.0, 0.0, 0.0, 0.0, 1.654609199093906E9, 0.0, 2022-06-07 15:39:59.093
126.0, 39507.84826372245, 14547.766989203334, -19168.49841696005, -21440.9108687533, -4836.649279194985, -5875.960692877852, 15752.97305023349, 7582.7175477406445, 0.036000000000000004, 0.912, 0.468, 192.0, 1.0, 32.0, 28.0, 128.0, 14.0, 160.0, 0.0, 0.0, 0.0, 1.654609199093908E9, 0.0, 2022-06-07 15:39:59.093
127.0, 39568.555601663065, 14543.855433923654, -19169.83952162737, -21419.564952798482, -4810.453034693365, -5815.923907270898, 15785.98657679398, 7596.776795003033, 0.036000000000000004, 0.912, 0.468, 192.0, 0.0, 0.0, 0.0, 0.0, 0.0, 0.0, 0.0, 0.0, 0.0, 1.654609199093911E9, 0.0, 2022-06-07 15:39:59.093
128.0, 39486.211775089716, 14497.877895579088, -19225.27184787653, -21446.588211844948, -4858.174009105445, -5769.14170612594, 15769.938024275069, 7586.316178597949, 0.036000000000000004, 0.912, 0.468, 192.0, 0.0, 0.0, 0.0, 0.0, 0.0, 0.0, 0.0, 0.0, 0.0, 1.654609199093923E9, 0.0, 2022-06-07 15:39:59.093
129.0, 39369.15568937727, 14474.363860412106, -19256.38547615832, -21460.893328296344, -4900.195288681422, -5791.7169680258, 15747.720390286493, 7580.705890739667, 0.036000000000000004, 0.912, 0.468, 192.0, 0.0, 0.0, 0.0, 0.0, 0.0, 0.0, 0.0, 0.0, 0.0, 1.654609199093926E9, 0.0, 2022-06-07 15:39:59.093
130.0, 39376.1964888807, 14497.609674645624, -19228.51285082255, -21466.39185743235, -4883.565590806674, -5849.20565476485, 15743.920593729092, 7585.5338675420135, 0.036000000000000004, 0.912, 0.468, 192.0, 0.0, 0.0, 0.0, 0.0, 0.0, 0.0, 0.0, 0.0, 0.0, 1.654609199093928E9, 0.0, 2022-06-07 15:39:59.093
131.0, 39504.20492937624, 14536.8816896536, -19173.25933852903, -21443.52602285457, -4828.826168635627, -5863.1978467938725, 15771.748515575948, 7604.93518172922, 0.036000000000000004, 0.912, 0.468, 192.0, 0.0, 0.0, 0.0, 0.0, 0.0, 0.0, 0.0, 0.0, 0.0, 1.654609199093931E9, 0.0, 2022-06-07 15:39:59.093
132.0, 39577.988037823205, 14547.476416525415, -19171.739419906073, -21417.86622021988, -4799.321865954622, -5802.222287919794, 15799.397623467163, 7614.367617889359, 0.036000000000000004, 0.912, 0.468, 192.0, 0.0, 0.0, 0.0, 0.0, 0.0, 0.0, 0.0, 0.0, 0.0, 1.654609199093933E9, 0.0, 2022-06-07 15:39:59.093
133.0, 39496.58298451698, 14513.322950997705, -19214.274789604522, -21438.876860007866, -4841.879587397527, -5765.364261312993, 15785.494838415962, 7597.067367680952, 0.036000000000000004, 0.912, 0.468, 192.0, 0.0, 0.0, 0.0, 0.0, 0.0, 0.0, 0.0, 0.0, 0.0, 1.654609199093936E9, 0.0, 2022-06-07 15:39:59.093
134.0, 39381.31503836096, 14484.131572739074, -19244.024961474533, -21475.645479636845, -4886.918352474971, -5799.294209396149, 15758.35982064722, 7581.845829706887, 0.036000000000000004, 0.912, 0.468, 192.0, 0.0, 0.0, 0.0, 0.0, 0.0, 0.0, 0.0, 0.0, 0.0, 1.654609199093938E9, 0.0, 2022-06-07 15:39:59.093
135.0, 39383.25964012857, 14491.172372242496, -19223.70722576466, -21486.68724139777, -4883.945570462414, -5857.699317657866, 15748.68151529807, 7579.565951772446, 0.036000000000000004, 0.912, 0.468, 192.0, 0.0, 0.0, 0.0, 0.0, 0.0, 0.0, 0.0, 0.0, 0.0, 1.654609199093941E9, 0.0, 2022-06-07 15:39:59.093
136.0, 39500.36042932993, 14529.371503516615, -19175.762733908028, -21463.24026146415, -4836.67163093944, -5877.368852778537, 15771.010908008922, 7590.250085622083, 0.032, 0.91, 0.466, 192.0, 1.0, 0.0, 28.0, 112.0, 14.0, 144.0, 0.0, 0.0, 0.0, 1.654609199153349E9, 0.0, 2022-06-07 15:39:59.153
137.0, 39572.44480519829, 14541.843776922677, -19159.825940111394, -21432.685426793745, -4804.373360201521, -5822.897651540953, 15799.330568233798, 7596.083890924918, 0.032, 0.91, 0.466, 192.0, 0.0, 0.0, 0.0, 0.0, 0.0, 0.0, 0.0, 0.0, 0.0, 1.654609199153354E9, 0.0, 2022-06-07 15:39:59.153
138.0, 39492.984353659675, 14506.05863404973, -19210.22912385811, -21450.499767124627, -4848.696869456395, -5784.676168522378, 15772.97786152099, 7571.83224819091, 0.032, 0.91, 0.466, 192.0, 0.0, 0.0, 0.0, 0.0, 0.0, 0.0, 0.0, 0.0, 0.0, 1.654609199153356E9, 0.0, 2022-06-07 15:39:59.153
139.0, 39369.98270392212, 14469.312366165206, -19253.81502554596, -21494.622110679404, -4902.586925338141, -5819.142558472462, 15734.01877093539, 7547.44649499017, 0.032, 0.91, 0.466, 192.0, 0.0, 0.0, 0.0, 0.0, 0.0, 0.0, 0.0, 0.0, 0.0, 1.654609199153358E9, 0.0, 2022-06-07 15:39:59.153
140.0, 39380.82329998294, 14491.887628065066, -19219.66156001825, -21494.93503510178, -4884.794936751716, -5869.769259663733, 15744.658201296115, 7560.768134685533, 0.032, 0.91, 0.466, 192.0, 0.0, 0.0, 0.0, 0.0, 0.0, 0.0, 0.0, 0.0, 0.0, 1.654609199153361E9, 0.0, 2022-06-07 15:39:59.153
141.0, 39501.70153399724, 14530.891422139577, -19166.30794600343, -21451.997334003132, -4834.816436149649, -5885.191963337894, 15771.189721964565, 7579.543600027991, 0.032, 0.91, 0.466, 192.0, 0.0, 0.0, 0.0, 0.0, 0.0, 0.0, 0.0, 0.0, 0.0, 1.654609199153363E9, 0.0, 2022-06-07 15:39:59.153
142.0, 39573.383578465415, 14541.553204244758, -19159.825940111394, -21427.52217382457, -4816.756226629762, -5835.414628435926, 15784.623120382204, 7580.16944887274, 0.032, 0.91, 0.466, 192.0, 0.0, 0.0, 0.0, 0.0, 0.0, 0.0, 0.0, 0.0, 0.0, 1.654609199153365E9, 0.0, 2022-06-07 15:39:59.153
143.0, 39499.91339444082, 14515.289904509773, -19205.31174007794, -21437.37929312936, -4850.127381101534, -5786.352549356527, 15775.816533066814, 7573.821553447432, 0.032, 0.91, 0.466, 192.0, 0.0, 0.0, 0.0, 0.0, 0.0, 0.0, 0.0, 0.0, 0.0, 1.654609199153367E9, 0.0, 2022-06-07 15:39:59.153
144.0, 39377.09055865891, 14486.903189051533, -19248.42825513223, -21471.398648190338, -4897.378968880054, -5808.637238578468, 15754.02358222289, 7560.119934096329, 0.032, 0.91, 0.466, 192.0, 0.0, 0.0, 0.0, 0.0, 0.0, 0.0, 0.0, 0.0, 0.0, 1.654609199153369E9, 0.0, 2022-06-07 15:39:59.153
145.0, 39385.539518063015, 14500.560104913726, -19230.41274910125, -21482.73098262918, -4891.2098874103895, -5868.584617207601, 15778.118762745711, 7563.249178320072, 0.032, 0.91, 0.466, 192.0, 0.0, 0.0, 0.0, 0.0, 0.0, 0.0, 0.0, 0.0, 0.0, 1.654609199153372E9, 0.0, 2022-06-07 15:39:59.153
146.0, 39510.82104573501, 14542.134349600596, -19156.473178443095, -21447.325819411973, -4832.8047791486715, -5876.474783000324, 15765.154750961632, 7589.244257121594, 0.026000000000000002, 0.912, 0.462, 192.0, 0.0, 208.0, 28.0, 128.0, 14.0, 112.0, 0.0, 0.0, 0.0, 1.654609199153374E9, 0.0, 2022-06-07 15:39:59.153
147.0, 39578.92681109033, 14548.616355492635, -19150.1699865067, -21418.91675220928, -4802.205240989357, -5817.19795670485, 15783.55023664835, 7600.822460749443, 0.026000000000000002, 0.912, 0.462, 192.0, 0.0, 0.0, 0.0, 0.0, 0.0, 0.0, 0.0, 0.0, 0.0, 1.654609199153376E9, 0.0, 2022-06-07 15:39:59.153
148.0, 39500.49453979666, 14508.606732917635, -19205.401147055763, -21440.061502464, -4842.460732753365, -5778.015348674697, 15777.492913900962, 7585.735033242111, 0.026000000000000002, 0.912, 0.462, 192.0, 0.0, 0.0, 0.0, 0.0, 0.0, 0.0, 0.0, 0.0, 0.0, 1.654609199153378E9, 0.0, 2022-06-07 15:39:59.153
149.0, 39382.253811628085, 14484.422145416993, -19241.27569690653, -21480.406401205826, -4889.041768198224, -5801.395273374948, 15751.45313161053, 7576.168486615239, 0.026000000000000002, 0.912, 0.462, 192.0, 0.0, 0.0, 0.0, 0.0, 0.0, 0.0, 0.0, 0.0, 0.0, 1.654609199153381E9, 0.0, 2022-06-07 15:39:59.153
150.0, 39390.7474745211, 14511.937142841476, -19211.480821547608, -21464.804883576024, -4876.323625603155, -5853.1619135334395, 15739.673762282582, 7580.9517599286755, 0.026000000000000002, 0.912, 0.462, 192.0, 0.0, 0.0, 0.0, 0.0, 0.0, 0.0, 0.0, 0.0, 0.0, 1.654609199153393E9, 0.0, 2022-06-07 15:39:59.153
151.0, 39519.02413595011, 14550.270384582327, -19161.41291396772, -21436.015836717586, -4826.121607556535, -5873.122021332028, 15764.506550372429, 7597.179126403228, 0.026000000000000002, 0.912, 0.462, 192.0, 0.0, 0.0, 0.0, 0.0, 0.0, 0.0, 0.0, 0.0, 0.0, 1.65460919921303E9, 0.0, 2022-06-07 15:39:59.213
152.0, 39599.26689854466, 14558.942861430987, -19144.604402137327, -21411.04893816101, -4795.767938586228, -5821.780064318188, 15793.966149564523, 7604.443443351203, 0.026000000000000002, 0.912, 0.462, 192.0, 0.0, 0.0, 0.0, 0.0, 0.0, 0.0, 0.0, 0.0, 0.0, 1.654609199213035E9, 0.0, 2022-06-07 15:39:59.213
153.0, 39517.28069988259, 14529.505613983347, -19191.27484456001, -21428.14802266932, -4835.844616394594, -5783.066842921597, 15780.353937191241, 7587.567876287446, 0.026000000000000002, 0.912, 0.462, 192.0, 0.0, 0.0, 0.0, 0.0, 0.0, 0.0, 0.0, 0.0, 0.0, 1.654609199213038E9, 0.0, 2022-06-07 15:39:59.213
154.0, 39393.74260827811, 14502.214134003418, -19235.397188114785, -21468.00118303313, -4886.5160210747745, -5816.303886926638, 15748.346239131242, 7568.479486522614, 0.026000000000000002, 0.912, 0.462, 192.0, 0.0, 0.0, 0.0, 0.0, 0.0, 0.0, 0.0, 0.0, 0.0, 1.65460919921304E9, 0.0, 2022-06-07 15:39:59.213
155.0, 39392.8485384999, 14504.717529382413, -19216.979350683614, -21480.048773294544, -4883.6326460400405, -5879.984006879808, 15741.417198350096, 7565.909035910254, 0.026000000000000002, 0.912, 0.462, 192.0, 0.0, 0.0, 0.0, 0.0, 0.0, 0.0, 0.0, 0.0, 0.0, 1.654609199213042E9, 0.0, 2022-06-07 15:39:59.213
156.0, 39507.736505000175, 14539.765064688334, -19171.85117862835, -21456.333572427462, -4837.6774594399285, -5904.8167949696535, 15760.572643348294, 7575.989672659597, 0.03, 0.916, 0.462, 192.0, 0.0, 240.0, 28.0, 160.0, 14.0, 112.0, 0.0, 0.0, 0.0, 1.654609199213044E9, 0.0, 2022-06-07 15:39:59.213
157.0, 39580.26791575765, 14547.766989203334, -19173.88518737378, -21429.77970001456, -4809.804834104161, -5850.278538498705, 15778.342280190263, 7580.236504106106, 0.03, 0.916, 0.462, 192.0, 0.0, 0.0, 0.0, 0.0, 0.0, 0.0, 0.0, 0.0, 0.0, 1.654609199213047E9, 0.0, 2022-06-07 15:39:59.213
158.0, 39501.85799620843, 14506.930352083487, -19215.727652994115, -21446.34234265594, -4851.692003213407, -5811.498261868747, 15756.638736324161, 7560.16463758524, 0.03, 0.916, 0.462, 192.0, 0.0, 0.0, 0.0, 0.0, 0.0, 0.0, 0.0, 0.0, 0.0, 1.654609199213049E9, 0.0, 2022-06-07 15:39:59.213
159.0, 39390.568660565456, 14476.017889501798, -19252.25040343409, -21478.618261649404, -4897.289561902233, -5828.373828932504, 15737.080959925766, 7551.358050269849, 0.03, 0.916, 0.462, 192.0, 0.0, 0.0, 0.0, 0.0, 0.0, 0.0, 0.0, 0.0, 0.0, 1.654609199213051E9, 0.0, 2022-06-07 15:39:59.213
160.0, 39400.47048335916, 14496.022700789297, -19225.22714438762, -21482.39570646235, -4889.377044365054, -5876.720652189333, 15736.991552947946, 7557.63889046179, 0.03, 0.916, 0.462, 192.0, 0.0, 0.0, 0.0, 0.0, 0.0, 0.0, 0.0, 0.0, 0.0, 1.654609199213053E9, 0.0, 2022-06-07 15:39:59.213
161.0, 39516.00665044864, 14553.287870083794, -19160.831768611883, -21446.409397889307, -4831.821302392638, -5880.051062113173, 15767.725201573992, 7587.8808007098205, 0.03, 0.916, 0.462, 192.0, 0.0, 0.0, 0.0, 0.0, 0.0, 0.0, 0.0, 0.0, 0.0, 1.654609199213055E9, 0.0, 2022-06-07 15:39:59.213
162.0, 39589.14155830641, 14565.491922556392, -19151.287573729467, -21416.86039171939, -4799.455976421354, -5818.404950905437, 15795.866047843225, 7601.895344483298, 0.03, 0.916, 0.462, 192.0, 0.0, 0.0, 0.0, 0.0, 0.0, 0.0, 0.0, 0.0, 0.0, 1.654609199213058E9, 0.0, 2022-06-07 15:39:59.213
163.0, 39516.543092315565, 14521.190765045974, -19205.9822924116, -21443.10133970992, -4846.171122332946, -5780.1387643979515, 15778.677556357094, 7582.8963616962865, 0.03, 0.916, 0.462, 192.0, 0.0, 0.0, 0.0, 0.0, 0.0, 0.0, 0.0, 0.0, 0.0, 1.65460919921306E9, 0.0, 2022-06-07 15:39:59.213
164.0, 39390.70277103219, 14483.349261683139, -19250.015228988555, -21481.255767495128, -4905.537355606241, -5809.710122312323, 15751.229614165977, 7567.138381855296, 0.03, 0.916, 0.462, 192.0, 0.0, 0.0, 0.0, 0.0, 0.0, 0.0, 0.0, 0.0, 0.0, 1.654609199213062E9, 0.0, 2022-06-07 15:39:59.213
165.0, 39385.91949771875, 14501.431822947483, -19230.591563056896, -21478.618261649404, -4888.930009475948, -5862.035556082196, 15750.581413576772, 7573.9109604252535, 0.03, 0.916, 0.462, 192.0, 0.0, 0.0, 0.0, 0.0, 0.0, 0.0, 0.0, 0.0, 0.0, 1.654609199213064E9, 0.0, 2022-06-07 15:39:59.213
166.0, 39503.44497006476, 14543.028419378808, -19183.38467876729, -21453.852528792922, -4830.144921558491, -5877.949998134375, 15770.16154171962, 7592.999350190085, 0.03, 0.912, 0.464, 192.0, 0.0, 240.0, 28.0, 128.0, 14.0, 128.0, 0.0, 0.0, 0.0, 1.654609199273377E9, 0.0, 2022-06-07 15:39:59.273
167.0, 39581.273744258135, 14554.36075381765, -19157.546062176953, -21421.040167932533, -4805.446243935376, -5820.953049773342, 15785.047803526855, 7601.001274705086, 0.03, 0.912, 0.464, 192.0, 0.0, 0.0, 0.0, 0.0, 0.0, 0.0, 0.0, 0.0, 0.0, 1.654609199273395E9, 0.0, 2022-06-07 15:39:59.273
168.0, 39517.25834813814, 14525.057616836742, -19205.9822924116, -21429.690293036736, -4843.891244398505, -5777.56831378559, 15773.402544665641, 7586.696158253689, 0.03, 0.912, 0.464, 192.0, 0.0, 0.0, 0.0, 0.0, 0.0, 0.0, 0.0, 0.0, 0.0, 1.654609199273397E9, 0.0, 2022-06-07 15:39:59.273
169.0, 39400.98457348163, 14508.807898617733, -19237.05121720448, -21456.646496849837, -4889.980541465347, -5802.2669914087055, 15746.960430975012, 7574.179181358717, 0.03, 0.912, 0.464, 192.0, 0.0, 0.0, 0.0, 0.0, 0.0, 0.0, 0.0, 0.0, 0.0, 1.654609199273399E9, 0.0, 2022-06-07 15:39:59.273
170.0, 39398.972916480656, 14517.189802788473, -19212.0843186479, -21466.257746965617, -4883.744404762317, -5860.649747925967, 15761.422009637596, 7574.134477869807, 0.03, 0.912, 0.464, 192.0, 0.0, 0.0, 0.0, 0.0, 0.0, 0.0, 0.0, 0.0, 0.0, 1.654609199273402E9, 0.0, 2022-06-07 15:39:59.273
171.0, 39518.24182489417, 14547.811692692245, -19163.737495391073, -21443.615429832393, -4835.486988483309, -5886.130736605017, 15787.84177158377, 7583.678672752223, 0.03, 0.912, 0.464, 192.0, 0.0, 0.0, 0.0, 0.0, 0.0, 0.0, 0.0, 0.0, 0.0, 1.654609199273411E9, 0.0, 2022-06-07 15:39:59.273
172.0, 39601.09974159, 14562.675602755024, -19151.041704540457, -21413.686444006737, -4800.305342710655, -5830.430189422392, 15776.55414063384, 7590.272437366538, 0.03, 0.912, 0.464, 192.0, 0.0, 0.0, 0.0, 0.0, 0.0, 0.0, 0.0, 0.0, 0.0, 1.654609199273413E9, 0.0, 2022-06-07 15:39:59.273
173.0, 39519.87350223941, 14528.499785482858, -19200.483763275595, -21429.176202914263, -4833.609441949063, -5785.302017367127, 15772.754344076437, 7576.593169759891, 0.03, 0.912, 0.464, 192.0, 0.0, 0.0, 0.0, 0.0, 0.0, 0.0, 0.0, 0.0, 0.0, 1.654609199273416E9, 0.0, 2022-06-07 15:39:59.273
174.0, 39388.199375653196, 14492.759346098823, -19239.867537005848, -21466.995354532643, -4886.024282696758, -5812.392331646959, 15744.367628618198, 7562.802143430966, 0.03, 0.912, 0.464, 192.0, 0.0, 0.0, 0.0, 0.0, 0.0, 0.0, 0.0, 0.0, 0.0, 1.654609199273418E9, 0.0, 2022-06-07 15:39:59.273
175.0, 39378.342256348405, 14505.96922707191, -19219.840373973893, -21484.183846018776, -4886.180744907945, -5871.959730620352, 15734.689323269049, 7562.9362538976975, 0.03, 0.912, 0.464, 192.0, 0.0, 0.0, 0.0, 0.0, 0.0, 0.0, 0.0, 0.0, 0.0, 1.65460919927342E9, 0.0, 2022-06-07 15:39:59.273
176.0, 39496.60533626143, 14541.977887389408, -19168.56547219342, -21462.659116108312, -4832.581261704119, -5884.5661144931455, 15760.59499509275, 7583.343396585393, 0.03, 0.91, 0.464, 192.0, 0.0, 240.0, 28.0, 112.0, 14.0, 128.0, 0.0, 0.0, 0.0, 1.654609199273422E9, 0.0, 2022-06-07 15:39:59.273
177.0, 39567.61682839594, 14540.614430977635, -19166.33029774789, -21426.583400557447, -4804.149842756969, -5835.615794136023, 15784.511361659928, 7590.339492599905, 0.03, 0.91, 0.464, 192.0, 0.0, 0.0, 0.0, 0.0, 0.0, 0.0, 0.0, 0.0, 0.0, 1.654609199273425E9, 0.0, 2022-06-07 15:39:59.273
178.0, 39490.30214432504, 14506.34920672765, -19217.627551272817, -21438.318066396485, -4836.537520472708, -5786.687825523356, 15782.589111636773, 7584.639797763801, 0.03, 0.91, 0.464, 192.0, 0.0, 0.0, 0.0, 0.0, 0.0, 0.0, 0.0, 0.0, 0.0, 1.654609199273427E9, 0.0, 2022-06-07 15:39:59.273
179.0, 39384.332523862424, 14494.793354844256, -19230.345693867886, -21456.825310805478, -4871.2497796118, -5790.308808125116, 15770.496817886451, 7589.154850143773, 0.03, 0.91, 0.464, 192.0, 0.0, 0.0, 0.0, 0.0, 0.0, 0.0, 0.0, 0.0, 0.0, 1.654609199273429E9, 0.0, 2022-06-07 15:39:59.273
180.0, 39379.21397438216, 14504.873991593598, -19216.197039627677, -21466.14598824334, -4869.3722330775545, -5843.908291328942, 15763.478370127485, 7591.702949011678, 0.03, 0.91, 0.464, 192.0, 0.0, 0.0, 0.0, 0.0, 0.0, 0.0, 0.0, 0.0, 0.0, 1.654609199273431E9, 0.0, 2022-06-07 15:39:59.273
181.0, 39500.42748456329, 14534.981791374898, -19165.63739366977, -21439.882688508354, -4825.115779056046, -5865.701242172867, 15775.59301562226, 7599.771928760044, 0.03, 0.91, 0.464, 192.0, 0.0, 0.0, 0.0, 0.0, 0.0, 0.0, 0.0, 0.0, 0.0, 1.654609199333584E9, 0.0, 2022-06-07 15:39:59.333
182.0, 39581.60902042497, 14544.749503701867, -19153.433341197175, -21407.651473003803, -4796.170269986424, -5814.2475264367495, 15800.425803712107, 7608.26559165306, 0.03, 0.91, 0.464, 192.0, 0.0, 0.0, 0.0, 0.0, 0.0, 0.0, 0.0, 0.0, 0.0, 1.65460919933359E9, 0.0, 2022-06-07 15:39:59.333
183.0, 39498.95226942924, 14518.195631288962, -19199.768507453027, -21416.94979869721, -4827.172139545934, -5769.924017181876, 15795.21784725402, 7594.7427862576, 0.03, 0.91, 0.464, 192.0, 0.0, 0.0, 0.0, 0.0, 0.0, 0.0, 0.0, 0.0, 0.0, 1.654609199333592E9, 0.0, 2022-06-07 15:39:59.333
184.0, 39373.581334779425, 14491.038261775764, -19244.00260973008, -21459.038133506554, -4886.113689674579, -5803.5633925871125, 15759.812684036815, 7572.189876102195, 0.03, 0.91, 0.464, 192.0, 0.0, 0.0, 0.0, 0.0, 0.0, 0.0, 0.0, 0.0, 0.0, 1.654609199333595E9, 0.0, 2022-06-07 15:39:59.333
185.0, 39369.22274461064, 14503.219962503907, -19223.550763553474, -21467.263575466106, -4886.650131541506, -5863.44371598288, 15741.26073613891, 7571.295806323983, 0.028, 0.91, 0.466, 192.0, 0.0, 224.0, 28.0, 112.0, 14.0, 144.0, 0.0, 0.0, 0.0, 1.654609199333597E9, 0.0, 2022-06-07 15:39:59.333
186.0, 39492.425560048294, 14546.045904880275, -19169.884225116282, -21440.173261186275, -4835.6210989500405, -5883.806155181665, 15757.532806102374, 7587.12084139834, 0.028, 0.91, 0.466, 192.0, 0.0, 0.0, 0.0, 0.0, 0.0, 0.0, 0.0, 0.0, 0.0, 1.654609199333599E9, 0.0, 2022-06-07 15:39:59.333
187.0, 39584.67120941534, 14568.442352824493, -19148.40419869473, -21403.22582760165, -4795.544421141675, -5825.244584708761, 15790.680443129593, 7602.7894142615105, 0.028, 0.91, 0.466, 192.0, 0.0, 0.0, 0.0, 0.0, 0.0, 0.0, 0.0, 0.0, 0.0, 1.654609199333602E9, 0.0, 2022-06-07 15:39:59.333
188.0, 39517.41481034933, 14528.432730249493, -19202.584827254395, -21423.118880166876, -4835.710505927862, -5782.776270243678, 15774.833056310781, 7586.204419875672, 0.028, 0.91, 0.466, 192.0, 0.0, 0.0, 0.0, 0.0, 0.0, 0.0, 0.0, 0.0, 0.0, 1.654609199333604E9, 0.0, 2022-06-07 15:39:59.333
189.0, 39382.56673605046, 14486.67967160698, -19255.580813357927, -21466.704781854725, -4898.138928191534, -5817.399122404948, 15738.332657615265, 7560.54461724098, 0.028, 0.91, 0.466, 192.0, 0.0, 0.0, 0.0, 0.0, 0.0, 0.0, 0.0, 0.0, 0.0, 1.654609199333607E9, 0.0, 2022-06-07 15:39:59.333
190.0, 39369.22274461064, 14501.387119458572, -19221.293237363487, -21463.06144750851, -4892.6180473110735, -5874.239608554793, 15734.711675013505, 7566.311367310449, 0.028, 0.91, 0.466, 192.0, 0.0, 0.0, 0.0, 0.0, 0.0, 0.0, 0.0, 0.0, 0.0, 1.654609199333609E9, 0.0, 2022-06-07 15:39:59.333
191.0, 39480.64619072035, 14543.140178101085, -19173.84048388487, -21445.20240368872, -4842.6618984534625, -5901.709902490366, 15755.78937003486, 7580.9517599286755, 0.028, 0.91, 0.466, 192.0, 0.0, 0.0, 0.0, 0.0, 0.0, 0.0, 0.0, 0.0, 0.0, 1.654609199333611E9, 0.0, 2022-06-07 15:39:59.333
192.0, 39568.80147085208, 14555.701858484968, -19161.07763780089, -21417.307426608495, -4813.179947516912, -5849.786800120688, 15775.257739455432, 7590.40654783327, 0.028, 0.91, 0.466, 192.0, 0.0, 0.0, 0.0, 0.0, 0.0, 0.0, 0.0, 0.0, 0.0, 1.654609199333622E9, 0.0, 2022-06-07 15:39:59.333
193.0, 39504.83077822099, 14518.01681733332, -19204.820001699925, -21429.690293036736, -4842.773657175739, -5802.714026297811, 15784.913693060123, 7577.733108727111, 0.028, 0.91, 0.466, 192.0, 0.0, 0.0, 0.0, 0.0, 0.0, 0.0, 0.0, 0.0, 0.0, 1.654609199333624E9, 0.0, 2022-06-07 15:39:59.333
194.0, 39377.53759354801, 14477.694270335945, -19245.209603930667, -21467.978831288678, -4890.896962988015, -5826.473930653802, 15770.228596952988, 7559.114105595841, 0.028, 0.91, 0.466, 192.0, 0.0, 0.0, 0.0, 0.0, 0.0, 0.0, 0.0, 0.0, 0.0, 1.654609199333627E9, 0.0, 2022-06-07 15:39:59.333
195.0, 39367.97104692114, 14499.375462457594, -19222.65669377526, -21478.506502927125, -4883.543239062219, -5879.000530123774, 15718.953695172513, 7561.9974806305745, 0.026000000000000002, 0.912, 0.464, 192.0, 0.0, 208.0, 28.0, 128.0, 14.0, 128.0, 0.0, 0.0, 0.0, 1.654609199333629E9, 0.0, 2022-06-07 15:39:59.333
196.0, 39490.27979258058, 14544.92831765751, -19166.151483792244, -21450.633877591357, -4830.636659936507, -5896.88192568802, 15747.988611219957, 7578.493068038591, 0.026000000000000002, 0.912, 0.464, 192.0, 0.0, 0.0, 0.0, 0.0, 0.0, 0.0, 0.0, 0.0, 0.0, 1.654609199393198E9, 0.0, 2022-06-07 15:39:59.393
197.0, 39564.085252772005, 14543.006067634353, -19158.50718718853, -21426.449290090717, -4802.3393514560885, -5848.423343708914, 15777.783486578881, 7583.54456228549, 0.026000000000000002, 0.912, 0.464, 192.0, 0.0, 0.0, 0.0, 0.0, 0.0, 0.0, 0.0, 0.0, 0.0, 1.654609199393205E9, 0.0, 2022-06-07 15:39:59.393
198.0, 39492.93965017077, 14505.879820094087, -19212.95603668166, -21439.905040252812, -4840.560834474663, -5801.842308264054, 15773.69311734356, 7571.653434235268, 0.026000000000000002, 0.912, 0.464, 192.0, 0.0, 0.0, 0.0, 0.0, 0.0, 0.0, 0.0, 0.0, 0.0, 1.654609199393207E9, 0.0, 2022-06-07 15:39:59.393
199.0, 39372.77667197903, 14482.611654116114, -19246.99774348709, -21468.53762490006, -4888.907657731493, -5816.862680538021, 15747.630983308673, 7557.97416662862, 0.026000000000000002, 0.912, 0.464, 192.0, 0.0, 0.0, 0.0, 0.0, 0.0, 0.0, 0.0, 0.0, 0.0, 1.654609199393209E9, 0.0, 2022-06-07 15:39:59.393
200.0, 39361.86902068484, 14494.01104378832, -19234.480766592118, -21487.894235598356, -4894.003855467303, -5870.886846886498, 15729.995456933435, 7553.928500882209, 0.026000000000000002, 0.912, 0.464, 192.0, 0.0, 0.0, 0.0, 0.0, 0.0, 0.0, 0.0, 0.0, 0.0, 1.654609199393211E9, 0.0, 2022-06-07 15:39:59.393
201.0, 39484.49069076666, 14540.435617021993, -19171.89588211726, -21451.282078180564, -4836.112837328057, -5891.629265741023, 15759.611518336716, 7573.463925536147, 0.026000000000000002, 0.912, 0.464, 192.0, 0.0, 0.0, 0.0, 0.0, 0.0, 0.0, 0.0, 0.0, 0.0, 1.654609199393214E9, 0.0, 2022-06-07 15:39:59.393
202.0, 39564.12995626092, 14547.968154903432, -19150.12528301779, -21411.51832479457, -4797.623133376019, -5845.897596585464, 15790.523980918406, 7582.471678551636, 0.026000000000000002, 0.912, 0.464, 192.0, 0.0, 0.0, 0.0, 0.0, 0.0, 0.0, 0.0, 0.0, 0.0, 1.654609199393216E9, 0.0, 2022-06-07 15:39:59.393
203.0, 39496.404170561334, 14516.116919054619, -19203.65771098825, -21426.89632497982, -4837.610404206563, -5801.2164594193055, 15776.621195867205, 7567.540713255491, 0.026000000000000002, 0.912, 0.464, 192.0, 0.0, 0.0, 0.0, 0.0, 0.0, 0.0, 0.0, 0.0, 0.0, 1.654609199393218E9, 0.0, 2022-06-07 15:39:59.393
204.0, 39374.9447911912, 14481.941101782455, -19246.03661847551, -21459.39576141784, -4895.300256645711, -5818.069674738607, 15738.444416337541, 7551.872140392321, 0.026000000000000002, 0.912, 0.464, 192.0, 0.0, 0.0, 0.0, 0.0, 0.0, 0.0, 0.0, 0.0, 0.0, 1.65460919939322E9, 0.0, 2022-06-07 15:39:59.393
205.0, 39370.921477189244, 14502.214134003418, -19224.310722864953, -21466.10128475443, -4892.6180473110735, -5871.892675386986, 15726.35212258722, 7557.996518373075, 0.024, 0.912, 0.464, 192.0, 0.0, 192.0, 28.0, 128.0, 14.0, 128.0, 0.0, 0.0, 0.0, 1.654609199393223E9, 0.0, 2022-06-07 15:39:59.393
206.0, 39484.15541459983, 14543.564861245735, -19167.581995437384, -21438.161604185298, -4840.516130985753, -5894.3114750756595, 15751.363724632709, 7581.152925628773, 0.024, 0.912, 0.464, 192.0, 0.0, 0.0, 0.0, 0.0, 0.0, 0.0, 0.0, 0.0, 0.0, 1.654609199393225E9, 0.0, 2022-06-07 15:39:59.393
207.0, 39561.82772658202, 14549.26455608184, -19158.954222077635, -21413.90996145129, -4814.386941717499, -5850.725573387811, 15771.1226667312, 7585.198591375183, 0.024, 0.912, 0.464, 192.0, 0.0, 0.0, 0.0, 0.0, 0.0, 0.0, 0.0, 0.0, 0.0, 1.654609199393227E9, 0.0, 2022-06-07 15:39:59.393
208.0, 39497.96879267321, 14514.909924854031, -19206.898713934268, -21426.583400557447, -4846.461695010865, -5801.194107674851, 15761.667878826605, 7569.731184212111, 0.024, 0.912, 0.464, 192.0, 0.0, 0.0, 0.0, 0.0, 0.0, 0.0, 0.0, 0.0, 0.0, 1.654609199393229E9, 0.0, 2022-06-07 15:39:59.393
209.0, 39380.48802381611, 14487.14905824054, -19241.90154575128, -21457.652325350326, -4894.562649078685, -5814.225174692295, 15740.657239038615, 7561.326928296916, 0.024, 0.912, 0.464, 192.0, 0.0, 0.0, 0.0, 0.0, 0.0, 0.0, 0.0, 0.0, 0.0, 1.654609199393232E9, 0.0, 2022-06-07 15:39:59.393
210.0, 39364.50652653057, 14498.615503146113, -19219.639208273795, -21468.716438855703, -4896.127271190557, -5868.651672440967, 15731.627134278671, 7564.858503920854, 0.024, 0.912, 0.464, 192.0, 0.0, 0.0, 0.0, 0.0, 0.0, 0.0, 0.0, 0.0, 0.0, 1.654609199393234E9, 0.0, 2022-06-07 15:39:59.393
211.0, 39474.43240576177, 14529.930297128, -19178.1767223092, -21455.931241027265, -4852.943700902903, -5902.089882146106, 15745.552271074328, 7574.246236592083, 0.024, 0.912, 0.464, 192.0, 0.0, 0.0, 0.0, 0.0, 0.0, 0.0, 0.0, 0.0, 0.0, 1.654609199453407E9, 0.0, 2022-06-07 15:39:59.453
212.0, 39558.586723636, 14542.313163556239, -19156.272012743, -21412.255932361597, -4814.699866139873, -5850.949090832364, 15779.415163924119, 7586.718509998144, 0.024, 0.912, 0.464, 192.0, 0.0, 0.0, 0.0, 0.0, 0.0, 0.0, 0.0, 0.0, 0.0, 1.654609199453412E9, 0.0, 2022-06-07 15:39:59.453
213.0, 39506.32834509949, 14513.859392864633, -19189.598463725863, -21417.530944053047, -4839.644412951996, -5798.534250084669, 15774.0730969993, 7579.208323861161, 0.024, 0.912, 0.464, 192.0, 0.0, 0.0, 0.0, 0.0, 0.0, 0.0, 0.0, 0.0, 0.0, 1.654609199453427E9, 0.0, 2022-06-07 15:39:59.453
214.0, 39389.16050066477, 14485.785601828768, -19234.503118336575, -21452.086740980954, -4887.946532719914, -5813.666381080911, 15751.028448465879, 7569.440611534192, 0.024, 0.912, 0.464, 192.0, 0.0, 0.0, 0.0, 0.0, 0.0, 0.0, 0.0, 0.0, 0.0, 1.654609199453433E9, 0.0, 2022-06-07 15:39:59.453
215.0, 39367.635770754314, 14506.505668938837, -19217.94047569519, -21464.849587064935, -4884.72788151835, -5865.142448561483, 15750.335544387764, 7572.458097035658, 0.028, 0.91, 0.46, 192.0, 0.0, 224.0, 28.0, 112.0, 14.0, 96.0, 0.0, 0.0, 0.0, 1.654609199453435E9, 0.0, 2022-06-07 15:39:59.453
216.0, 39467.83864114746, 14542.53668100079, -19172.65584142874, -21447.549336856526, -4844.5394449877085, -5887.941227905897, 15803.733861891493, 7586.450289064681, 0.028, 0.91, 0.46, 192.0, 0.0, 0.0, 0.0, 0.0, 0.0, 0.0, 0.0, 0.0, 0.0, 1.654609199453437E9, 0.0, 2022-06-07 15:39:59.453
217.0, 39551.232999710206, 14544.92831765751, -19169.638355927273, -21427.388063357837, -4820.868947609538, -5846.568148919124, 15781.627986625193, 7585.556219286468, 0.028, 0.91, 0.46, 192.0, 0.0, 0.0, 0.0, 0.0, 0.0, 0.0, 0.0, 0.0, 0.0, 1.654609199453439E9, 0.0, 2022-06-07 15:39:59.453
218.0, 39490.01157164712, 14513.948799842454, -19216.398205327776, -21439.927391997266, -4846.618157222051, -5797.081386695074, 15768.97689926349, 7571.340509812893, 0.028, 0.91, 0.46, 192.0, 0.0, 0.0, 0.0, 0.0, 0.0, 0.0, 0.0, 0.0, 0.0, 1.654609199453442E9, 0.0, 2022-06-07 15:39:59.453
219.0, 39357.286913071504, 14473.67095633399, -19260.453493649184, -21480.898139583845, -4905.336189906143, -5825.870433553509, 15735.248116880432, 7545.546596711469, 0.028, 0.91, 0.46, 192.0, 0.0, 0.0, 0.0, 0.0, 0.0, 0.0, 0.0, 0.0, 0.0, 1.654609199453444E9, 0.0, 2022-06-07 15:39:59.453
220.0, 39355.02938688152, 14495.620369389102, -19226.881173477315, -21477.478322682182, -4896.216678168378, -5875.804230666666, 15741.238384394454, 7555.180198571707, 0.028, 0.91, 0.46, 192.0, 0.0, 0.0, 0.0, 0.0, 0.0, 0.0, 0.0, 0.0, 0.0, 1.654609199453446E9, 0.0, 2022-06-07 15:39:59.453
221.0, 39476.77933892958, 14540.994410633375, -19169.057210571435, -21451.863223536402, -4848.518055500753, -5903.5203937912465, 15757.510454357918, 7567.11603011084, 0.028, 0.91, 0.46, 192.0, 0.0, 0.0, 0.0, 0.0, 0.0, 0.0, 0.0, 0.0, 0.0, 1.654609199453448E9, 0.0, 2022-06-07 15:39:59.453
222.0, 39575.35053197748, 14556.97590791892, -19147.4207219387, -21415.921618452267, -4814.968087073336, -5858.705146158355, 15771.92732953159, 7574.872085436832, 0.028, 0.91, 0.46, 192.0, 0.0, 0.0, 0.0, 0.0, 0.0, 0.0, 0.0, 0.0, 0.0, 1.65460919945345E9, 0.0, 2022-06-07 15:39:59.453
223.0, 39527.92013024332, 14532.746616929368, -19192.817114927428, -21415.742804496625, -4839.689116440906, -5804.546869343147, 15764.148922461143, 7566.9819196441085, 0.028, 0.91, 0.46, 192.0, 0.0, 0.0, 0.0, 0.0, 0.0, 0.0, 0.0, 0.0, 0.0, 1.654609199453452E9, 0.0, 2022-06-07 15:39:59.453
224.0, 39403.89030026082, 14504.851639849145, -19223.930743209214, -21442.229621676164, -4888.572381564663, -5818.024971249696, 15740.25490763842, 7554.442591004681, 0.028, 0.91, 0.46, 192.0, 0.0, 0.0, 0.0, 0.0, 0.0, 0.0, 0.0, 0.0, 0.0, 1.654609199453455E9, 0.0, 2022-06-07 15:39:59.453
225.0, 39376.59882028089, 14502.01296830332, -19213.537182037497, -21459.57457537348, -4894.294428145222, -5874.016091110241, 15729.660180766605, 7553.414410759737, 0.028, 0.908, 0.454, 192.0, 0.0, 224.0, 28.0, 96.0, 14.0, 48.0, 0.0, 0.0, 0.0, 1.654609199453457E9, 0.0, 2022-06-07 15:39:59.453
226.0, 39487.888155923865, 14536.635820464591, -19161.770541879003, -21436.9099064958, -4845.43351476592, -5899.430024555925, 15751.54253858835, 7570.893474923787, 0.028, 0.908, 0.454, 192.0, 0.0, 0.0, 0.0, 0.0, 0.0, 0.0, 0.0, 0.0, 0.0, 1.65460919951372E9, 0.0, 2022-06-07 15:39:59.513
227.0, 39559.59255213649, 14552.952593916965, -19149.41002719522, -21393.32400480795, -4811.57062191613, -5848.400991964459, 15775.145980733156, 7582.628140762823, 0.028, 0.908, 0.454, 192.0, 0.0, 0.0, 0.0, 0.0, 0.0, 0.0, 0.0, 0.0, 0.0, 1.654609199513727E9, 0.0, 2022-06-07 15:39:59.513
228.0, 39496.44887405025, 14524.25295403635, -19197.55568475195, -21405.349243324905, -4843.667726953951, -5799.428319862881, 15768.395753907653, 7572.323986568927, 0.028, 0.908, 0.454, 192.0, 0.0, 0.0, 0.0, 0.0, 0.0, 0.0, 0.0, 0.0, 0.0, 1.654609199513742E9, 0.0, 2022-06-07 15:39:59.513
229.0, 39372.8437272124, 14491.708814109423, -19241.879194006826, -21443.57072634348, -4892.103957188601, -5809.240735678761, 15753.241271166955, 7564.769096943033, 0.028, 0.908, 0.454, 192.0, 0.0, 0.0, 0.0, 0.0, 0.0, 0.0, 0.0, 0.0, 0.0, 1.654609199513744E9, 0.0, 2022-06-07 15:39:59.513
230.0, 39347.295683299984, 14504.851639849145, -19222.723749008626, -21455.327743926973, -4889.689968787428, -5854.525369945213, 15761.846692782246, 7578.202495360672, 0.028, 0.908, 0.454, 192.0, 0.0, 0.0, 0.0, 0.0, 0.0, 0.0, 0.0, 0.0, 0.0, 1.654609199513746E9, 0.0, 2022-06-07 15:39:59.513
231.0, 39463.92708586778, 14538.289849554283, -19167.157312292733, -21433.28892389404, -4845.277052554733, -5878.709957445855, 15778.834018568281, 7594.40751009077, 0.028, 0.908, 0.454, 192.0, 0.0, 0.0, 0.0, 0.0, 0.0, 0.0, 0.0, 0.0, 0.0, 1.654609199513748E9, 0.0, 2022-06-07 15:39:59.513
232.0, 39568.8908778299, 14562.183864377006, -19143.30800095892, -21396.27443507605, -4794.09155775208, -5827.122131243006, 15802.884495602191, 7608.98084747563, 0.028, 0.908, 0.454, 192.0, 0.0, 0.0, 0.0, 0.0, 0.0, 0.0, 0.0, 0.0, 0.0, 1.654609199513751E9, 0.0, 2022-06-07 15:39:59.513
233.0, 39518.86767373892, 14547.78934094779, -19184.859893901335, -21400.85654268939, -4817.672648152429, -5770.035775904153, 15803.599751424761, 7608.042074208507, 0.028, 0.908, 0.454, 192.0, 0.0, 0.0, 0.0, 0.0, 0.0, 0.0, 0.0, 0.0, 0.0, 1.654609199513753E9, 0.0, 2022-06-07 15:39:59.513
234.0, 39386.21007039667, 14494.659244377524, -19238.95111548318, -21443.72718855467, -4884.68317802944, -5792.342816870549, 15796.670710643615, 7584.416280319248, 0.028, 0.908, 0.454, 192.0, 0.0, 0.0, 0.0, 0.0, 0.0, 0.0, 0.0, 0.0, 0.0, 1.654609199513755E9, 0.0, 2022-06-07 15:39:59.513
235.0, 39357.443375282695, 14498.01200604582, -19226.411786843753, -21456.646496849837, -4889.980541465347, -5847.05988729714, 15777.179989478587, 7583.611617518857, 0.026000000000000002, 0.906, 0.458, 192.0, 0.0, 208.0, 28.0, 80.0, 14.0, 80.0, 0.0, 0.0, 0.0, 1.654609199513769E9, 0.0, 2022-06-07 15:39:59.513
236.0, 39463.412995745304, 14529.930297128, -19162.1728732792, -21432.037226204542, -4840.583186219119, -5877.033576611707, 15754.694134556548, 7594.116937412851, 0.026000000000000002, 0.906, 0.458, 192.0, 0.0, 0.0, 0.0, 0.0, 0.0, 0.0, 0.0, 0.0, 0.0, 1.654609199513771E9, 0.0, 2022-06-07 15:39:59.513
237.0, 39544.54982811807, 14535.652343708558, -19152.449864441143, -21407.13738288133, -4812.017656805237, -5837.247471481261, 15775.88358830018, 7596.083890924918, 0.026000000000000002, 0.906, 0.458, 192.0, 0.0, 0.0, 0.0, 0.0, 0.0, 0.0, 0.0, 0.0, 0.0, 1.654609199513773E9, 0.0, 2022-06-07 15:39:59.513
238.0, 39490.23508909167, 14513.390006231071, -19193.755888194548, -21408.52319103756, -4839.756171674272, -5780.027005675674, 15777.336451689775, 7588.93133269922, 0.026000000000000002, 0.906, 0.458, 192.0, 0.0, 0.0, 0.0, 0.0, 0.0, 0.0, 0.0, 0.0, 0.0, 1.654609199513775E9, 0.0, 2022-06-07 15:39:59.513
239.0, 39372.240230112104, 14486.389098929061, -19234.681932292217, -21441.179089686764, -4888.304160631199, -5791.068767436596, 15754.157692689621, 7575.430879048215, 0.026000000000000002, 0.906, 0.458, 192.0, 0.0, 0.0, 0.0, 0.0, 0.0, 0.0, 0.0, 0.0, 0.0, 1.654609199513778E9, 0.0, 2022-06-07 15:39:59.513
240.0, 39344.859343154356, 14493.20638098793, -19226.612952543852, -21467.554148144027, -4892.819213011171, -5858.079297313607, 15733.728198257471, 7567.987748144597, 0.026000000000000002, 0.906, 0.458, 192.0, 0.0, 0.0, 0.0, 0.0, 0.0, 0.0, 0.0, 0.0, 0.0, 1.65460919951378E9, 0.0, 2022-06-07 15:39:59.513
241.0, 39456.99804508663, 14534.959439630442, -19176.142713563768, -21448.756331057113, -4850.9990991352915, -5895.674931487433, 15742.288916383854, 7575.855562192865, 0.026000000000000002, 0.906, 0.458, 192.0, 0.0, 0.0, 0.0, 0.0, 0.0, 0.0, 0.0, 0.0, 0.0, 1.654609199573117E9, 0.0, 2022-06-07 15:39:59.573
242.0, 39557.804412580066, 14555.187768362495, -19158.12720753279, -21407.025624159054, -4816.66681965194, -5850.993794321274, 15774.095448743756, 7586.450289064681, 0.026000000000000002, 0.906, 0.458, 192.0, 0.0, 0.0, 0.0, 0.0, 0.0, 0.0, 0.0, 0.0, 0.0, 1.654609199573122E9, 0.0, 2022-06-07 15:39:59.573
243.0, 39513.70442076975, 14529.997352361364, -19196.03576612899, -21409.28315034904, -4837.7892181622055, -5790.197049402839, 15780.420992424608, 7582.963416929653, 0.026000000000000002, 0.906, 0.458, 192.0, 0.0, 0.0, 0.0, 0.0, 0.0, 0.0, 0.0, 0.0, 0.0, 1.654609199573124E9, 0.0, 2022-06-07 15:39:59.573
244.0, 39393.60849781138, 14500.29188398026, -19237.207679415667, -21440.463833864193, -4885.621951296563, -5802.088177453063, 15756.035239223867, 7570.848771434877, 0.026000000000000002, 0.906, 0.458, 192.0, 0.0, 0.0, 0.0, 0.0, 0.0, 0.0, 0.0, 0.0, 0.0, 1.654609199573127E9, 0.0, 2022-06-07 15:39:59.573
245.0, 39359.49973577258, 14507.131517783586, -19223.640170531293, -21456.937069527754, -4895.054387456702, -5859.353346747559, 15740.992515205446, 7570.446440034681, 0.03, 0.914, 0.462, 192.0, 0.0, 240.0, 28.0, 144.0, 14.0, 112.0, 0.0, 0.0, 0.0, 1.654609199573129E9, 0.0, 2022-06-07 15:39:59.573
246.0, 39462.63068468937, 14539.921526899521, -19172.298213517453, -21438.027493718564, -4850.194436334901, -5895.853745443076, 15758.0692479693, 7580.907056439764, 0.03, 0.914, 0.462, 192.0, 0.0, 0.0, 0.0, 0.0, 0.0, 0.0, 0.0, 0.0, 0.0, 1.654609199573131E9, 0.0, 2022-06-07 15:39:59.573
247.0, 39562.65474112687, 14554.584271262202, -19156.428474954188, -21406.51153403658, -4811.637677149496, -5847.439866952881, 15785.561893649328, 7588.9983879325855, 0.03, 0.914, 0.462, 192.0, 0.0, 0.0, 0.0, 0.0, 0.0, 0.0, 0.0, 0.0, 0.0, 1.654609199573133E9, 0.0, 2022-06-07 15:39:59.573
248.0, 39512.497426569156, 14528.768006416323, -19194.158219594745, -21410.132516638343, -4830.636659936507, -5792.05224419263, 15781.180951736087, 7578.224847105128, 0.03, 0.914, 0.462, 192.0, 0.0, 0.0, 0.0, 0.0, 0.0, 0.0, 0.0, 0.0, 0.0, 1.654609199573136E9, 0.0, 2022-06-07 15:39:59.573
249.0, 39386.99238145261, 14492.759346098823, -19232.625571802328, -21448.733979312656, -4880.123422160557, -5809.844232779054, 15752.97305023349, 7561.326928296916, 0.03, 0.914, 0.462, 192.0, 0.0, 0.0, 0.0, 0.0, 0.0, 0.0, 0.0, 0.0, 0.0, 1.654609199573138E9, 0.0, 2022-06-07 15:39:59.573
250.0, 39360.81848869544, 14509.232581762384, -19224.46718507614, -21467.040058021554, -4885.934875718936, -5865.455372983858, 15744.434683851563, 7568.613596989346, 0.03, 0.914, 0.462, 192.0, 0.0, 0.0, 0.0, 0.0, 0.0, 0.0, 0.0, 0.0, 0.0, 1.65460919957314E9, 0.0, 2022-06-07 15:39:59.573
251.0, 39464.97761785718, 14540.614430977635, -19176.433286241685, -21453.561956115005, -4842.013697864259, -5896.211373354361, 15766.115875973212, 7583.6563210077675, 0.03, 0.914, 0.462, 192.0, 0.0, 0.0, 0.0, 0.0, 0.0, 0.0, 0.0, 0.0, 0.0, 1.654609199573142E9, 0.0, 2022-06-07 15:39:59.573
252.0, 39554.96574103424, 14543.989544390386, -19163.17870177969, -21414.96049344069, -4807.793177103184, -5851.954919332853, 15788.534675661884, 7587.7690419875435, 0.03, 0.914, 0.462, 192.0, 0.0, 0.0, 0.0, 0.0, 0.0, 0.0, 0.0, 0.0, 0.0, 1.654609199573144E9, 0.0, 2022-06-07 15:39:59.573
253.0, 39498.95226942924, 14517.569782444214, -19203.27773133251, -21416.346301596917, -4834.369401260544, -5789.995883702742, 15779.906902302135, 7580.21415236165, 0.03, 0.914, 0.462, 192.0, 0.0, 0.0, 0.0, 0.0, 0.0, 0.0, 0.0, 0.0, 0.0, 1.654609199573147E9, 0.0, 2022-06-07 15:39:59.573
254.0, 39371.837898711914, 14489.428936174982, -19242.639153318305, -21443.52602285457, -4882.716224517372, -5795.382654116471, 15752.235442666466, 7572.301634824471, 0.03, 0.914, 0.462, 192.0, 0.0, 0.0, 0.0, 0.0, 0.0, 0.0, 0.0, 0.0, 0.0, 1.654609199573149E9, 0.0, 2022-06-07 15:39:59.573
255.0, 39346.62513096633, 14494.145154255051, -19237.341789882397, -21462.748523086135, -4892.34982637761, -5851.7314018883, 15738.265602381898, 7570.40173654577, 0.036000000000000004, 0.91, 0.456, 192.0, 1.0, 32.0, 28.0, 112.0, 14.0, 64.0, 0.0, 0.0, 0.0, 1.654609199573151E9, 0.0, 2022-06-07 15:39:59.573
0.0, 39450.35957698341, 14535.026494863809, -19187.31858579142, -21446.230583933662, -4847.109895600069, -5884.119079604039, 15758.78450379187, 7583.365748329848, 0.036000000000000004, 0.91, 0.456, 192.0, 0.0, 0.0, 0.0, 0.0, 0.0, 0.0, 0.0, 0.0, 0.0, 1.654609199632976E9, 0.0, 2022-06-07 15:39:59.632
1.0, 39541.44293563878, 14546.269422324827, -19164.31864074691, -21419.944932454222, -4809.04487479268, -5845.227044251806, 15827.314952291841, 7593.178164145728, 0.036000000000000004, 0.91, 0.456, 192.0, 0.0, 0.0, 0.0, 0.0, 0.0, 0.0, 0.0, 0.0, 0.0, 1.654609199632987E9, 0.0, 2022-06-07 15:39:59.632
2.0, 39494.39251356036, 14515.53577369878, -19211.70433899216, -21428.438595347237, -4837.945680373393, -5790.0629389361075, 15788.1770477506, 7583.566914029946, 0.036000000000000004, 0.91, 0.456, 192.0, 0.0, 0.0, 0.0, 0.0, 0.0, 0.0, 0.0, 0.0, 0.0, 1.65460919963299E9, 0.0, 2022-06-07 15:39:59.632
3.0, 39373.40252082378, 14492.82640133219, -19251.0434092335, -21466.660078365814, -4893.8473932561155, -5807.139671699962, 15735.382227347163, 7562.578625986413, 0.036000000000000004, 0.91, 0.456, 192.0, 0.0, 0.0, 0.0, 0.0, 0.0, 0.0, 0.0, 0.0, 0.0, 1.654609199632992E9, 0.0, 2022-06-07 15:39:59.632
4.0, 39357.421023538234, 14504.136384026575, -19214.073623904424, -21470.05754352302, -4891.7910327662275, -5861.655576426456, 15727.067378409789, 7568.814762689443, 0.036000000000000004, 0.91, 0.456, 192.0, 0.0, 0.0, 0.0, 0.0, 0.0, 0.0, 0.0, 0.0, 0.0, 1.654609199632995E9, 0.0, 2022-06-07 15:39:59.632
5.0, 39462.98831260065, 14536.032323364298, -19163.312812246422, -21453.405493903818, -4848.003965378281, -5902.559268779668, 15744.300573384831, 7576.570818015435, 0.036000000000000004, 0.91, 0.456, 192.0, 0.0, 0.0, 0.0, 0.0, 0.0, 0.0, 0.0, 0.0, 0.0, 1.654609199632998E9, 0.0, 2022-06-07 15:39:59.632
6.0, 39557.42443292432, 14554.293698584283, -19146.481948671575, -21426.33753136844, -4809.067226537136, -5863.890750871987, 15775.704774344538, 7582.650492507279, 0.036000000000000004, 0.91, 0.456, 192.0, 0.0, 0.0, 0.0, 0.0, 0.0, 0.0, 0.0, 0.0, 0.0, 1.654609199633E9, 0.0, 2022-06-07 15:39:59.633
7.0, 39509.30112711205, 14525.571706959214, -19190.961920137637, -21425.756386012603, -4830.971936103337, -5810.380674645981, 15774.028393510389, 7570.938178412697, 0.036000000000000004, 0.91, 0.456, 192.0, 0.0, 0.0, 0.0, 0.0, 0.0, 0.0, 0.0, 0.0, 0.0, 1.654609199633003E9, 0.0, 2022-06-07 15:39:59.633
8.0, 39377.157613892276, 14497.564971156715, -19235.240725903597, -21452.667886336792, -4884.146736162512, -5820.707180584333, 15748.905032742625, 7560.566968985435, 0.036000000000000004, 0.91, 0.456, 192.0, 0.0, 0.0, 0.0, 0.0, 0.0, 0.0, 0.0, 0.0, 0.0, 1.654609199633005E9, 0.0, 2022-06-07 15:39:59.633
9.0, 39339.539627973994, 14505.63395090508, -19225.003626943068, -21467.263575466106, -4894.942628734426, -5874.194905065883, 15737.550346559328, 7557.929463139709, 0.03, 0.91, 0.46, 192.0, 0.0, 240.0, 28.0, 112.0, 14.0, 96.0, 0.0, 0.0, 0.0, 1.654609199633008E9, 0.0, 2022-06-07 15:39:59.633
10.0, 39452.46064096221, 14537.954573387453, -19173.907539118238, -21445.80590078901, -4845.321756043644, -5902.000475168285, 15758.717448558504, 7574.335643569904, 0.03, 0.91, 0.46, 192.0, 0.0, 0.0, 0.0, 0.0, 0.0, 0.0, 0.0, 0.0, 0.0, 1.65460919963301E9, 0.0, 2022-06-07 15:39:59.633
11.0, 39552.551752633066, 14544.905965913054, -19152.78514060797, -21421.107223165898, -4805.446243935376, -5855.486494956791, 15787.50649541694, 7587.545524542991, 0.03, 0.91, 0.46, 192.0, 0.0, 0.0, 0.0, 0.0, 0.0, 0.0, 0.0, 0.0, 0.0, 1.654609199633013E9, 0.0, 2022-06-07 15:39:59.633
12.0, 39503.86965320941, 14509.724320140402, -19201.22137084262, -21416.99450218612, -4833.587090204607, -5799.070691951596, 15776.464733656017, 7574.35799531436, 0.03, 0.91, 0.46, 192.0, 0.0, 0.0, 0.0, 0.0, 0.0, 0.0, 0.0, 0.0, 0.0, 1.654609199633015E9, 0.0, 2022-06-07 15:39:59.633
13.0, 39380.8456517274, 14477.180180213474, -19251.289278422508, -21450.09743572443, -4884.01262569578, -5807.7878722891655, 15751.587242077261, 7560.8798934078095, 0.03, 0.91, 0.46, 192.0, 0.0, 0.0, 0.0, 0.0, 0.0, 0.0, 0.0, 0.0, 0.0, 1.654609199633018E9, 0.0, 2022-06-07 15:39:59.633
14.0, 39342.37829951981, 14477.537808124758, -19249.90347026628, -21472.315069713008, -4896.8425270131265, -5861.879093871009, 15738.757340759916, 7562.042184119486, 0.03, 0.91, 0.46, 192.0, 0.0, 0.0, 0.0, 0.0, 0.0, 0.0, 0.0, 0.0, 0.0, 1.65460919963302E9, 0.0, 2022-06-07 15:39:59.633
15.0, 39462.74244341165, 14521.615448190625, -19175.69567867466, -21444.263630421596, -4842.259567053266, -5886.197791838383, 15771.323832431297, 7589.221905377139, 0.03, 0.91, 0.46, 192.0, 0.0, 0.0, 0.0, 0.0, 0.0, 0.0, 0.0, 0.0, 0.0, 1.654609199693224E9, 0.0, 2022-06-07 15:39:59.693
16.0, 39561.78302309311, 14533.461872751937, -19157.70252438814, -21416.256894619095, -4804.775691601717, -5837.180416247895, 15802.817440368824, 7602.36473111686, 0.03, 0.91, 0.46, 192.0, 0.0, 0.0, 0.0, 0.0, 0.0, 0.0, 0.0, 0.0, 0.0, 1.654609199693234E9, 0.0, 2022-06-07 15:39:59.693
17.0, 39509.65875502333, 14502.929389825988, -19196.9298359072, -21422.917714466777, -4830.636659936507, -5778.015348674697, 15800.425803712107, 7591.613542033857, 0.03, 0.91, 0.46, 192.0, 0.0, 0.0, 0.0, 0.0, 0.0, 0.0, 0.0, 0.0, 0.0, 1.654609199693237E9, 0.0, 2022-06-07 15:39:59.693
18.0, 39369.58037252192, 14463.456209117916, -19248.96469699916, -21469.409342933817, -4891.187535665934, -5794.779157016177, 15763.903053272135, 7567.361899299848, 0.024, 0.908, 0.46, 192.0, 0.0, 192.0, 28.0, 96.0, 14.0, 96.0, 0.0, 0.0, 0.0, 1.654609199693239E9, 0.0, 2022-06-07 15:39:59.693
19.0, 39345.35108153237, 14478.454229647426, -19231.306818879464, -21487.15662803133, -4892.506288588797, -5847.8198466086205, 15748.748570531438, 7568.390079544793, 0.024, 0.908, 0.46, 192.0, 0.0, 0.0, 0.0, 0.0, 0.0, 0.0, 0.0, 0.0, 0.0, 1.654609199693242E9, 0.0, 2022-06-07 15:39:59.693
20.0, 39459.993178843644, 14514.462889964927, -19173.3263937624, -21466.436560921262, -4839.8455786520935, -5878.173515578927, 15768.84278879676, 7586.092661153396, 0.024, 0.908, 0.46, 192.0, 0.0, 0.0, 0.0, 0.0, 0.0, 0.0, 0.0, 0.0, 0.0, 1.654609199693245E9, 0.0, 2022-06-07 15:39:59.693
21.0, 39562.11829925994, 14532.8807273961, -19147.666591127705, -21442.29667690953, -4801.199412488868, -5840.935509316387, 15812.406338740151, 7593.8710682238425, 0.024, 0.908, 0.46, 192.0, 0.0, 0.0, 0.0, 0.0, 0.0, 0.0, 0.0, 0.0, 0.0, 1.654609199693247E9, 0.0, 2022-06-07 15:39:59.693
22.0, 39525.17086567532, 14508.673788151002, -19186.55862647994, -21453.7631218151, -4825.831034878616, -5790.129994169473, 15826.353827280263, 7579.051861649974, 0.024, 0.908, 0.46, 192.0, 0.0, 0.0, 0.0, 0.0, 0.0, 0.0, 0.0, 0.0, 0.0, 1.654609199693271E9, 0.0, 2022-06-07 15:39:59.693
23.0, 39409.12060846336, 14478.09660173614, -19227.462318833153, -21470.616337134405, -4873.417898823965, -5805.038607721163, 15755.610556079217, 7565.439649276692, 0.024, 0.908, 0.46, 192.0, 0.0, 0.0, 0.0, 0.0, 0.0, 0.0, 0.0, 0.0, 0.0, 1.654609199693273E9, 0.0, 2022-06-07 15:39:59.693
24.0, 39375.66004701377, 14488.020776274298, -19223.439004831198, -21491.224645522198, -4882.760928006283, -5870.104535830562, 15740.098445427233, 7557.549483483968, 0.024, 0.908, 0.46, 192.0, 0.0, 0.0, 0.0, 0.0, 0.0, 0.0, 0.0, 0.0, 0.0, 1.654609199693276E9, 0.0, 2022-06-07 15:39:59.693
25.0, 39488.446949535246, 14535.11590184163, -19166.08442855888, -21466.816540577, -4833.05064833768, -5901.061701901162, 15763.299556171842, 7573.173352858228, 0.024, 0.908, 0.46, 192.0, 0.0, 0.0, 0.0, 0.0, 0.0, 0.0, 0.0, 0.0, 0.0, 1.654609199693278E9, 0.0, 2022-06-07 15:39:59.693
26.0, 39587.39812223889, 14550.69506772698, -19153.343934219352, -21437.37929312936, -4796.952581042359, -5862.840218882588, 15789.31698671782, 7580.728242484122, 0.024, 0.908, 0.46, 192.0, 0.0, 0.0, 0.0, 0.0, 0.0, 0.0, 0.0, 0.0, 0.0, 1.654609199693281E9, 0.0, 2022-06-07 15:39:59.693
27.0, 39545.06391824054, 14520.20728828994, -19194.158219594745, -21435.166470428285, -4816.823281863128, -5801.484680352769, 15791.149829763155, 7578.582475016413, 0.024, 0.908, 0.46, 192.0, 0.0, 0.0, 0.0, 0.0, 0.0, 0.0, 0.0, 0.0, 0.0, 1.654609199693283E9, 0.0, 2022-06-07 15:39:59.693
28.0, 39422.41989641427, 14487.193761729452, -19226.881173477315, -21458.032305006065, -4868.6122737660735, -5805.2621251657165, 15763.545425360851, 7569.440611534192, 0.032, 0.904, 0.468, 192.0, 1.0, 0.0, 28.0, 64.0, 14.0, 160.0, 0.0, 0.0, 0.0, 1.654609199693286E9, 0.0, 2022-06-07 15:39:59.693
29.0, 39383.19258489521, 14489.272473963794, -19227.12704266632, -21476.561901159515, -4883.006797195291, -5858.2134077803385, 15739.83022449377, 7562.399812030771, 0.032, 0.904, 0.468, 192.0, 0.0, 0.0, 0.0, 0.0, 0.0, 0.0, 0.0, 0.0, 0.0, 1.654609199693288E9, 0.0, 2022-06-07 15:39:59.693
30.0, 39489.85510943593, 14524.722340669912, -19174.823960640904, -21452.690238081246, -4834.905843127471, -5884.119079604039, 15764.93123351708, 7585.6903297532, 0.032, 0.904, 0.468, 192.0, 0.0, 0.0, 0.0, 0.0, 0.0, 0.0, 0.0, 0.0, 0.0, 1.654609199753419E9, 0.0, 2022-06-07 15:39:59.753
31.0, 39591.779064152135, 14553.69020148399, -19149.27591672849, -21416.122784152365, -4788.414214660432, -5834.900538313454, 15805.544353192372, 7607.393873619303, 0.032, 0.904, 0.468, 192.0, 0.0, 0.0, 0.0, 0.0, 0.0, 0.0, 0.0, 0.0, 0.0, 1.654609199753424E9, 0.0, 2022-06-07 15:39:59.753
32.0, 39556.06097651255, 14530.086759339185, -19190.671347459716, -21416.48041206365, -4819.438435964398, -5775.601360273524, 15794.547294920361, 7595.636856035812, 0.032, 0.904, 0.468, 192.0, 0.0, 0.0, 0.0, 0.0, 0.0, 0.0, 0.0, 0.0, 0.0, 1.654609199753426E9, 0.0, 2022-06-07 15:39:59.753
33.0, 39429.32658545096, 14495.732128111378, -19238.1911561717, -21446.096473466932, -4876.547143047708, -5779.892895208943, 15767.434628896073, 7582.672844251734, 0.032, 0.904, 0.468, 192.0, 0.0, 0.0, 0.0, 0.0, 0.0, 0.0, 0.0, 0.0, 0.0, 1.654609199753428E9, 0.0, 2022-06-07 15:39:59.753
34.0, 39395.106064689884, 14501.789450858767, -19231.887964235302, -21471.219834234696, -4887.700663530906, -5832.4418464233695, 15755.990535734956, 7583.343396585393, 0.032, 0.904, 0.468, 192.0, 0.0, 0.0, 0.0, 0.0, 0.0, 0.0, 0.0, 0.0, 0.0, 1.654609199753431E9, 0.0, 2022-06-07 15:39:59.753
35.0, 39497.83468220648, 14532.903079140555, -19187.83267591389, -21460.15572072932, -4852.5860729916185, -5874.127849832517, 15761.243195681955, 7587.83609722091, 0.032, 0.904, 0.468, 192.0, 0.0, 0.0, 0.0, 0.0, 0.0, 0.0, 0.0, 0.0, 0.0, 1.654609199753433E9, 0.0, 2022-06-07 15:39:59.753
36.0, 39598.23871829972, 14552.416152050037, -19162.396390723752, -21417.530944053047, -4812.598802161075, -5837.068657525619, 15789.093469273266, 7598.140251414807, 0.032, 0.904, 0.468, 192.0, 0.0, 0.0, 0.0, 0.0, 0.0, 0.0, 0.0, 0.0, 0.0, 1.654609199753435E9, 0.0, 2022-06-07 15:39:59.753
37.0, 39554.89868580087, 14536.792282675779, -19198.829734185903, -21421.397795843815, -4828.5802994466185, -5775.780174229166, 15795.1284402762, 7593.848716479388, 0.032, 0.904, 0.468, 192.0, 0.0, 0.0, 0.0, 0.0, 0.0, 0.0, 0.0, 0.0, 0.0, 1.654609199753437E9, 0.0, 2022-06-07 15:39:59.753
38.0, 39423.783352826045, 14506.371558472105, -19244.740217297105, -21455.931241027265, -4877.552971548196, -5779.959950442309, 15772.352012676241, 7581.443498306692, 0.036000000000000004, 0.908, 0.464, 192.0, 1.0, 32.0, 28.0, 96.0, 14.0, 128.0, 0.0, 0.0, 0.0, 1.654609199753439E9, 0.0, 2022-06-07 15:39:59.753
39.0, 39383.88548897332, 14512.384177730582, -19219.415690829243, -21472.471531924195, -4881.308064616688, -5832.218328978816, 15761.086733470767, 7580.348262828382, 0.036000000000000004, 0.908, 0.464, 192.0, 0.0, 0.0, 0.0, 0.0, 0.0, 0.0, 0.0, 0.0, 0.0, 1.654609199753442E9, 0.0, 2022-06-07 15:39:59.753
40.0, 39498.72875198469, 14557.467646296936, -19159.960050578124, -21447.884613023354, -4837.163369317457, -5861.767335148733, 15802.191591524077, 7598.810803748465, 0.036000000000000004, 0.908, 0.464, 192.0, 0.0, 0.0, 0.0, 0.0, 0.0, 0.0, 0.0, 0.0, 0.0, 1.654609199753444E9, 0.0, 2022-06-07 15:39:59.753
41.0, 39604.139578835915, 14575.863131983655, -19126.49948912853, -21406.735051481137, -4793.3315984406, -5818.069674738607, 15792.066251285822, 7614.546431845001, 0.036000000000000004, 0.908, 0.464, 192.0, 0.0, 0.0, 0.0, 0.0, 0.0, 0.0, 0.0, 0.0, 0.0, 1.654609199753446E9, 0.0, 2022-06-07 15:39:59.753
42.0, 39559.41373818085, 14544.458931023948, -19169.213672782622, -21409.081984648943, -4818.723180141828, -5768.001767158719, 15792.312120474831, 7599.302542126482, 0.036000000000000004, 0.908, 0.464, 192.0, 0.0, 0.0, 0.0, 0.0, 0.0, 0.0, 0.0, 0.0, 0.0, 1.654609199753448E9, 0.0, 2022-06-07 15:39:59.753
43.0, 39433.349899452915, 14509.992541073865, -19218.968655940134, -21444.39774088833, -4869.908674944481, -5783.268008621694, 15769.31217543032, 7580.124745383829, 0.036000000000000004, 0.908, 0.464, 192.0, 0.0, 0.0, 0.0, 0.0, 0.0, 0.0, 0.0, 0.0, 0.0, 1.654609199753458E9, 0.0, 2022-06-07 15:39:59.753
44.0, 39388.37818960884, 14502.7729276148, -19218.32045535093, -21465.52013939859, -4884.660826284984, -5842.276613983705, 15751.922518244091, 7569.373556300826, 0.036000000000000004, 0.908, 0.464, 192.0, 0.0, 0.0, 0.0, 0.0, 0.0, 0.0, 0.0, 0.0, 0.0, 1.65460919975346E9, 0.0, 2022-06-07 15:39:59.753
45.0, 39487.84345243496, 14539.340381543683, -19167.716105904117, -21450.05273223552, -4838.772694918239, -5880.833373169109, 15764.081867227778, 7578.805992460966, 0.036000000000000004, 0.908, 0.464, 192.0, 0.0, 0.0, 0.0, 0.0, 0.0, 0.0, 0.0, 0.0, 0.0, 1.654609199812822E9, 0.0, 2022-06-07 15:39:59.812
46.0, 39595.17652930934, 14556.841797452189, -19143.59857363684, -21431.120804681876, -4794.315075196633, -5849.451523953859, 15789.249931484454, 7584.684501252712, 0.036000000000000004, 0.908, 0.464, 192.0, 0.0, 0.0, 0.0, 0.0, 0.0, 0.0, 0.0, 0.0, 0.0, 1.654609199812829E9, 0.0, 2022-06-07 15:39:59.812
47.0, 39555.94921779027, 14536.59111697568, -19183.13880957828, -21426.62810404636, -4817.449130707876, -5791.828726748076, 15788.668786128615, 7571.5640272574465, 0.036000000000000004, 0.908, 0.464, 192.0, 0.0, 0.0, 0.0, 0.0, 0.0, 0.0, 0.0, 0.0, 0.0, 1.654609199812831E9, 0.0, 2022-06-07 15:39:59.812
48.0, 39420.27412894656, 14507.153869528041, -19232.46910959114, -21460.669810851792, -4866.935892931926, -5801.819956519599, 15760.058553225823, 7552.587396214891, 0.024, 0.912, 0.468, 192.0, 0.0, 192.0, 28.0, 128.0, 14.0, 160.0, 0.0, 0.0, 0.0, 1.654609199812834E9, 0.0, 2022-06-07 15:39:59.812
49.0, 39375.92826794723, 14511.02072131881, -19230.65861829026, -21480.764029117112, -4874.446079068909, -5853.273672255716, 15746.759265274915, 7555.224902060617, 0.024, 0.912, 0.468, 192.0, 0.0, 0.0, 0.0, 0.0, 0.0, 0.0, 0.0, 0.0, 0.0, 1.654609199812837E9, 0.0, 2022-06-07 15:39:59.812
50.0, 39477.18167032977, 14544.391875790583, -19178.51199847603, -21466.10128475443, -4833.900014626982, -5890.489326773802, 15759.16448344761, 7566.7360504551, 0.024, 0.912, 0.468, 192.0, 0.0, 0.0, 0.0, 0.0, 0.0, 0.0, 0.0, 0.0, 0.0, 1.654609199812839E9, 0.0, 2022-06-07 15:39:59.812
51.0, 39584.917078604354, 14566.07306791223, -19139.619963123794, -21432.57366807147, -4786.983703015292, -5847.8198466086205, 15798.168277522122, 7584.192762874694, 0.024, 0.912, 0.468, 192.0, 0.0, 0.0, 0.0, 0.0, 0.0, 0.0, 0.0, 0.0, 0.0, 1.654609199812842E9, 0.0, 2022-06-07 15:39:59.812
52.0, 39549.04252875358, 14543.698971712467, -19180.724821177104, -21428.416243602784, -4809.849537593072, -5781.748089998733, 15801.945722335067, 7583.231637863117, 0.024, 0.912, 0.468, 192.0, 0.0, 0.0, 0.0, 0.0, 0.0, 0.0, 0.0, 0.0, 0.0, 1.654609199812844E9, 0.0, 2022-06-07 15:39:59.812
53.0, 39420.38588766884, 14506.39391021656, -19229.071644433934, -21454.76895031559, -4864.276035341744, -5779.065880664097, 15772.530826631884, 7575.564989514946, 0.024, 0.912, 0.468, 192.0, 0.0, 0.0, 0.0, 0.0, 0.0, 0.0, 0.0, 0.0, 0.0, 1.654609199812847E9, 0.0, 2022-06-07 15:39:59.812
54.0, 39380.95741044968, 14511.713625396924, -19218.834545473404, -21464.022572520087, -4872.814401723672, -5828.351477188048, 15763.254852682932, 7581.510553540058, 0.024, 0.912, 0.468, 192.0, 0.0, 0.0, 0.0, 0.0, 0.0, 0.0, 0.0, 0.0, 0.0, 1.654609199812849E9, 0.0, 2022-06-07 15:39:59.812
55.0, 39474.09712959494, 14548.079913625708, -19171.47119897261, -21446.14117695584, -4832.782427404217, -5863.086088071595, 15778.096411001256, 7597.782623503522, 0.024, 0.912, 0.468, 192.0, 0.0, 0.0, 0.0, 0.0, 0.0, 0.0, 0.0, 0.0, 0.0, 1.654609199812852E9, 0.0, 2022-06-07 15:39:59.812
56.0, 39569.98611330821, 14564.26257661135, -19156.808454609927, -21422.180106899752, -4801.5793921446075, -5828.642049865967, 15790.456925685041, 7602.185917161217, 0.024, 0.912, 0.468, 192.0, 0.0, 0.0, 0.0, 0.0, 0.0, 0.0, 0.0, 0.0, 0.0, 1.654609199812854E9, 0.0, 2022-06-07 15:39:59.812
57.0, 39536.749069303165, 14529.282096538795, -19200.148487108767, -21417.86622021988, -4827.060380823658, -5764.42548804587, 15785.092507015766, 7595.994483947097, 0.024, 0.912, 0.468, 192.0, 0.0, 0.0, 0.0, 0.0, 0.0, 0.0, 0.0, 0.0, 0.0, 1.654609199812857E9, 0.0, 2022-06-07 15:39:59.812
58.0, 39407.82420728495, 14495.843886833656, -19248.33884815441, -21440.57559258647, -4880.5257535607525, -5765.386613057449, 15763.098390471745, 7585.042129163997, 0.02, 0.906, 0.462, 192.0, 0.0, 160.0, 28.0, 80.0, 14.0, 112.0, 0.0, 0.0, 0.0, 1.65460919981286E9, 0.0, 2022-06-07 15:39:59.812
59.0, 39353.107136858365, 14494.860410077621, -19242.348580640388, -21460.736866085157, -4886.180744907945, -5821.310677684627, 15753.241271166955, 7583.611617518857, 0.02, 0.906, 0.462, 192.0, 0.0, 0.0, 0.0, 0.0, 0.0, 0.0, 0.0, 0.0, 0.0, 1.654609199812862E9, 0.0, 2022-06-07 15:39:59.812
60.0, 39453.60057992942, 14529.237393049883, -19197.488629518586, -21448.599868845926, -4838.012735606759, -5864.024861338718, 15767.904015529635, 7593.066405423451, 0.02, 0.906, 0.462, 192.0, 0.0, 0.0, 0.0, 0.0, 0.0, 0.0, 0.0, 0.0, 0.0, 1.654609199872571E9, 0.0, 2022-06-07 15:39:59.872
61.0, 39567.795642351586, 14555.634803251602, -19154.707390631127, -21420.034339432044, -4793.465708907332, -5833.514730157224, 15800.783431623393, 7602.141213672307, 0.02, 0.906, 0.462, 192.0, 0.0, 0.0, 0.0, 0.0, 0.0, 0.0, 0.0, 0.0, 0.0, 1.654609199872582E9, 0.0, 2022-06-07 15:39:59.872
62.0, 39540.4818106272, 14538.870994910121, -19190.112553848336, -21426.873973235368, -4815.325714984621, -5783.536229555158, 15798.347091477764, 7588.55135304348, 0.02, 0.906, 0.462, 192.0, 0.0, 0.0, 0.0, 0.0, 0.0, 0.0, 0.0, 0.0, 0.0, 1.654609199872587E9, 0.0, 2022-06-07 15:39:59.872
63.0, 39404.493797361116, 14508.025587561797, -19240.806310272972, -21466.637726621357, -4865.237160353322, -5795.270895394194, 15771.256777197932, 7570.7370127126, 0.02, 0.906, 0.462, 192.0, 0.0, 0.0, 0.0, 0.0, 0.0, 0.0, 0.0, 0.0, 0.0, 1.654609199872592E9, 0.0, 2022-06-07 15:39:59.872
64.0, 39362.31605557395, 14505.63395090508, -19236.04538870399, -21490.732907144178, -4881.576285550152, -5853.296024000171, 15765.780599806381, 7564.523227754024, 0.02, 0.906, 0.462, 192.0, 0.0, 0.0, 0.0, 0.0, 0.0, 0.0, 0.0, 0.0, 0.0, 1.654609199872615E9, 0.0, 2022-06-07 15:39:59.872
65.0, 39466.206963802215, 14540.569727488724, -19179.160199065234, -21470.504578412125, -4835.732857672317, -5888.902352917476, 15791.418050696619, 7578.627178505323, 0.02, 0.906, 0.462, 192.0, 0.0, 0.0, 0.0, 0.0, 0.0, 0.0, 0.0, 0.0, 0.0, 1.654609199872619E9, 0.0, 2022-06-07 15:39:59.872
66.0, 39577.161023278364, 14557.802922463767, -19146.99603879405, -21429.667941292282, -4787.676607093407, -5850.703221643355, 15777.939948790068, 7593.625199034835, 0.02, 0.906, 0.462, 192.0, 0.0, 0.0, 0.0, 0.0, 0.0, 0.0, 0.0, 0.0, 0.0, 1.654609199872623E9, 0.0, 2022-06-07 15:39:59.872
67.0, 39539.25246468216, 14532.232526806894, -19185.88807414628, -21423.409452844793, -4808.575488159119, -5789.593552302546, 15784.131382004189, 7587.053786164974, 0.02, 0.906, 0.462, 192.0, 0.0, 0.0, 0.0, 0.0, 0.0, 0.0, 0.0, 0.0, 0.0, 1.654609199872627E9, 0.0, 2022-06-07 15:39:59.872
68.0, 39402.68330606024, 14495.419203689004, -19240.873365506337, -21459.48516839566, -4859.068078883658, -5799.249505907239, 15750.693172299048, 7567.719527211133, 0.03, 0.908, 0.46, 192.0, 0.0, 240.0, 28.0, 96.0, 14.0, 96.0, 0.0, 0.0, 0.0, 1.654609199872631E9, 0.0, 2022-06-07 15:39:59.872
69.0, 39359.052700883476, 14499.889552580065, -19242.348580640388, -21472.851511579935, -4874.490782557819, -5853.296024000171, 15733.97406744648, 7562.7350881976, 0.03, 0.908, 0.46, 192.0, 0.0, 0.0, 0.0, 0.0, 0.0, 0.0, 0.0, 0.0, 0.0, 1.654609199872635E9, 0.0, 2022-06-07 15:39:59.872
70.0, 39452.639454917844, 14540.480320510904, -19191.118382348825, -21451.125615969377, -4833.542386715697, -5889.885829673509, 15753.241271166955, 7573.374518558326, 0.03, 0.908, 0.46, 192.0, 0.0, 0.0, 0.0, 0.0, 0.0, 0.0, 0.0, 0.0, 0.0, 1.654609199872639E9, 0.0, 2022-06-07 15:39:59.872
71.0, 39554.07167125603, 14550.426846793514, -19169.99598383856, -21426.359883112895, -4798.450147920865, -5853.720707144822, 15780.331585446786, 7579.163620372251, 0.03, 0.908, 0.46, 192.0, 0.0, 0.0, 0.0, 0.0, 0.0, 0.0, 0.0, 0.0, 0.0, 1.654609199872644E9, 0.0, 2022-06-07 15:39:59.872
72.0, 39526.91430174283, 14526.152852315052, -19210.743213980582, -21431.545487826526, -4815.5492324291745, -5790.040587191652, 15784.086678515278, 7573.30746332496, 0.03, 0.908, 0.46, 192.0, 0.0, 0.0, 0.0, 0.0, 0.0, 0.0, 0.0, 0.0, 0.0, 1.654609199872648E9, 0.0, 2022-06-07 15:39:59.872
73.0, 39402.90682350479, 14486.903189051533, -19240.51573759505, -21451.796168303033, -4864.656014997485, -5789.682959280367, 15767.054649240334, 7562.2880533084935, 0.03, 0.908, 0.46, 192.0, 0.0, 0.0, 0.0, 0.0, 0.0, 0.0, 0.0, 0.0, 0.0, 1.654609199872652E9, 0.0, 2022-06-07 15:39:59.872
74.0, 39350.89431415729, 14483.013985516309, -19236.268906148543, -21477.50067442664, -4884.951398962903, -5840.667288382922, 15750.961393232512, 7561.282224808005, 0.03, 0.908, 0.46, 192.0, 0.0, 0.0, 0.0, 0.0, 0.0, 0.0, 0.0, 0.0, 0.0, 1.654609199872656E9, 0.0, 2022-06-07 15:39:59.872
75.0, 39448.83965836044, 14527.024570348809, -19189.017318370024, -21467.464741166204, -4844.494741498797, -5878.531143490212, 15765.534730617373, 7575.9673209151415, 0.03, 0.908, 0.46, 192.0, 0.0, 0.0, 0.0, 0.0, 0.0, 0.0, 0.0, 0.0, 0.0, 1.654609199932913E9, 0.0, 2022-06-07 15:39:59.932
76.0, 39569.29320923009, 14562.988527177398, -19147.755998105527, -21428.080967435955, -4785.150859969957, -5832.620660379012, 15818.37425450972, 7604.331684628926, 0.03, 0.908, 0.46, 192.0, 0.0, 0.0, 0.0, 0.0, 0.0, 0.0, 0.0, 0.0, 0.0, 1.654609199932918E9, 0.0, 2022-06-07 15:39:59.932
77.0, 39538.31369141504, 14534.7806256748, -19179.45077174315, -21423.297694122517, -4802.42875843391, -5769.588741015046, 15825.057426101856, 7605.0245887070405, 0.03, 0.908, 0.46, 192.0, 0.0, 0.0, 0.0, 0.0, 0.0, 0.0, 0.0, 0.0, 0.0, 1.65460919993292E9, 0.0, 2022-06-07 15:39:59.932
78.0, 39407.82420728495, 14498.01200604582, -19225.741234510093, -21453.58430785946, -4863.806648708182, -5772.092136394041, 15792.200361752555, 7591.45707982267, 0.022, 0.91, 0.456, 192.0, 0.0, 176.0, 28.0, 112.0, 14.0, 64.0, 0.0, 0.0, 0.0, 1.654609199932923E9, 0.0, 2022-06-07 15:39:59.932
79.0, 39364.68534048621, 14508.718491639913, -19216.577019283417, -21468.895252811344, -4877.843544226115, -5825.557509131135, 15779.571626135306, 7592.149983900784, 0.022, 0.91, 0.456, 192.0, 0.0, 0.0, 0.0, 0.0, 0.0, 0.0, 0.0, 0.0, 0.0, 1.654609199932925E9, 0.0, 2022-06-07 15:39:59.932
80.0, 39464.82115564599, 14552.170282861029, -19169.683059416184, -21454.47837763767, -4831.977764603826, -5869.4786869858135, 15790.658091385138, 7600.017797949052, 0.022, 0.91, 0.456, 192.0, 0.0, 0.0, 0.0, 0.0, 0.0, 0.0, 0.0, 0.0, 0.0, 1.654609199932927E9, 0.0, 2022-06-07 15:39:59.932
81.0, 39575.909325588866, 14572.309204615261, -19140.15640499072, -21418.00033068661, -4788.056586749147, -5844.265919240227, 15808.31596950483, 7601.716530527656, 0.022, 0.91, 0.456, 192.0, 0.0, 0.0, 0.0, 0.0, 0.0, 0.0, 0.0, 0.0, 0.0, 1.654609199932929E9, 0.0, 2022-06-07 15:39:59.932
82.0, 39545.5333048741, 14546.492939769381, -19171.27003327251, -21410.937179438733, -4802.47346192282, -5787.403081345926, 15799.084699044788, 7590.183030388717, 0.022, 0.91, 0.456, 192.0, 0.0, 0.0, 0.0, 0.0, 0.0, 0.0, 0.0, 0.0, 0.0, 1.654609199932932E9, 0.0, 2022-06-07 15:39:59.932
83.0, 39425.258567960096, 14514.172317287008, -19217.828716972916, -21436.57463032897, -4849.814456679161, -5787.447784834836, 15767.725201573992, 7573.061594135952, 0.022, 0.91, 0.456, 192.0, 0.0, 0.0, 0.0, 0.0, 0.0, 0.0, 0.0, 0.0, 0.0, 1.654609199932934E9, 0.0, 2022-06-07 15:39:59.932
84.0, 39369.178041121726, 14512.853564364144, -19227.551725810972, -21463.955517286722, -4870.758041233783, -5845.852893096554, 15742.44537859504, 7562.198646330673, 0.022, 0.91, 0.456, 192.0, 0.0, 0.0, 0.0, 0.0, 0.0, 0.0, 0.0, 0.0, 0.0, 1.654609199932936E9, 0.0, 2022-06-07 15:39:59.932
85.0, 39470.29733303754, 14551.365620060638, -19165.480931458587, -21443.168394943285, -4829.6308314360185, -5889.125870362029, 15759.678573570083, 7573.352166813871, 0.022, 0.91, 0.456, 192.0, 0.0, 0.0, 0.0, 0.0, 0.0, 0.0, 0.0, 0.0, 0.0, 1.654609199932938E9, 0.0, 2022-06-07 15:39:59.932
86.0, 39584.80531988208, 14578.970024462942, -19134.300247943433, -21399.202513599696, -4786.693130337373, -5858.101649058062, 15785.159562249133, 7581.1305738843175, 0.022, 0.91, 0.456, 192.0, 0.0, 0.0, 0.0, 0.0, 0.0, 0.0, 0.0, 0.0, 0.0, 1.654609199932948E9, 0.0, 2022-06-07 15:39:59.932
87.0, 39552.59645612198, 14542.916660656532, -19175.159236807733, -21404.72339448016, -4807.547307914175, -5799.763596029711, 15799.799954867358, 7571.608730746357, 0.022, 0.91, 0.456, 192.0, 0.0, 0.0, 0.0, 0.0, 0.0, 0.0, 0.0, 0.0, 0.0, 1.654609199932951E9, 0.0, 2022-06-07 15:39:59.932
88.0, 39421.682288847245, 14501.901209581043, -19224.780109498515, -21447.370522900885, -4862.107916129579, -5804.7927385321545, 15800.001120567456, 7554.107314837852, 0.036000000000000004, 0.91, 0.454, 192.0, 1.0, 32.0, 28.0, 112.0, 14.0, 48.0, 0.0, 0.0, 0.0, 1.654609199932953E9, 0.0, 2022-06-07 15:39:59.932
89.0, 39370.49679404459, 14507.310331739227, -19214.073623904424, -21468.716438855703, -4872.322663345655, -5850.412648965436, 15745.239346651953, 7557.080096850407, 0.036000000000000004, 0.91, 0.454, 192.0, 0.0, 0.0, 0.0, 0.0, 0.0, 0.0, 0.0, 0.0, 0.0, 1.654609199932955E9, 0.0, 2022-06-07 15:39:59.932
90.0, 39463.14477481184, 14533.528927985302, -19167.31377450392, -21459.306354440017, -4832.581261704119, -5886.264847071749, 15760.796160792848, 7570.759364457055, 0.036000000000000004, 0.91, 0.454, 192.0, 0.0, 0.0, 0.0, 0.0, 0.0, 0.0, 0.0, 0.0, 0.0, 1.65460919999323E9, 0.0, 2022-06-07 15:39:59.993
91.0, 39569.87435458593, 14554.807788706756, -19139.463500912607, -21434.25004890562, -4789.062415249636, -5852.580768177601, 15792.066251285822, 7588.730166999122, 0.036000000000000004, 0.91, 0.454, 192.0, 0.0, 0.0, 0.0, 0.0, 0.0, 0.0, 0.0, 0.0, 0.0, 1.65460919999324E9, 0.0, 2022-06-07 15:39:59.993
92.0, 39537.956063503756, 14527.426901749004, -19170.331260005387, -21428.371540113872, -4798.494851409776, -5786.441956334348, 15798.883533344691, 7591.45707982267, 0.036000000000000004, 0.91, 0.454, 192.0, 0.0, 0.0, 0.0, 0.0, 0.0, 0.0, 0.0, 0.0, 0.0, 1.654609199993244E9, 0.0, 2022-06-07 15:39:59.993
93.0, 39400.06815195896, 14488.601921630136, -19227.887001977804, -21460.37923817387, -4851.982575891326, -5784.340892355549, 15774.78835282187, 7577.64370174929, 0.036000000000000004, 0.91, 0.454, 192.0, 0.0, 0.0, 0.0, 0.0, 0.0, 0.0, 0.0, 0.0, 0.0, 1.65460919999326E9, 0.0, 2022-06-07 15:39:59.993
94.0, 39350.380224034816, 14495.10627926663, -19236.470071848642, -21477.00893604862, -4871.026262167247, -5827.837387065576, 15761.153788704132, 7578.157791871762, 0.036000000000000004, 0.91, 0.454, 192.0, 0.0, 0.0, 0.0, 0.0, 0.0, 0.0, 0.0, 0.0, 0.0, 1.654609199993264E9, 0.0, 2022-06-07 15:39:59.993
95.0, 39458.83088813197, 14538.535718743291, -19173.572262951406, -21449.583345601957, -4823.864081366549, -5848.065715797629, 15784.310195959832, 7601.0906816829065, 0.036000000000000004, 0.91, 0.454, 192.0, 0.0, 0.0, 0.0, 0.0, 0.0, 0.0, 0.0, 0.0, 0.0, 1.654609199993268E9, 0.0, 2022-06-07 15:39:59.993
96.0, 39578.32331399004, 14562.519140543836, -19140.089349757356, -21411.943007939222, -4783.51918262472, -5810.067750223608, 15811.847545128769, 7616.803958034988, 0.036000000000000004, 0.91, 0.454, 192.0, 0.0, 0.0, 0.0, 0.0, 0.0, 0.0, 0.0, 0.0, 0.0, 1.654609199993271E9, 0.0, 2022-06-07 15:39:59.993
97.0, 39558.36320619145, 14551.343268316183, -19174.26516702952, -21401.527095023048, -4797.869002565027, -5743.817179658077, 15810.640550928183, 7612.423016121747, 0.036000000000000004, 0.91, 0.454, 192.0, 0.0, 0.0, 0.0, 0.0, 0.0, 0.0, 0.0, 0.0, 0.0, 1.654609199993289E9, 0.0, 2022-06-07 15:39:59.993
98.0, 39429.28188196205, 14521.34722725716, -19228.959885711658, -21442.184918187253, -4857.861084683071, -5752.824932673566, 15780.242178468965, 7589.646588521789, 0.032, 0.908, 0.456, 192.0, 1.0, 0.0, 28.0, 96.0, 14.0, 64.0, 0.0, 0.0, 0.0, 1.654609199993293E9, 0.0, 2022-06-07 15:39:59.993
99.0, 39383.50550931758, 14519.715549911924, -19218.07458616192, -21453.29373518154, -4871.8979802010035, -5804.725683298789, 15774.140152232667, 7591.255914122572, 0.032, 0.908, 0.456, 192.0, 0.0, 0.0, 0.0, 0.0, 0.0, 0.0, 0.0, 0.0, 0.0, 1.654609199993297E9, 0.0, 2022-06-07 15:39:59.993
100.0, 39470.74436792664, 14537.976925131909, -19175.11453331882, -21433.91477273879, -4841.186683319412, -5854.659480411945, 15776.956472034035, 7594.40751009077, 0.032, 0.908, 0.456, 192.0, 0.0, 0.0, 0.0, 0.0, 0.0, 0.0, 0.0, 0.0, 0.0, 1.654609199993301E9, 0.0, 2022-06-07 15:39:59.993
101.0, 39586.14642454939, 14575.259634883361, -19142.70450385863, -21403.941083424223, -4790.917610039426, -5829.20084347735, 15806.281960759397, 7605.7845480185215, 0.032, 0.908, 0.456, 192.0, 0.0, 0.0, 0.0, 0.0, 0.0, 0.0, 0.0, 0.0, 0.0, 1.654609199993305E9, 0.0, 2022-06-07 15:39:59.993
102.0, 39555.16690673434, 14551.007992149353, -19181.26126304403, -21405.461002047185, -4809.536613170697, -5779.691729508845, 15802.593922924272, 7589.490126310602, 0.032, 0.908, 0.456, 192.0, 0.0, 0.0, 0.0, 0.0, 0.0, 0.0, 0.0, 0.0, 0.0, 1.654609199993309E9, 0.0, 2022-06-07 15:39:59.993
103.0, 39425.526788893556, 14506.930352083487, -19225.42831008772, -21441.760235042602, -4864.656014997485, -5789.347683113538, 15760.818512537304, 7567.272492322028, 0.032, 0.908, 0.456, 192.0, 0.0, 0.0, 0.0, 0.0, 0.0, 0.0, 0.0, 0.0, 0.0, 1.654609199993313E9, 0.0, 2022-06-07 15:39:59.993
104.0, 39365.57941026442, 14507.91382883952, -19214.587714026897, -21463.30731669752, -4873.820230224161, -5849.675041398411, 15732.476500567975, 7558.555311984457, 0.032, 0.908, 0.456, 192.0, 0.0, 0.0, 0.0, 0.0, 0.0, 0.0, 0.0, 0.0, 0.0, 1.654609199993317E9, 0.0, 2022-06-07 15:39:59.993
105.0, 39454.539353196546, 14544.078951368208, -19163.491626202063, -21447.48228162316, -4832.983593104314, -5892.970370408341, 15746.669858297093, 7569.105335367362, 0.032, 0.908, 0.456, 192.0, 0.0, 0.0, 0.0, 0.0, 0.0, 0.0, 0.0, 0.0, 0.0, 1.654609200053438E9, 0.0, 2022-06-07 15:40:00.053
106.0, 39569.91905807484, 14573.225626137928, -19123.817279793893, -21413.1052986509, -4781.3287116680995, -5859.4427537253805, 15783.75140234845, 7584.684501252712, 0.032, 0.908, 0.456, 192.0, 0.0, 0.0, 0.0, 0.0, 0.0, 0.0, 0.0, 0.0, 0.0, 1.654609200053443E9, 0.0, 2022-06-07 15:40:00.053
107.0, 39543.8345722955, 14543.028419378808, -19150.393503951254, -21415.474583563162, -4795.52206939722, -5803.049302464641, 15789.562855906828, 7574.760326714555, 0.032, 0.906, 0.464, 192.0, 1.0, 0.0, 28.0, 80.0, 14.0, 128.0, 0.0, 0.0, 0.0, 1.654609200053455E9, 0.0, 2022-06-07 15:40:00.053
108.0, 39416.94371902272, 14502.68352063698, -19206.697548234173, -21450.09743572443, -4851.2449683243, -5798.802471018133, 15760.572643348294, 7557.281262550505, 0.032, 0.906, 0.464, 192.0, 0.0, 0.0, 0.0, 0.0, 0.0, 0.0, 0.0, 0.0, 0.0, 1.654609200053457E9, 0.0, 2022-06-07 15:40:00.053
109.0, 39364.350064319384, 14500.738918869367, -19213.447775059674, -21470.348116200938, -4867.561741776674, -5840.332012216093, 15773.0225650099, 7558.376498028815, 0.032, 0.906, 0.464, 192.0, 0.0, 0.0, 0.0, 0.0, 0.0, 0.0, 0.0, 0.0, 0.0, 1.654609200053459E9, 0.0, 2022-06-07 15:40:00.053
110.0, 39450.11370779439, 14529.818538405721, -19173.639318184774, -21459.261650951106, -4831.8660058815485, -5882.30858830316, 15779.303405201843, 7570.826419690421, 0.032, 0.906, 0.464, 192.0, 0.0, 0.0, 0.0, 0.0, 0.0, 0.0, 0.0, 0.0, 0.0, 1.654609200053462E9, 0.0, 2022-06-07 15:40:00.053
111.0, 39559.52549690312, 14559.903986442565, -19142.615096880807, -21430.56201107049, -4784.860287292038, -5848.088067542085, 15785.31602446032, 7589.9371611997085, 0.032, 0.906, 0.464, 192.0, 0.0, 0.0, 0.0, 0.0, 0.0, 0.0, 0.0, 0.0, 0.0, 1.654609200053464E9, 0.0, 2022-06-07 15:40:00.053
112.0, 39536.6820140698, 14535.562936730736, -19181.95416712215, -21423.454156333704, -4797.9360577983925, -5784.340892355549, 15804.292655502875, 7590.02656817753, 0.032, 0.906, 0.464, 192.0, 0.0, 0.0, 0.0, 0.0, 0.0, 0.0, 0.0, 0.0, 0.0, 1.654609200053466E9, 0.0, 2022-06-07 15:40:00.053
113.0, 39407.71244856268, 14496.022700789297, -19236.00068521508, -21449.71745606869, -4850.753229946284, -5772.360357327504, 15789.36169020673, 7577.978977916119, 0.032, 0.906, 0.464, 192.0, 0.0, 0.0, 0.0, 0.0, 0.0, 0.0, 0.0, 0.0, 0.0, 1.654609200053468E9, 0.0, 2022-06-07 15:40:00.053
114.0, 39342.22183730863, 14484.332738439172, -19248.584717343416, -21482.06043029552, -4873.239084868323, -5827.3903521764705, 15761.757285804426, 7570.7370127126, 0.032, 0.906, 0.464, 192.0, 0.0, 0.0, 0.0, 0.0, 0.0, 0.0, 0.0, 0.0, 0.0, 1.65460920005347E9, 0.0, 2022-06-07 15:40:00.053
115.0, 39442.581169912955, 14523.91767786952, -19195.722841706614, -21463.575537630983, -4829.742590158295, -5855.240625767783, 15774.766001077414, 7592.418204834248, 0.032, 0.906, 0.464, 192.0, 0.0, 0.0, 0.0, 0.0, 0.0, 0.0, 0.0, 0.0, 0.0, 1.654609200053473E9, 0.0, 2022-06-07 15:40:00.053
116.0, 39549.37780492041, 14544.235413579396, -19178.154370564745, -21438.519232096583, -4791.811679817639, -5825.6916195978665, 15809.299446260864, 7608.399702119792, 0.032, 0.906, 0.464, 192.0, 0.0, 0.0, 0.0, 0.0, 0.0, 0.0, 0.0, 0.0, 0.0, 1.654609200053487E9, 0.0, 2022-06-07 15:40:00.053
117.0, 39526.7801912761, 14521.235468534884, -19207.971597668125, -21433.691255294234, -4806.362665458044, -5766.481848535758, 15813.948609107569, 7606.320989885448, 0.026000000000000002, 0.902, 0.466, 192.0, 0.0, 208.0, 28.0, 48.0, 14.0, 144.0, 0.0, 0.0, 0.0, 1.65460920005349E9, 0.0, 2022-06-07 15:40:00.053
118.0, 39398.92821299174, 14487.909017552021, -19246.394246386797, -21458.94872652873, -4860.4538870398865, -5759.239883332239, 15781.918559303112, 7594.541620557502, 0.026000000000000002, 0.902, 0.466, 192.0, 0.0, 0.0, 0.0, 0.0, 0.0, 0.0, 0.0, 0.0, 0.0, 1.654609200053492E9, 0.0, 2022-06-07 15:40:00.053
119.0, 39345.41813676574, 14489.160715241518, -19240.247516661588, -21474.058505780522, -4875.697776758406, -5803.2728199091935, 15762.964280005013, 7598.922562470742, 0.026000000000000002, 0.902, 0.466, 192.0, 0.0, 0.0, 0.0, 0.0, 0.0, 0.0, 0.0, 0.0, 0.0, 1.654609200053494E9, 0.0, 2022-06-07 15:40:00.053
120.0, 39433.86398957539, 14525.929334870498, -19185.642204957272, -21453.360790414907, -4837.073962339636, -5844.154160517951, 15769.781562063881, 7611.350132387893, 0.026000000000000002, 0.902, 0.466, 192.0, 0.0, 0.0, 0.0, 0.0, 0.0, 0.0, 0.0, 0.0, 0.0, 1.654609200112917E9, 0.0, 2022-06-07 15:40:00.112
121.0, 39549.601322364964, 14561.44625680998, -19142.346875947344, -21409.260798604584, -4788.481269893798, -5812.302924669138, 15798.682367644593, 7626.951650017697, 0.026000000000000002, 0.902, 0.466, 192.0, 0.0, 0.0, 0.0, 0.0, 0.0, 0.0, 0.0, 0.0, 0.0, 1.654609200112923E9, 0.0, 2022-06-07 15:40:00.112
122.0, 39530.602339577956, 14532.277230295806, -19175.11453331882, -21405.61746425837, -4810.251868993267, -5760.469229277281, 15794.569646664817, 7609.405530620281, 0.026000000000000002, 0.902, 0.466, 192.0, 0.0, 0.0, 0.0, 0.0, 0.0, 0.0, 0.0, 0.0, 0.0, 1.654609200112926E9, 0.0, 2022-06-07 15:40:00.112
123.0, 39413.47919863215, 14492.334662954172, -19226.970580455134, -21440.173261186275, -4870.3110063446775, -5770.907493937909, 15761.332602659775, 7581.667015751245, 0.026000000000000002, 0.902, 0.466, 192.0, 0.0, 0.0, 0.0, 0.0, 0.0, 0.0, 0.0, 0.0, 0.0, 1.654609200112928E9, 0.0, 2022-06-07 15:40:00.112
124.0, 39360.706729973164, 14502.43765144797, -19225.09303392089, -21458.702857339726, -4886.896000730515, -5830.184320233384, 15739.383189604663, 7573.218056347139, 0.026000000000000002, 0.902, 0.466, 192.0, 0.0, 0.0, 0.0, 0.0, 0.0, 0.0, 0.0, 0.0, 0.0, 1.654609200112931E9, 0.0, 2022-06-07 15:40:00.112
125.0, 39458.00387358712, 14555.433637551503, -19175.718030419117, -21447.929316512265, -4847.5345787447195, -5878.799364423677, 15744.322925129287, 7581.287036095505, 0.026000000000000002, 0.902, 0.466, 192.0, 0.0, 0.0, 0.0, 0.0, 0.0, 0.0, 0.0, 0.0, 0.0, 1.654609200112933E9, 0.0, 2022-06-07 15:40:00.112
126.0, 39583.084235559014, 14598.416042139059, -19134.054378754423, -21406.645644503315, -4797.690188609385, -5851.932567588397, 15776.174160978098, 7594.608675790868, 0.026000000000000002, 0.902, 0.466, 192.0, 0.0, 0.0, 0.0, 0.0, 0.0, 0.0, 0.0, 0.0, 0.0, 1.654609200112936E9, 0.0, 2022-06-07 15:40:00.112
127.0, 39563.88408707191, 14579.350004118682, -19170.443018727663, -21384.115086092366, -4807.703770125362, -5789.995883702742, 15791.418050696619, 7588.55135304348, 0.03, 0.906, 0.464, 192.0, 0.0, 240.0, 28.0, 80.0, 14.0, 128.0, 0.0, 0.0, 0.0, 1.654609200112938E9, 0.0, 2022-06-07 15:40:00.112
128.0, 39438.04376578853, 14528.946820371964, -19215.2359146161, -21425.06348193449, -4865.393622564509, -5790.979360458775, 15774.430724910586, 7560.611672474346, 0.03, 0.906, 0.464, 192.0, 0.0, 0.0, 0.0, 0.0, 0.0, 0.0, 0.0, 0.0, 0.0, 1.654609200112952E9, 0.0, 2022-06-07 15:40:00.112
129.0, 39371.72613998963, 14524.007084847342, -19212.9336849372, -21451.125615969377, -4886.15839316349, -5838.655631381945, 15768.663974841116, 7554.844922404876, 0.03, 0.906, 0.464, 192.0, 0.0, 0.0, 0.0, 0.0, 0.0, 0.0, 0.0, 0.0, 0.0, 1.654609200112954E9, 0.0, 2022-06-07 15:40:00.112
130.0, 39442.33530072395, 14555.478341040414, -19172.566434450917, -21442.34138039844, -4844.986479876814, -5887.695358716889, 15738.444416337541, 7564.702041709667, 0.03, 0.906, 0.464, 192.0, 0.0, 0.0, 0.0, 0.0, 0.0, 0.0, 0.0, 0.0, 0.0, 1.654609200112957E9, 0.0, 2022-06-07 15:40:00.112
131.0, 39556.329197446015, 14580.780515763821, -19140.379922435277, -21410.445441060718, -4791.118775739525, -5859.487457214291, 15773.804876065837, 7581.845829706887, 0.03, 0.906, 0.464, 192.0, 0.0, 0.0, 0.0, 0.0, 0.0, 0.0, 0.0, 0.0, 0.0, 1.654609200112959E9, 0.0, 2022-06-07 15:40:00.112
132.0, 39547.813182808546, 14558.093495141686, -19173.907539118238, -21413.9546649402, -4803.881621823504, -5800.367093130004, 15779.728088346494, 7576.235541848606, 0.03, 0.906, 0.464, 192.0, 0.0, 0.0, 0.0, 0.0, 0.0, 0.0, 0.0, 0.0, 0.0, 1.654609200112962E9, 0.0, 2022-06-07 15:40:00.112
133.0, 39419.46946614617, 14506.483317194381, -19231.686798535204, -21455.43950264925, -4861.280901584733, -5802.825785020088, 15751.631945566172, 7557.013041617041, 0.03, 0.906, 0.464, 192.0, 0.0, 0.0, 0.0, 0.0, 0.0, 0.0, 0.0, 0.0, 0.0, 1.654609200112965E9, 0.0, 2022-06-07 15:40:00.112
134.0, 39346.35691003286, 14495.665072878013, -19235.95598172617, -21480.11582852791, -4878.849372726604, -5854.815942623132, 15747.340410630753, 7556.521303239025, 0.03, 0.906, 0.464, 192.0, 0.0, 0.0, 0.0, 0.0, 0.0, 0.0, 0.0, 0.0, 0.0, 1.654609200112967E9, 0.0, 2022-06-07 15:40:00.112
135.0, 39415.8037800555, 14528.58919246068, -19185.262225301532, -21466.861244065913, -4832.201282048379, -5892.500983774779, 15775.905940044635, 7575.632044748312, 0.03, 0.906, 0.464, 192.0, 0.0, 0.0, 0.0, 0.0, 0.0, 0.0, 0.0, 0.0, 0.0, 1.654609200172617E9, 0.0, 2022-06-07 15:40:00.172
136.0, 39526.623729064915, 14546.425884536015, -19152.606326652327, -21437.446348362726, -4787.386034415488, -5864.069564827629, 15804.404414225151, 7590.78652748901, 0.03, 0.906, 0.464, 192.0, 0.0, 0.0, 0.0, 0.0, 0.0, 0.0, 0.0, 0.0, 0.0, 1.654609200172623E9, 0.0, 2022-06-07 15:40:00.172
137.0, 39512.564481802525, 14520.274343523306, -19185.753963679548, -21447.10230196742, -4800.640618877485, -5807.229078677783, 15800.939893834578, 7582.449326807181, 0.03, 0.91, 0.464, 192.0, 0.0, 240.0, 28.0, 112.0, 14.0, 128.0, 0.0, 0.0, 0.0, 1.654609200172625E9, 0.0, 2022-06-07 15:40:00.172
138.0, 39383.930192462234, 14481.270549448795, -19231.195060157188, -21470.571633645493, -4845.187645576912, -5794.533287827169, 15780.666861613616, 7574.246236592083, 0.03, 0.91, 0.464, 192.0, 0.0, 0.0, 0.0, 0.0, 0.0, 0.0, 0.0, 0.0, 0.0, 1.654609200172627E9, 0.0, 2022-06-07 15:40:00.172
139.0, 39311.82346484941, 14476.017889501798, -19234.816042758946, -21483.44623845175, -4856.989366649314, -5833.6711923684115, 15778.051707512344, 7581.1305738843175, 0.03, 0.91, 0.464, 192.0, 0.0, 0.0, 0.0, 0.0, 0.0, 0.0, 0.0, 0.0, 0.0, 1.65460920017263E9, 0.0, 2022-06-07 15:40:00.172
140.0, 39399.41995136976, 14508.450270706448, -19193.308853305443, -21473.34324995795, -4818.946697586382, -5874.708995188355, 15799.934065334091, 7601.6941787832, 0.03, 0.91, 0.464, 192.0, 0.0, 0.0, 0.0, 0.0, 0.0, 0.0, 0.0, 0.0, 0.0, 1.654609200172632E9, 0.0, 2022-06-07 15:40:00.172
141.0, 39523.762705774636, 14537.485186753893, -19145.54317540445, -21436.306409395507, -4769.795211529161, -5836.331049958593, 15835.339228551296, 7624.6270685943455, 0.03, 0.91, 0.464, 192.0, 0.0, 0.0, 0.0, 0.0, 0.0, 0.0, 0.0, 0.0, 0.0, 1.654609200172634E9, 0.0, 2022-06-07 15:40:00.172
142.0, 39516.744258015664, 14519.335570256182, -19184.882245645793, -21432.752482027114, -4783.429775646899, -5773.589703272546, 15833.551088994873, 7617.966248746664, 0.03, 0.91, 0.464, 192.0, 0.0, 0.0, 0.0, 0.0, 0.0, 0.0, 0.0, 0.0, 0.0, 1.654609200172636E9, 0.0, 2022-06-07 15:40:00.172
143.0, 39394.636678056326, 14478.700098836434, -19247.33301965392, -21459.73103758467, -4850.14973284599, -5761.542113011135, 15795.061385042834, 7603.527021828535, 0.03, 0.91, 0.464, 192.0, 0.0, 0.0, 0.0, 0.0, 0.0, 0.0, 0.0, 0.0, 0.0, 1.654609200172638E9, 0.0, 2022-06-07 15:40:00.172
144.0, 39327.29087201248, 14480.6670523485, -19247.8918132653, -21471.353944701426, -4871.58505577863, -5799.405968118425, 15774.006041765935, 7607.907963741775, 0.03, 0.91, 0.464, 192.0, 0.0, 0.0, 0.0, 0.0, 0.0, 0.0, 0.0, 0.0, 0.0, 1.654609200172641E9, 0.0, 2022-06-07 15:40:00.172
145.0, 39411.62400384236, 14528.343323271672, -19200.081431875402, -21451.90792702531, -4837.386886762009, -5842.164855261428, 15778.945777290557, 7620.402588892292, 0.03, 0.91, 0.464, 192.0, 0.0, 0.0, 0.0, 0.0, 0.0, 0.0, 0.0, 0.0, 0.0, 1.654609200172643E9, 0.0, 2022-06-07 15:40:00.172
146.0, 39534.96092974674, 14566.855378968166, -19164.40804772473, -21412.72531899516, -4793.868040307527, -5820.506014884236, 15796.491896687974, 7628.5609756184795, 0.03, 0.91, 0.464, 192.0, 0.0, 0.0, 0.0, 0.0, 0.0, 0.0, 0.0, 0.0, 0.0, 1.654609200172645E9, 0.0, 2022-06-07 15:40:00.172
147.0, 39537.12904895891, 14555.858320696154, -19187.542103235974, -21397.14615310981, -4802.764034600739, -5758.748144954222, 15805.834925870291, 7620.782568548032, 0.032, 0.912, 0.46, 192.0, 1.0, 0.0, 28.0, 128.0, 14.0, 96.0, 0.0, 0.0, 0.0, 1.654609200172647E9, 0.0, 2022-06-07 15:40:00.172
148.0, 39412.69688757621, 14511.266590507817, -19236.112443937356, -21427.075138935466, -4859.8056864506825, -5753.450781518314, 15802.728033391004, 7599.302542126482, 0.032, 0.912, 0.46, 192.0, 0.0, 0.0, 0.0, 0.0, 0.0, 0.0, 0.0, 0.0, 0.0, 1.65460920017265E9, 0.0, 2022-06-07 15:40:00.172
149.0, 39341.4842297416, 14503.309369481727, -19237.788824771505, -21451.997334003132, -4886.471317585864, -5810.805357790632, 15771.435591153575, 7582.829306462921, 0.032, 0.912, 0.46, 192.0, 0.0, 0.0, 0.0, 0.0, 0.0, 0.0, 0.0, 0.0, 0.0, 1.654609200172652E9, 0.0, 2022-06-07 15:40:00.172
150.0, 39428.320756950474, 14546.537643258293, -19186.759792180037, -21444.464796121694, -4849.3003665566885, -5864.851875883565, 15741.059570438812, 7584.684501252712, 0.032, 0.912, 0.46, 192.0, 0.0, 0.0, 0.0, 0.0, 0.0, 0.0, 0.0, 0.0, 0.0, 1.654609200232839E9, 0.0, 2022-06-07 15:40:00.232
151.0, 39558.09498525799, 14584.535608832313, -19146.459596927118, -21392.80991468548, -4794.583296130097, -5838.454465681847, 15780.309233702332, 7599.324893870938, 0.032, 0.912, 0.46, 192.0, 0.0, 0.0, 0.0, 0.0, 0.0, 0.0, 0.0, 0.0, 0.0, 1.654609200232846E9, 0.0, 2022-06-07 15:40:00.232
