%OpenBCI Raw EEG Data
%Number of channels = 8
%Sample Rate = 250 Hz
%Board = OpenBCI_GUI$BoardCytonSerial
Sample Index, EXG Channel 0, EXG Channel 1, EXG Channel 2, EXG Channel 3, EXG Channel 4, EXG Channel 5, EXG Channel 6, EXG Channel 7, Accel Channel 0, Accel Channel 1, Accel Channel 2, Other, Other, Other, Other, Other, Other, Other, Analog Channel 0, Analog Channel 1, Analog Channel 2, Timestamp, Other, Timestamp (Formatted)
0.0, 24582.225034502153, 9405.85993598222, -69297.11333478849, -51482.86241088658, -40148.33750108928, -43260.79556474633, -12346.790712689248, -45656.477887210596, 0.006, 0.39, 0.32, 192.0, 0.0, 48.0, 12.0, 48.0, 10.0, 0.0, 0.0, 0.0, 0.0, 1.6541571261813197E9, 0.0, 2022-06-02 10:05:26.181
1.0, 24584.393153714318, 9406.552840060334, -69276.92970954535, -51468.646701413, -40135.261730582926, -43239.56140751379, -12311.586715172138, -45614.12133146779, 0.006, 0.39, 0.32, 192.0, 0.0, 0.0, 0.0, 0.0, 0.0, 0.0, 0.0, 0.0, 0.0, 1.6541571266601176E9, 0.0, 2022-06-02 10:05:26.660
2.0, 24589.53405493904, 9418.756892532932, -69254.95794474578, -51449.6924221149, -40112.90998612762, -43214.99684035741, -12286.016319515267, -45581.68895026314, 0.006, 0.39, 0.32, 192.0, 0.0, 0.0, 0.0, 0.0, 0.0, 0.0, 0.0, 0.0, 0.0, 1.654157126660293E9, 0.0, 2022-06-02 10:05:26.660
3.0, 24601.134610311343, 9421.014418722918, -69263.18338670534, -51448.28426221422, -40117.84972165224, -43215.98031711344, -12306.602276158605, -45605.02417147448, 0.006, 0.39, 0.32, 192.0, 0.0, 0.0, 0.0, 0.0, 0.0, 0.0, 0.0, 0.0, 0.0, 1.6541571266603096E9, 0.0, 2022-06-02 10:05:26.660
4.0, 24592.462133462686, 9412.230183151984, -69284.39519219342, -51469.11608804656, -40141.76608821942, -43239.51670402488, -12346.567195244694, -45646.84428535036, 0.006, 0.39, 0.32, 192.0, 0.0, 0.0, 0.0, 0.0, 0.0, 0.0, 0.0, 0.0, 0.0, 1.654157126660321E9, 0.0, 2022-06-02 10:05:26.660
5.0, 24586.53892118203, 9405.47995632648, -69281.17654099186, -51476.80508813919, -40146.99639642196, -43248.591512273735, -12343.840282421146, -45647.26896849501, 0.006, 0.39, 0.32, 192.0, 0.0, 0.0, 0.0, 0.0, 0.0, 0.0, 0.0, 0.0, 0.0, 1.6541571266603303E9, 0.0, 2022-06-02 10:05:26.660
6.0, 24590.718697395172, 9407.156337160628, -69265.91029952888, -51468.311425246175, -40128.46680026851, -43236.923901668066, -12313.464261706384, -45621.16213097121, 0.006, 0.39, 0.32, 192.0, 0.0, 0.0, 0.0, 0.0, 0.0, 0.0, 0.0, 0.0, 0.0, 1.65415712666034E9, 0.0, 2022-06-02 10:05:26.660
7.0, 24588.505874694096, 9412.118424429706, -69264.85976753948, -51466.45623045638, -40124.063506610815, -43233.5040847664, -12320.974447843368, -45630.84043632036, 0.012, 0.584, 0.47800000000000004, 192.0, 0.0, 96.0, 18.0, 64.0, 14.0, 240.0, 0.0, 0.0, 0.0, 1.6541571266603491E9, 0.0, 2022-06-02 10:05:26.660
8.0, 24587.455342704696, 9414.644171553156, -69274.6498316109, -51465.4951054448, -40116.150989073634, -43236.8568464347, -12320.303895509709, -45653.34864298686, 0.012, 0.584, 0.47800000000000004, 192.0, 0.0, 0.0, 0.0, 0.0, 0.0, 0.0, 0.0, 0.0, 0.0, 1.6541571266603584E9, 0.0, 2022-06-02 10:05:26.660
9.0, 24583.275566491553, 9406.418729593603, -69298.14151503344, -51482.28126553074, -40138.79330620686, -43251.117259397186, -12334.497253238827, -45667.05026233796, 0.012, 0.584, 0.47800000000000004, 192.0, 0.0, 0.0, 0.0, 0.0, 0.0, 0.0, 0.0, 0.0, 0.0, 1.6541571266603682E9, 0.0, 2022-06-02 10:05:26.660
10.0, 24583.968470569667, 9401.210773135517, -69294.4534771983, -51486.93042837745, -40138.525085273395, -43251.31842509728, -12299.986159799833, -45632.069782265404, 0.012, 0.584, 0.47800000000000004, 192.0, 0.0, 0.0, 0.0, 0.0, 0.0, 0.0, 0.0, 0.0, 0.0, 1.654157126660378E9, 0.0, 2022-06-02 10:05:26.660
11.0, 24598.318290509975, 9413.86186049722, -69272.01232576517, -51467.21618976787, -40122.29771879884, -43234.73343071144, -12310.111500038089, -45628.6723171082, 0.012, 0.584, 0.47800000000000004, 192.0, 0.0, 0.0, 0.0, 0.0, 0.0, 0.0, 0.0, 0.0, 0.0, 1.6541571266603875E9, 0.0, 2022-06-02 10:05:26.660
12.0, 24592.14920904031, 9407.245744138449, -69270.53711063112, -51465.27158800025, -40116.508616984924, -43226.86561666318, -12305.462337191384, -45622.86086354982, 0.012, 0.584, 0.47800000000000004, 192.0, 0.0, 0.0, 0.0, 0.0, 0.0, 0.0, 0.0, 0.0, 0.0, 1.6541571266603968E9, 0.0, 2022-06-02 10:05:26.660
13.0, 24590.316365994975, 9411.62668605169, -69282.02590728116, -51469.0490328132, -40117.60385246323, -43226.97737538545, -12294.822906830657, -45620.670392593194, 0.012, 0.584, 0.47800000000000004, 192.0, 0.0, 0.0, 0.0, 0.0, 0.0, 0.0, 0.0, 0.0, 0.0, 1.654157126660406E9, 0.0, 2022-06-02 10:05:26.660
14.0, 24585.71190663718, 9407.916296472109, -69306.612826182, -51492.02662611326, -40144.895332443164, -43254.13474489865, -12340.487520752851, -45664.21159079213, 0.012, 0.584, 0.47800000000000004, 192.0, 0.0, 0.0, 0.0, 0.0, 0.0, 0.0, 0.0, 0.0, 0.0, 1.6541571266604156E9, 0.0, 2022-06-02 10:05:26.660
15.0, 24581.57683391295, 9409.167994161606, -69308.08804131605, -51497.43574827144, -40157.389957593674, -43264.75182351492, -12370.26004436732, -45674.67220719722, 0.012, 0.584, 0.47800000000000004, 192.0, 0.0, 0.0, 0.0, 0.0, 0.0, 0.0, 0.0, 0.0, 0.0, 1.6541571266604247E9, 0.0, 2022-06-02 10:05:26.660
16.0, 24587.187121771232, 9417.639305310167, -69282.78586659263, -51480.51547771877, -40130.701974714044, -43241.75187847041, -12308.904505837501, -45622.19031121615, 0.012, 0.584, 0.47800000000000004, 192.0, 0.0, 0.0, 0.0, 0.0, 0.0, 0.0, 0.0, 0.0, 0.0, 1.6541571266604347E9, 0.0, 2022-06-02 10:05:26.660
17.0, 24588.01413631608, 9419.71801754451, -69271.0512007536, -51472.40179448149, -40116.03923035136, -43227.536168996834, -12281.098935735099, -45605.13593019676, 0.012, 0.684, 0.56, 192.0, 0.0, 96.0, 21.0, 96.0, 17.0, 128.0, 0.0, 0.0, 0.0, 1.6541571266604435E9, 0.0, 2022-06-02 10:05:26.660
18.0, 24577.73233386664, 9411.649037796145, -69289.31257597358, -51487.399815011006, -40132.53481775938, -43246.333986083744, -12322.427311232963, -45653.34864298686, 0.012, 0.684, 0.56, 192.0, 0.0, 0.0, 0.0, 0.0, 0.0, 0.0, 0.0, 0.0, 0.0, 1.654157126660453E9, 0.0, 2022-06-02 10:05:26.660
19.0, 24571.607955885884, 9398.796784734343, -69316.80522165362, -51507.53873676524, -40151.62320752421, -43268.19399216104, -12341.560404486705, -45671.58766646239, 0.012, 0.684, 0.56, 192.0, 0.0, 0.0, 0.0, 0.0, 0.0, 0.0, 0.0, 0.0, 0.0, 1.6541571266604624E9, 0.0, 2022-06-02 10:05:26.660
20.0, 24573.172577997757, 9399.333226601271, -69310.09969831702, -51507.33757106514, -40147.66694875562, -43271.099718940226, -12337.87236665158, -45665.642102437276, 0.012, 0.684, 0.56, 192.0, 0.0, 0.0, 0.0, 0.0, 0.0, 0.0, 0.0, 0.0, 0.0, 1.654157126660474E9, 0.0, 2022-06-02 10:05:26.660
21.0, 24565.975316283148, 9392.515944542401, -69304.355299992, -51506.28703907574, -40150.907951701636, -43262.33783511375, -12344.957869643911, -45642.910378326225, 0.012, 0.684, 0.56, 192.0, 0.0, 0.0, 0.0, 0.0, 0.0, 0.0, 0.0, 0.0, 0.0, 1.6541571266604843E9, 0.0, 2022-06-02 10:05:26.660
22.0, 24562.53314763703, 9386.078642139273, -69302.6565674134, -51496.988713382336, -40145.49882954345, -43249.7090994965, -12330.205718303409, -45622.95027052764, 0.012, 0.684, 0.56, 192.0, 0.0, 0.0, 0.0, 0.0, 0.0, 0.0, 0.0, 0.0, 0.0, 1.654157126660504E9, 0.0, 2022-06-02 10:05:26.660
23.0, 24569.66335411827, 9392.225371864482, -69308.78094539416, -51494.97705638136, -40140.67085274111, -43248.99384367393, -12334.497253238827, -45637.680070123686, 0.012, 0.684, 0.56, 192.0, 0.0, 0.0, 0.0, 0.0, 0.0, 0.0, 0.0, 0.0, 0.0, 1.6541571266605134E9, 0.0, 2022-06-02 10:05:26.660
24.0, 24563.807197070983, 9382.211790348505, -69331.69148346085, -51518.91577469299, -40157.09938491576, -43273.80428001932, -12350.29993656873, -45673.48756474109, 0.012, 0.684, 0.56, 192.0, 0.0, 0.0, 0.0, 0.0, 0.0, 0.0, 0.0, 0.0, 0.0, 1.6541571266605222E9, 0.0, 2022-06-02 10:05:26.660
25.0, 24566.310592449976, 9385.363386316703, -69324.60598046852, -51515.27244034677, -40157.03232968239, -43274.720701541984, -12348.042410378745, -45668.279608283, 0.012, 0.684, 0.56, 192.0, 0.0, 0.0, 0.0, 0.0, 0.0, 0.0, 0.0, 0.0, 0.0, 1.6541571266605315E9, 0.0, 2022-06-02 10:05:26.660
26.0, 24577.262947233077, 9401.277828368882, -69295.66047139889, -51495.89347790402, -40140.84966669675, -43250.692576252535, -12345.650773722027, -45643.91620682672, 0.008, 0.738, 0.606, 192.0, 0.0, 64.0, 23.0, 16.0, 18.0, 240.0, 0.0, 0.0, 0.0, 1.6541571266605408E9, 0.0, 2022-06-02 10:05:26.660
27.0, 24578.67110713376, 9406.23991563796, -69277.24263396772, -51485.27639928775, -40124.10821009972, -43237.37093655717, -12318.113424553088, -45623.55376762793, 0.008, 0.738, 0.606, 192.0, 0.0, 0.0, 0.0, 0.0, 0.0, 0.0, 0.0, 0.0, 0.0, 1.6541571266605499E9, 0.0, 2022-06-02 10:05:26.660
28.0, 24581.39801995731, 9403.177726647584, -69284.64106138243, -51487.109242333085, -40129.56203574682, -43240.2543115919, -12310.871459349568, -45635.10961951132, 0.008, 0.738, 0.606, 192.0, 0.0, 0.0, 0.0, 0.0, 0.0, 0.0, 0.0, 0.0, 0.0, 1.6541571266605592E9, 0.0, 2022-06-02 10:05:26.660
29.0, 24573.306688464487, 9395.466374810503, -69303.61769242497, -51499.357998294596, -40145.43177431009, -43252.74893674242, -12328.037599091245, -45646.86663709481, 0.008, 0.738, 0.606, 192.0, 0.0, 0.0, 0.0, 0.0, 0.0, 0.0, 0.0, 0.0, 0.0, 1.6541571266605682E9, 0.0, 2022-06-02 10:05:26.660
30.0, 24566.66822036126, 9390.124307885684, -69308.82564888307, -51505.52707976426, -40159.714539017026, -43263.23190489196, -12345.896642911035, -45650.398212718756, 0.008, 0.738, 0.606, 192.0, 0.0, 0.0, 0.0, 0.0, 0.0, 0.0, 0.0, 0.0, 0.0, 1.654157126660577E9, 0.0, 2022-06-02 10:05:26.660
31.0, 24579.229900745144, 9399.556744045824, -69289.35727946249, -51489.27736154525, -40153.076070913805, -43253.44184082054, -12360.000593662333, -45655.025023821, 0.008, 0.738, 0.606, 192.0, 0.0, 0.0, 0.0, 0.0, 0.0, 0.0, 0.0, 0.0, 0.0, 1.6541571266605864E9, 0.0, 2022-06-02 10:05:26.660
32.0, 24582.090924035423, 9406.57519180479, -69279.67897411334, -51483.130631820044, -40146.303492343846, -43247.29511109533, -12379.379556105085, -45669.79952690596, 0.008, 0.738, 0.606, 192.0, 0.0, 0.0, 0.0, 0.0, 0.0, 0.0, 0.0, 0.0, 0.0, 1.6541571266605947E9, 0.0, 2022-06-02 10:05:26.660
33.0, 24585.555444425994, 9416.544069831858, -69273.68870659932, -51477.27447477275, -40121.44835250954, -43242.154209870605, -12298.421537687962, -45651.851076108345, 0.008, 0.738, 0.606, 192.0, 0.0, 0.0, 0.0, 0.0, 0.0, 0.0, 0.0, 0.0, 0.0, 1.654157126660604E9, 0.0, 2022-06-02 10:05:26.660
34.0, 24582.649717646804, 9403.6694650256, -69297.42625921086, -51501.324951806666, -40143.3754138202, -43264.64006479264, -12307.317531981174, -45665.910323370736, 0.008, 0.738, 0.606, 192.0, 0.0, 0.0, 0.0, 0.0, 0.0, 0.0, 0.0, 0.0, 0.0, 1.6541571266606128E9, 0.0, 2022-06-02 10:05:26.660
35.0, 24591.612767173385, 9414.979447719985, -69285.87040732747, -51493.94887613641, -40140.58144576329, -43251.78781173084, -12317.53227919725, -45638.55178815744, 0.008, 0.738, 0.606, 192.0, 0.0, 0.0, 0.0, 0.0, 0.0, 0.0, 0.0, 0.0, 0.0, 1.6541571266606212E9, 0.0, 2022-06-02 10:05:26.660
36.0, 24598.273587021064, 9424.501290857947, -69260.0988459705, -51473.0499950707, -40125.94105314506, -43232.721773710466, -12300.947284811413, -45611.796750044436, 0.012, 0.76, 0.632, 192.0, 0.0, 96.0, 23.0, 192.0, 19.0, 192.0, 0.0, 0.0, 0.0, 1.6541571266606302E9, 0.0, 2022-06-02 10:05:26.660
37.0, 24598.45240097671, 9422.981372234986, -69250.24172666571, -51466.05389905619, -40123.147085088145, -43224.56338698428, -12301.327264467152, -45609.494520365544, 0.012, 0.76, 0.632, 192.0, 0.0, 0.0, 0.0, 0.0, 0.0, 0.0, 0.0, 0.0, 0.0, 1.6541571266606393E9, 0.0, 2022-06-02 10:05:26.660
38.0, 24589.712868894683, 9411.939610474064, -69273.30872694358, -51481.118974819066, -40134.45706778253, -43236.2533493344, -12324.774244400769, -45633.83557007737, 0.012, 0.76, 0.632, 192.0, 0.0, 0.0, 0.0, 0.0, 0.0, 0.0, 0.0, 0.0, 0.0, 1.654157126660648E9, 0.0, 2022-06-02 10:05:26.660
39.0, 24597.290110265032, 9421.05912221183, -69282.60705263699, -51488.22682955585, -40148.91864644511, -43250.42435531907, -12364.314480342207, -45673.46521299663, 0.012, 0.76, 0.632, 192.0, 0.0, 0.0, 0.0, 0.0, 0.0, 0.0, 0.0, 0.0, 0.0, 1.6541571266606567E9, 0.0, 2022-06-02 10:05:26.660
40.0, 24599.30176726601, 9425.39536063616, -69271.36412517597, -51482.99652135331, -40149.70095750105, -43255.8111257328, -12350.970488902389, -45657.997805833555, 0.012, 0.76, 0.632, 192.0, 0.0, 0.0, 0.0, 0.0, 0.0, 0.0, 0.0, 0.0, 0.0, 1.6541571266606662E9, 0.0, 2022-06-02 10:05:26.660
41.0, 24591.702174151204, 9421.014418722918, -69258.37776164744, -51474.01112008228, -40129.18205609108, -43240.09784938072, -12306.557572669695, -45610.85797677732, 0.012, 0.76, 0.632, 192.0, 0.0, 0.0, 0.0, 0.0, 0.0, 0.0, 0.0, 0.0, 0.0, 1.6541571266606748E9, 0.0, 2022-06-02 10:05:26.660
42.0, 24587.94708108271, 9423.00372397944, -69250.08526445452, -51466.81385836767, -40122.521236243396, -43229.704288208995, -12316.951133841412, -45606.5664418419, 0.012, 0.76, 0.632, 192.0, 0.0, 0.0, 0.0, 0.0, 0.0, 0.0, 0.0, 0.0, 0.0, 1.6541571266606843E9, 0.0, 2022-06-02 10:05:26.660
43.0, 24599.972319599667, 9431.25151768345, -69249.52647084314, -51459.52718967524, -40115.97217511799, -43224.6527939621, -12315.945305340923, -45620.29041293746, 0.012, 0.76, 0.632, 192.0, 0.0, 0.0, 0.0, 0.0, 0.0, 0.0, 0.0, 0.0, 0.0, 1.6541571266606972E9, 0.0, 2022-06-02 10:05:26.660
44.0, 24590.718697395172, 9411.24670639595, -69285.62453813847, -51490.66316970148, -40144.8729806987, -43265.82470724877, -12349.182349345965, -45670.35832051734, 0.012, 0.76, 0.632, 192.0, 0.0, 0.0, 0.0, 0.0, 0.0, 0.0, 0.0, 0.0, 0.0, 1.6541571266607063E9, 0.0, 2022-06-02 10:05:26.660
45.0, 24590.942214839724, 9416.812290765321, -69277.95788979028, -51489.61263771208, -40149.81271622333, -43271.010311962404, -12354.479712781873, -45665.195067548164, 0.012, 0.76, 0.632, 192.0, 0.0, 0.0, 0.0, 0.0, 0.0, 0.0, 0.0, 0.0, 0.0, 1.654157126660716E9, 0.0, 2022-06-02 10:05:26.660
46.0, 24595.032584075045, 9422.95902049053, -69255.56144184608, -51477.050957328196, -40134.90410267164, -43256.23580887745, -12335.100750339121, -45647.20191326165, 0.012, 0.772, 0.64, 192.0, 0.0, 96.0, 24.0, 32.0, 20.0, 0.0, 0.0, 0.0, 0.0, 1.6541571266607249E9, 0.0, 2022-06-02 10:05:26.660
47.0, 24585.086057792432, 9413.079549441285, -69254.37679938994, -51478.436765484425, -40136.446373039056, -43259.90149496812, -12352.535111014262, -45663.4292797362, 0.012, 0.772, 0.64, 192.0, 0.0, 0.0, 0.0, 0.0, 0.0, 0.0, 0.0, 0.0, 0.0, 1.6541571266607342E9, 0.0, 2022-06-02 10:05:26.660
48.0, 24587.94708108271, 9412.67721804109, -69256.56727034655, -51477.43093698394, -40130.27729156939, -43249.59734077422, -12325.265982778787, -45640.13876201377, 0.012, 0.772, 0.64, 192.0, 0.0, 0.0, 0.0, 0.0, 0.0, 0.0, 0.0, 0.0, 0.0, 1.6541571266607432E9, 0.0, 2022-06-02 10:05:26.660
49.0, 24590.338717739432, 9412.900735485642, -69270.98414552023, -51480.94016086342, -40133.58534974878, -43252.145439642125, -12326.182404301455, -45634.90845381123, 0.012, 0.772, 0.64, 192.0, 0.0, 0.0, 0.0, 0.0, 0.0, 0.0, 0.0, 0.0, 0.0, 1.654157126660752E9, 0.0, 2022-06-02 10:05:26.660
50.0, 24583.141456024823, 9408.586848805768, -69271.02884900915, -51483.130631820044, -40136.80400095034, -43263.544829314334, -12333.066741593688, -45639.71407886912, 0.012, 0.772, 0.64, 192.0, 0.0, 0.0, 0.0, 0.0, 0.0, 0.0, 0.0, 0.0, 0.0, 1.6541571266607604E9, 0.0, 2022-06-02 10:05:26.660
51.0, 24574.267813476064, 9397.992121933952, -69266.91612802936, -51486.03635859923, -40134.725288716, -43265.86941073769, -12322.784939144247, -45635.93663405617, 0.012, 0.772, 0.64, 192.0, 0.0, 0.0, 0.0, 0.0, 0.0, 0.0, 0.0, 0.0, 0.0, 1.654157126660769E9, 0.0, 2022-06-02 10:05:26.660
52.0, 24576.72650536615, 9398.90854345662, -69263.33984891651, -51481.878934130546, -40136.222855594504, -43266.24939039342, -12342.610936476105, -45659.94240760117, 0.012, 0.772, 0.64, 192.0, 0.0, 0.0, 0.0, 0.0, 0.0, 0.0, 0.0, 0.0, 0.0, 1.654157126660778E9, 0.0, 2022-06-02 10:05:26.660
53.0, 24585.220168259166, 9407.044578438352, -69254.08622671202, -51476.64862592801, -40118.69908794154, -43257.75572750041, -12304.724729624359, -45641.27870098099, 0.012, 0.772, 0.64, 192.0, 0.0, 0.0, 0.0, 0.0, 0.0, 0.0, 0.0, 0.0, 0.0, 1.6541571266607876E9, 0.0, 2022-06-02 10:05:26.660
54.0, 24589.668165405772, 9413.280715141382, -69267.18434896284, -51485.47756498785, -40126.96923339, -43265.93646597105, -12316.369988485574, -45648.721831884606, 0.012, 0.772, 0.64, 192.0, 0.0, 0.0, 0.0, 0.0, 0.0, 0.0, 0.0, 0.0, 0.0, 1.6541571266607969E9, 0.0, 2022-06-02 10:05:26.660
55.0, 24583.700249636204, 9409.43621509507, -69269.598337364, -51489.43382375644, -40135.50759977193, -43272.75374802992, -12332.575003215672, -45649.43708770718, 0.012, 0.772, 0.64, 192.0, 0.0, 0.0, 0.0, 0.0, 0.0, 0.0, 0.0, 0.0, 0.0, 1.6541571266608057E9, 0.0, 2022-06-02 10:05:26.660
56.0, 24575.29599372101, 9399.489688812459, -69264.03275299464, -51490.77492842376, -40131.86426542572, -43270.116242184195, -12324.550726956217, -45634.21554973311, 0.014, 0.774, 0.642, 192.0, 0.0, 112.0, 24.0, 48.0, 20.0, 16.0, 0.0, 0.0, 0.0, 1.6541571266608143E9, 0.0, 2022-06-02 10:05:26.660
57.0, 24581.308612979486, 9409.05623543933, -69252.20868017778, -51477.49799221731, -40119.05671585283, -43254.22415187647, -12315.274753007265, -45629.23111071958, 0.014, 0.774, 0.642, 192.0, 0.0, 0.0, 0.0, 0.0, 0.0, 0.0, 0.0, 0.0, 0.0, 1.654157126660824E9, 0.0, 2022-06-02 10:05:26.660
58.0, 24576.23476698813, 9411.380816862682, -69264.5468431171, -51477.542695706215, -40127.349213045745, -43252.503067553414, -12339.973430630378, -45651.33698598588, 0.014, 0.774, 0.642, 192.0, 0.0, 0.0, 0.0, 0.0, 0.0, 0.0, 0.0, 0.0, 0.0, 1.654157126660833E9, 0.0, 2022-06-02 10:05:26.660
59.0, 24582.023868802058, 9414.510061086425, -69272.21349146527, -51484.42703299845, -40140.000300407446, -43269.89272473964, -12355.083209882167, -45677.600285720866, 0.014, 0.774, 0.642, 192.0, 0.0, 0.0, 0.0, 0.0, 0.0, 0.0, 0.0, 0.0, 0.0, 1.6541571266608417E9, 0.0, 2022-06-02 10:05:26.660
60.0, 24582.046220546512, 9409.547973817345, -69265.86559603996, -51480.895457374514, -40140.58144576329, -43268.23869564995, -12329.311648525198, -45640.56344515842, 0.014, 0.774, 0.642, 192.0, 0.0, 0.0, 0.0, 0.0, 0.0, 0.0, 0.0, 0.0, 0.0, 1.6541571266608508E9, 0.0, 2022-06-02 10:05:26.660
61.0, 24582.225034502153, 9405.256438881926, -69260.67999132634, -51479.33083526264, -40142.883675442186, -43262.427242091566, -12341.761570186804, -45637.814180590416, 0.014, 0.774, 0.642, 192.0, 0.0, 0.0, 0.0, 0.0, 0.0, 0.0, 0.0, 0.0, 0.0, 1.6541571266608596E9, 0.0, 2022-06-02 10:05:26.660
62.0, 24591.076325306454, 9415.225316908995, -69251.94045924432, -51469.58547468013, -40138.83800969577, -43248.54680878482, -12363.509817541817, -45639.55761665793, 0.014, 0.774, 0.642, 192.0, 0.0, 0.0, 0.0, 0.0, 0.0, 0.0, 0.0, 0.0, 0.0, 1.654157126660869E9, 0.0, 2022-06-02 10:05:26.660
63.0, 24584.81783685897, 9408.922124972598, -69260.59058434851, -51478.50382071779, -40141.31905333031, -43259.43210833456, -12367.577835032682, -45664.99390184807, 0.014, 0.774, 0.642, 192.0, 0.0, 0.0, 0.0, 0.0, 0.0, 0.0, 0.0, 0.0, 0.0, 1.6541571266608777E9, 0.0, 2022-06-02 10:05:26.660
64.0, 24586.427162459753, 9405.547011559845, -69265.7538373177, -51487.75744292229, -40133.94297766006, -43265.914114226594, -12317.264058263787, -45654.06389880942, 0.014, 0.774, 0.642, 192.0, 0.0, 0.0, 0.0, 0.0, 0.0, 0.0, 0.0, 0.0, 0.0, 1.65415712666089E9, 0.0, 2022-06-02 10:05:26.660
65.0, 24595.323156752966, 9409.7714912619, -69264.18921520581, -51487.93625687793, -40135.93228291658, -43266.65172179362, -12310.24561050482, -45641.792791103464, 0.014, 0.774, 0.642, 192.0, 0.0, 0.0, 0.0, 0.0, 0.0, 0.0, 0.0, 0.0, 0.0, 1.6541571266609032E9, 0.0, 2022-06-02 10:05:26.660
66.0, 24604.755592913105, 9418.980409977486, -69251.47107261074, -51476.492163716815, -40129.20440783553, -43257.532210055855, -12324.930706611956, -45646.263139994524, 0.014, 0.784, 0.64, 192.0, 0.0, 112.0, 24.0, 128.0, 20.0, 0.0, 0.0, 0.0, 0.0, 1.6541571266609113E9, 0.0, 2022-06-02 10:05:26.660
67.0, 24600.48640972214, 9424.009552479929, -69244.96671497426, -51466.9479688344, -40122.253015309936, -43243.897645938116, -12334.720770683381, -45641.70338412564, 0.014, 0.784, 0.64, 192.0, 0.0, 0.0, 0.0, 0.0, 0.0, 0.0, 0.0, 0.0, 0.0, 1.65415712666092E9, 0.0, 2022-06-02 10:05:26.660
68.0, 24583.186159513734, 9416.097034942752, -69261.1940814488, -51474.882838116035, -40130.41140203612, -43244.814067460786, -12319.208660031398, -45630.818084575905, 0.014, 0.784, 0.64, 192.0, 0.0, 0.0, 0.0, 0.0, 0.0, 0.0, 0.0, 0.0, 0.0, 1.6541571266609285E9, 0.0, 2022-06-02 10:05:26.660
69.0, 24584.415505458775, 9415.180613420083, -69277.42144792336, -51488.33858827813, -40135.97698640549, -43261.62257929118, -12324.774244400769, -45661.68584366868, 0.014, 0.784, 0.64, 192.0, 0.0, 0.0, 0.0, 0.0, 0.0, 0.0, 0.0, 0.0, 0.0, 1.6541571266609368E9, 0.0, 2022-06-02 10:05:26.660
70.0, 24589.087020049934, 9413.86186049722, -69278.0025932792, -51492.02662611326, -40141.78843996387, -43263.50012582542, -12338.855843407613, -45657.95310234465, 0.014, 0.784, 0.64, 192.0, 0.0, 0.0, 0.0, 0.0, 0.0, 0.0, 0.0, 0.0, 0.0, 1.6541571266609452E9, 0.0, 2022-06-02 10:05:26.660
71.0, 24581.085095534934, 9400.42846207958, -69285.28926197163, -51497.391044782526, -40152.98666393598, -43262.80722174731, -12347.125988856076, -45639.60232014684, 0.014, 0.784, 0.64, 192.0, 0.0, 0.0, 0.0, 0.0, 0.0, 0.0, 0.0, 0.0, 0.0, 1.6541571266609535E9, 0.0, 2022-06-02 10:05:26.660
72.0, 24582.42620020225, 9405.189383648561, -69272.99580252121, -51478.90615211799, -40133.205370093034, -43247.02689016186, -12306.334055225141, -45613.85311053433, 0.014, 0.784, 0.64, 192.0, 0.0, 0.0, 0.0, 0.0, 0.0, 0.0, 0.0, 0.0, 0.0, 1.6541571266609612E9, 0.0, 2022-06-02 10:05:26.660
73.0, 24591.411601473286, 9421.841433267766, -69262.26696518266, -51466.836210112124, -40113.222910549994, -43239.65081449161, -12280.0484037457, -45621.40800016022, 0.014, 0.784, 0.64, 192.0, 0.0, 0.0, 0.0, 0.0, 0.0, 0.0, 0.0, 0.0, 0.0, 1.6541571266609695E9, 0.0, 2022-06-02 10:05:26.660
74.0, 24587.14241828232, 9414.867688997709, -69284.97633754925, -51491.06550110168, -40138.86036144023, -43267.14346017164, -12332.172671815477, -45672.25821879604, 0.014, 0.784, 0.64, 192.0, 0.0, 0.0, 0.0, 0.0, 0.0, 0.0, 0.0, 0.0, 0.0, 1.6541571266609776E9, 0.0, 2022-06-02 10:05:26.660
75.0, 24586.315403737477, 9408.43038659458, -69294.94521557633, -51504.78947219723, -40157.90404771615, -43279.056939966315, -12372.964605446412, -45686.78685269199, 0.014, 0.784, 0.64, 192.0, 0.0, 0.0, 0.0, 0.0, 0.0, 0.0, 0.0, 0.0, 0.0, 1.6541571266609857E9, 0.0, 2022-06-02 10:05:26.660
76.0, 24587.16477002678, 9408.944476717053, -69282.33883170353, -51500.117957606075, -40145.878809199196, -43262.784870002855, -12358.659488995016, -45652.11929704181, 0.018000000000000002, 0.78, 0.648, 192.0, 0.0, 144.0, 24.0, 96.0, 20.0, 64.0, 0.0, 0.0, 0.0, 1.654157126660995E9, 0.0, 2022-06-02 10:05:26.660
77.0, 24582.470903691163, 9410.777319762388, -69274.26985195516, -51489.27736154525, -40133.25007358195, -43251.02785241936, -12343.125026598576, -45630.885139809274, 0.018000000000000002, 0.78, 0.648, 192.0, 0.0, 0.0, 0.0, 0.0, 0.0, 0.0, 0.0, 0.0, 0.0, 1.6541571266610036E9, 0.0, 2022-06-02 10:05:26.661
78.0, 24576.72650536615, 9406.932819716076, -69283.41171543738, -51492.83128891364, -40140.51439052992, -43253.28537860935, -12341.135721342054, -45643.84915159335, 0.018000000000000002, 0.78, 0.648, 192.0, 0.0, 0.0, 0.0, 0.0, 0.0, 0.0, 0.0, 0.0, 0.0, 1.6541571266610124E9, 0.0, 2022-06-02 10:05:26.661
79.0, 24588.39411597182, 9413.370122119204, -69287.92676781735, -51497.21223082689, -40142.07901264179, -43257.12987865566, -12330.138663070044, -45651.53815168598, 0.018000000000000002, 0.78, 0.648, 192.0, 0.0, 0.0, 0.0, 0.0, 0.0, 0.0, 0.0, 0.0, 0.0, 1.6541571266610208E9, 0.0, 2022-06-02 10:05:26.661
80.0, 24589.176427027756, 9412.520755829903, -69286.33979396103, -51502.777815196256, -40153.478402314, -43267.210515405, -12357.072515138689, -45665.17271580371, 0.018000000000000002, 0.78, 0.648, 192.0, 0.0, 0.0, 0.0, 0.0, 0.0, 0.0, 0.0, 0.0, 0.0, 1.6541571266610296E9, 0.0, 2022-06-02 10:05:26.661
81.0, 24570.758589596582, 9402.90950571412, -69283.59052939303, -51504.25303033031, -40151.399690079656, -43270.22800090647, -12341.515700997794, -45662.87048612481, 0.018000000000000002, 0.78, 0.648, 192.0, 0.0, 0.0, 0.0, 0.0, 0.0, 0.0, 0.0, 0.0, 0.0, 1.6541571266610413E9, 0.0, 2022-06-02 10:05:26.661
82.0, 24578.67110713376, 9410.218526151006, -69265.01622975066, -51481.20838179689, -40123.59411997725, -43245.59637851672, -12289.123211994554, -45616.2670989355, 0.018000000000000002, 0.78, 0.648, 192.0, 0.0, 0.0, 0.0, 0.0, 0.0, 0.0, 0.0, 0.0, 0.0, 1.6541571266610496E9, 0.0, 2022-06-02 10:05:26.661
83.0, 24584.884892092337, 9410.397340106647, -69275.85682581148, -51481.20838179689, -40128.33268980178, -43240.72369822546, -12315.610029174093, -45628.158226985724, 0.018000000000000002, 0.78, 0.648, 192.0, 0.0, 0.0, 0.0, 0.0, 0.0, 0.0, 0.0, 0.0, 0.0, 1.6541571266610577E9, 0.0, 2022-06-02 10:05:26.661
84.0, 24587.76826712707, 9408.944476717053, -69294.74404987623, -51499.357998294596, -40152.74079474698, -43257.532210055855, -12367.242558865853, -45668.145497816266, 0.018000000000000002, 0.78, 0.648, 192.0, 0.0, 0.0, 0.0, 0.0, 0.0, 0.0, 0.0, 0.0, 0.0, 1.6541571266610663E9, 0.0, 2022-06-02 10:05:26.661
85.0, 24584.43785720323, 9401.210773135517, -69298.67795690036, -51510.69033273344, -40155.735928503986, -43269.04335845034, -12357.027811649778, -45655.98614883258, 0.018000000000000002, 0.78, 0.648, 192.0, 0.0, 0.0, 0.0, 0.0, 0.0, 0.0, 0.0, 0.0, 0.0, 1.6541571266610744E9, 0.0, 2022-06-02 10:05:26.661
86.0, 24580.168674012268, 9402.261305124915, -69282.56234914808, -51500.8555651731, -40144.56005627633, -43259.38740484565, -12345.337849299653, -45641.05518353644, 0.02, 0.774, 0.64, 192.0, 0.0, 160.0, 24.0, 48.0, 20.0, 0.0, 0.0, 0.0, 0.0, 1.6541571266610863E9, 0.0, 2022-06-02 10:05:26.661
87.0, 24585.309575236988, 9409.48091858398, -69275.02981126665, -51494.887649403536, -40144.00126266495, -43256.056994921804, -12351.082247624667, -45657.662529666726, 0.02, 0.774, 0.64, 192.0, 0.0, 0.0, 0.0, 0.0, 0.0, 0.0, 0.0, 0.0, 0.0, 1.6541571266610956E9, 0.0, 2022-06-02 10:05:26.661
88.0, 24581.710944379683, 9407.916296472109, -69282.27177647017, -51499.96149539489, -40143.55422777584, -43258.20276238951, -12328.909317125, -45652.02989006399, 0.02, 0.774, 0.64, 192.0, 0.0, 0.0, 0.0, 0.0, 0.0, 0.0, 0.0, 0.0, 0.0, 1.6541571266611032E9, 0.0, 2022-06-02 10:05:26.661
89.0, 24574.536034409528, 9406.23991563796, -69296.64394815493, -51509.30452457721, -40154.86421047023, -43266.13763167115, -12343.616764976594, -45659.18244828969, 0.02, 0.774, 0.64, 192.0, 0.0, 0.0, 0.0, 0.0, 0.0, 0.0, 0.0, 0.0, 0.0, 1.6541571266611116E9, 0.0, 2022-06-02 10:05:26.661
90.0, 24573.351391953398, 9404.295313870349, -69298.43208771135, -51519.63103051556, -40162.21793439602, -43283.259067923915, -12358.659488995016, -45684.03758812399, 0.02, 0.774, 0.64, 192.0, 0.0, 0.0, 0.0, 0.0, 0.0, 0.0, 0.0, 0.0, 0.0, 1.6541571266611202E9, 0.0, 2022-06-02 10:05:26.661
91.0, 24573.351391953398, 9405.725825515488, -69282.29412821462, -51506.9575914094, -40153.67956801409, -43268.775137516874, -12347.707134211914, -45652.85690460884, 0.02, 0.774, 0.64, 192.0, 0.0, 0.0, 0.0, 0.0, 0.0, 0.0, 0.0, 0.0, 0.0, 1.6541571266611288E9, 0.0, 2022-06-02 10:05:26.661
92.0, 24576.145360010312, 9413.81715700831, -69261.61876459346, -51484.94112312092, -40126.857474667726, -43244.814067460786, -12305.283523235741, -45613.92016576769, 0.02, 0.774, 0.64, 192.0, 0.0, 0.0, 0.0, 0.0, 0.0, 0.0, 0.0, 0.0, 0.0, 1.654157126661137E9, 0.0, 2022-06-02 10:05:26.661
93.0, 24574.82660708745, 9409.592677306257, -69275.7003636003, -51483.64472194252, -40135.19467534956, -43251.78781173084, -12321.82381413267, -45638.46238117962, 0.02, 0.774, 0.64, 192.0, 0.0, 0.0, 0.0, 0.0, 0.0, 0.0, 0.0, 0.0, 0.0, 1.6541571266611452E9, 0.0, 2022-06-02 10:05:26.661
94.0, 24572.47967391964, 9400.76373824641, -69299.61673016749, -51499.357998294596, -40151.42204182411, -43268.998654961426, -12345.24844232183, -45666.91615187123, 0.02, 0.774, 0.64, 192.0, 0.0, 0.0, 0.0, 0.0, 0.0, 0.0, 0.0, 0.0, 0.0, 1.6541571266611576E9, 0.0, 2022-06-02 10:05:26.661
95.0, 24573.887833820325, 9393.81234572081, -69300.37668947896, -51507.874012932065, -40158.82046923882, -43283.30377141282, -12354.278547081774, -45674.98513161959, 0.02, 0.774, 0.64, 192.0, 0.0, 0.0, 0.0, 0.0, 0.0, 0.0, 0.0, 0.0, 0.0, 1.6541571266611657E9, 0.0, 2022-06-02 10:05:26.661
96.0, 24579.498121678607, 9394.57230503229, -69288.64202363993, -51498.88861166104, -40155.735928503986, -43276.71000679851, -12358.815951206203, -45664.14453555877, 0.016, 0.782, 0.646, 192.0, 0.0, 128.0, 24.0, 112.0, 20.0, 48.0, 0.0, 0.0, 0.0, 1.654157126661174E9, 0.0, 2022-06-02 10:05:26.661
97.0, 24570.803293085493, 9394.23702886546, -69276.57208163406, -51486.17046906596, -40142.302530086345, -43266.02587294887, -12345.382552788562, -45655.203837776644, 0.016, 0.782, 0.646, 192.0, 0.0, 0.0, 0.0, 0.0, 0.0, 0.0, 0.0, 0.0, 0.0, 1.6541571266611829E9, 0.0, 2022-06-02 10:05:26.661
98.0, 24567.651697117293, 9393.05238640933, -69279.76838109117, -51486.25987604378, -40137.698070728555, -43261.26495137989, -12332.73146542686, -45648.96770107361, 0.016, 0.782, 0.646, 192.0, 0.0, 0.0, 0.0, 0.0, 0.0, 0.0, 0.0, 0.0, 0.0, 1.6541571266611912E9, 0.0, 2022-06-02 10:05:26.661
99.0, 24573.261984975576, 9396.7180725, -69292.21830275278, -51494.35120753661, -40147.5775417778, -43268.6633787946, -12343.661468465503, -45656.36612848832, 0.016, 0.782, 0.646, 192.0, 0.0, 0.0, 0.0, 0.0, 0.0, 0.0, 0.0, 0.0, 0.0, 1.6541571266612008E9, 0.0, 2022-06-02 10:05:26.661
100.0, 24578.648755389306, 9400.115537657206, -69288.41850619538, -51497.27928606025, -40155.33359710379, -43275.23479166446, -12373.948082202445, -45672.74995717406, 0.016, 0.782, 0.646, 192.0, 0.0, 0.0, 0.0, 0.0, 0.0, 0.0, 0.0, 0.0, 0.0, 1.654157126661209E9, 0.0, 2022-06-02 10:05:26.661
101.0, 24573.9995925426, 9397.992121933952, -69280.59539563602, -51498.57568723866, -40161.99441695147, -43277.179393432074, -12383.112297429121, -45683.00940787905, 0.016, 0.782, 0.646, 192.0, 0.0, 0.0, 0.0, 0.0, 0.0, 0.0, 0.0, 0.0, 0.0, 1.6541571266612177E9, 0.0, 2022-06-02 10:05:26.661
102.0, 24564.231880215633, 9391.085432897262, -69278.18140723484, -51499.559163994694, -40161.480326829, -43271.83732650725, -12358.100695383633, -45663.47398322511, 0.016, 0.782, 0.646, 192.0, 0.0, 0.0, 0.0, 0.0, 0.0, 0.0, 0.0, 0.0, 0.0, 1.654157126661226E9, 0.0, 2022-06-02 10:05:26.661
103.0, 24567.517586650563, 9396.293389355349, -69280.05895376908, -51491.40077726851, -40167.112966431734, -43263.410718847605, -12384.855733496635, -45667.094965826866, 0.016, 0.782, 0.646, 192.0, 0.0, 0.0, 0.0, 0.0, 0.0, 0.0, 0.0, 0.0, 0.0, 1.6541571266612349E9, 0.0, 2022-06-02 10:05:26.661
104.0, 24571.496197163608, 9400.227296379482, -69285.8033520941, -51496.273457559764, -40155.71357675953, -43270.675035795575, -12343.773227187781, -45664.88214312579, 0.016, 0.782, 0.646, 192.0, 0.0, 0.0, 0.0, 0.0, 0.0, 0.0, 0.0, 0.0, 0.0, 1.6541571266612427E9, 0.0, 2022-06-02 10:05:26.661
105.0, 24578.15701701129, 9399.19911613454, -69294.47582894276, -51507.96341990989, -40163.64844604117, -43287.595306348245, -12358.346564572641, -45681.489489256084, 0.016, 0.778, 0.646, 192.0, 0.0, 128.0, 24.0, 80.0, 20.0, 48.0, 0.0, 0.0, 0.0, 1.6541571266612513E9, 0.0, 2022-06-02 10:05:26.661
106.0, 24581.174502512757, 9402.820098736298, -69273.7557618327, -51490.1043760901, -40143.017785908916, -43265.46707933749, -12326.517680468283, -45640.675203880695, 0.016, 0.778, 0.646, 192.0, 0.0, 0.0, 0.0, 0.0, 0.0, 0.0, 0.0, 0.0, 0.0, 1.6541571266612616E9, 0.0, 2022-06-02 10:05:26.661
107.0, 24568.791636084516, 9400.406110335125, -69261.28348842663, -51474.01112008228, -40128.37739329069, -43252.301901853316, -12301.774299356259, -45629.99107003106, 0.016, 0.778, 0.646, 192.0, 0.0, 0.0, 0.0, 0.0, 0.0, 0.0, 0.0, 0.0, 0.0, 1.654157126661274E9, 0.0, 2022-06-02 10:05:26.661
108.0, 24567.785807584027, 9401.657808024622, -69275.27568045566, -51479.44259398492, -40138.65919574013, -43254.06768966528, -12323.656657178004, -45648.61007316233, 0.016, 0.778, 0.646, 192.0, 0.0, 0.0, 0.0, 0.0, 0.0, 0.0, 0.0, 0.0, 0.0, 1.6541571266612833E9, 0.0, 2022-06-02 10:05:26.661
109.0, 24571.29503146351, 9402.95420920303, -69287.3009189726, -51488.8526784006, -40148.06928015581, -43262.069614180284, -12332.060913093199, -45660.18827679018, 0.016, 0.778, 0.646, 192.0, 0.0, 0.0, 0.0, 0.0, 0.0, 0.0, 0.0, 0.0, 0.0, 1.654157126661292E9, 0.0, 2022-06-02 10:05:26.661
110.0, 24561.974354025646, 9387.643264251145, -69297.09098304404, -51507.62814374306, -40163.67079778562, -43284.53311735787, -12352.602166247627, -45673.241695552075, 0.016, 0.778, 0.646, 192.0, 0.0, 0.0, 0.0, 0.0, 0.0, 0.0, 0.0, 0.0, 0.0, 1.6541571266613004E9, 0.0, 2022-06-02 10:05:26.661
111.0, 24570.49036866312, 9394.48289805447, -69281.84709332552, -51500.050902372706, -40158.84282098327, -43280.19687893354, -12371.467038567906, -45680.34955028886, 0.016, 0.778, 0.646, 192.0, 0.0, 0.0, 0.0, 0.0, 0.0, 0.0, 0.0, 0.0, 0.0, 1.6541571266613085E9, 0.0, 2022-06-02 10:05:26.661
112.0, 24569.775112840547, 9398.305046356327, -69271.4982356427, -51488.62916095605, -40142.861323697725, -43276.15121318713, -12349.517625512795, -45688.86556492634, 0.016, 0.778, 0.646, 192.0, 0.0, 0.0, 0.0, 0.0, 0.0, 0.0, 0.0, 0.0, 0.0, 1.6541571266613178E9, 0.0, 2022-06-02 10:05:26.661
113.0, 24567.048200017, 9403.065967925308, -69276.41561942287, -51489.344416778615, -40143.80009696485, -43275.346550386734, -12348.020058634289, -45704.75765523406, 0.016, 0.778, 0.646, 192.0, 0.0, 0.0, 0.0, 0.0, 0.0, 0.0, 0.0, 0.0, 0.0, 1.654157126661326E9, 0.0, 2022-06-02 10:05:26.661
114.0, 24573.86548207587, 9396.874534711187, -69291.65950914139, -51496.8546029156, -40154.59598953676, -43265.69059678204, -12347.148340600532, -45655.98614883258, 0.016, 0.778, 0.646, 192.0, 0.0, 0.0, 0.0, 0.0, 0.0, 0.0, 0.0, 0.0, 0.0, 1.654157126661334E9, 0.0, 2022-06-02 10:05:26.661
115.0, 24585.10840953689, 9400.271999868393, -69282.58470089253, -51489.52323073426, -40158.75341400545, -43265.42237584858, -12334.877232894569, -45629.16405548621, 0.01, 0.782, 0.646, 192.0, 0.0, 80.0, 24.0, 112.0, 20.0, 48.0, 0.0, 0.0, 0.0, 1.654157126661343E9, 0.0, 2022-06-02 10:05:26.661
116.0, 24585.66720314827, 9410.57615406229, -69264.99387800621, -51472.42414622595, -40147.84576271126, -43256.2581606219, -12332.798520660224, -45631.95802354313, 0.01, 0.782, 0.646, 192.0, 0.0, 0.0, 0.0, 0.0, 0.0, 0.0, 0.0, 0.0, 0.0, 1.6541571266613512E9, 0.0, 2022-06-02 10:05:26.661
117.0, 24582.96264206918, 9411.157299418128, -69259.60710759248, -51464.109297288574, -40141.9225504306, -43246.982186672954, -12339.772264930281, -45638.59649164635, 0.01, 0.782, 0.646, 192.0, 0.0, 0.0, 0.0, 0.0, 0.0, 0.0, 0.0, 0.0, 0.0, 1.6541571266613598E9, 0.0, 2022-06-02 10:05:26.661
118.0, 24579.67693563425, 9411.403168607136, -69270.89473854241, -51467.95379733489, -40147.46578305552, -43248.300939595814, -12364.001555919833, -45664.03277683649, 0.01, 0.782, 0.646, 192.0, 0.0, 0.0, 0.0, 0.0, 0.0, 0.0, 0.0, 0.0, 0.0, 1.6541571266613684E9, 0.0, 2022-06-02 10:05:26.661
119.0, 24577.66527863327, 9407.983351705474, -69287.74795386172, -51483.354149264596, -40146.88463769968, -43263.120146169684, -12339.63815446355, -45674.22517230811, 0.01, 0.782, 0.646, 192.0, 0.0, 0.0, 0.0, 0.0, 0.0, 0.0, 0.0, 0.0, 0.0, 1.6541571266613767E9, 0.0, 2022-06-02 10:05:26.661
120.0, 24591.411601473286, 9417.326380887793, -69277.48850315672, -51480.29196027422, -40145.85645745474, -43263.43307059206, -12325.087168823144, -45658.422488978205, 0.01, 0.782, 0.646, 192.0, 0.0, 0.0, 0.0, 0.0, 0.0, 0.0, 0.0, 0.0, 0.0, 1.6541571266613848E9, 0.0, 2022-06-02 10:05:26.661
121.0, 24587.38828747133, 9424.121311202207, -69262.80340704959, -51471.038338069724, -40135.50759977193, -43252.570122786776, -12327.657619435504, -45639.28939572447, 0.01, 0.782, 0.646, 192.0, 0.0, 0.0, 0.0, 0.0, 0.0, 0.0, 0.0, 0.0, 0.0, 1.6541571271405149E9, 0.0, 2022-06-02 10:05:27.140
122.0, 24587.34358398242, 9428.703418815545, -69248.69945629829, -51458.744878619305, -40116.933300129574, -43238.04148889083, -12313.91129659549, -45623.44200890565, 0.01, 0.782, 0.646, 192.0, 0.0, 0.0, 0.0, 0.0, 0.0, 0.0, 0.0, 0.0, 0.0, 1.6541571271407073E9, 0.0, 2022-06-02 10:05:27.140
123.0, 24584.48256069214, 9424.590697835767, -69261.1493779599, -51465.07042230015, -40123.19178857706, -43241.81893370378, -12338.92289864098, -45644.83262834938, 0.01, 0.782, 0.646, 192.0, 0.0, 0.0, 0.0, 0.0, 0.0, 0.0, 0.0, 0.0, 0.0, 1.6541571271407175E9, 0.0, 2022-06-02 10:05:27.140
124.0, 24583.767304869572, 9417.14756693215, -69282.78586659263, -51483.89059113152, -40139.575617262795, -43262.60605604721, -12360.760552973814, -45673.64402695227, 0.01, 0.782, 0.646, 192.0, 0.0, 0.0, 0.0, 0.0, 0.0, 0.0, 0.0, 0.0, 0.0, 1.654157127140726E9, 0.0, 2022-06-02 10:05:27.140
125.0, 24583.208511258188, 9413.05719769683, -69279.54486364662, -51490.752576679304, -40147.354024333246, -43273.17843117457, -12345.91899465549, -45668.41371874973, 0.02, 0.774, 0.646, 192.0, 0.0, 160.0, 24.0, 48.0, 20.0, 48.0, 0.0, 0.0, 0.0, 1.6541571271407354E9, 0.0, 2022-06-02 10:05:27.140
126.0, 24591.590415428927, 9417.125215187694, -69258.71303781428, -51476.33570150563, -40131.23841658097, -43262.96368395849, -12320.750930398814, -45654.153305787244, 0.02, 0.774, 0.646, 192.0, 0.0, 0.0, 0.0, 0.0, 0.0, 0.0, 0.0, 0.0, 0.0, 1.6541571271407523E9, 0.0, 2022-06-02 10:05:27.140
127.0, 24599.838209132937, 9426.356485647737, -69245.92783998583, -51461.248273998295, -40119.168474575104, -43243.58472151574, -12319.432177475952, -45636.830703834385, 0.02, 0.774, 0.646, 192.0, 0.0, 0.0, 0.0, 0.0, 0.0, 0.0, 0.0, 0.0, 0.0, 1.6541571271407623E9, 0.0, 2022-06-02 10:05:27.140
128.0, 24582.984993813636, 9421.327343145293, -69259.74121805921, -51465.2492362558, -40121.09072459826, -43238.22030284647, -12324.371913000574, -45631.39922993174, 0.02, 0.774, 0.646, 192.0, 0.0, 0.0, 0.0, 0.0, 0.0, 0.0, 0.0, 0.0, 0.0, 1.6541571271408052E9, 0.0, 2022-06-02 10:05:27.140
129.0, 24574.468979176163, 9412.207831407528, -69286.40684919439, -51487.66803594447, -40139.910893429624, -43262.33783511375, -12342.521529498283, -45672.12410832931, 0.02, 0.774, 0.646, 192.0, 0.0, 0.0, 0.0, 0.0, 0.0, 0.0, 0.0, 0.0, 0.0, 1.6541571271408153E9, 0.0, 2022-06-02 10:05:27.140
130.0, 24587.231825260144, 9415.873517498198, -69284.23872998223, -51486.99748361081, -40142.861323697725, -43263.36601535869, -12351.171654602487, -45661.9764163466, 0.02, 0.774, 0.646, 192.0, 0.0, 0.0, 0.0, 0.0, 0.0, 0.0, 0.0, 0.0, 0.0, 1.6541571271408253E9, 0.0, 2022-06-02 10:05:27.140
131.0, 24580.682764134737, 9406.374026104693, -69279.94719504681, -51487.5562772222, -40148.56101853383, -43261.04143393534, -12346.92482315598, -45650.77819237449, 0.02, 0.774, 0.646, 192.0, 0.0, 0.0, 0.0, 0.0, 0.0, 0.0, 0.0, 0.0, 0.0, 1.6541571271408367E9, 0.0, 2022-06-02 10:05:27.140
132.0, 24579.989860056623, 9413.012494207918, -69264.63625009492, -51477.85562012859, -40130.7243264585, -43248.435050062544, -12320.48270946535, -45636.13779975627, 0.02, 0.774, 0.646, 192.0, 0.0, 0.0, 0.0, 0.0, 0.0, 0.0, 0.0, 0.0, 0.0, 1.654157127140848E9, 0.0, 2022-06-02 10:05:27.140
133.0, 24580.995688557112, 9420.67914255609, -69260.43412213733, -51471.150096792, -40121.60481472073, -43237.92973016855, -12318.806328631203, -45643.37976495979, 0.02, 0.774, 0.646, 192.0, 0.0, 0.0, 0.0, 0.0, 0.0, 0.0, 0.0, 0.0, 0.0, 1.6541571271408598E9, 0.0, 2022-06-02 10:05:27.140
134.0, 24581.219206001664, 9419.226279166494, -69275.40979092238, -51477.78856489522, -40132.51246601492, -43242.82476220426, -12327.612915946595, -45642.8209713484, 0.02, 0.774, 0.646, 192.0, 0.0, 0.0, 0.0, 0.0, 0.0, 0.0, 0.0, 0.0, 0.0, 1.6541571271408706E9, 0.0, 2022-06-02 10:05:27.140
135.0, 24583.320269980464, 9417.661657054623, -69276.63913686742, -51481.52130621926, -40139.508562029434, -43248.435050062544, -12329.423407247474, -45629.633442119775, 0.016, 0.78, 0.644, 192.0, 0.0, 128.0, 24.0, 96.0, 20.0, 32.0, 0.0, 0.0, 0.0, 1.6541571271408806E9, 0.0, 2022-06-02 10:05:27.140
136.0, 24580.9509850682, 9415.046502953352, -69270.93944203132, -51482.28126553074, -40134.23355033798, -43249.39617507412, -12334.050218349723, -45636.495427667556, 0.016, 0.78, 0.644, 192.0, 0.0, 0.0, 0.0, 0.0, 0.0, 0.0, 0.0, 0.0, 0.0, 1.6541571271408908E9, 0.0, 2022-06-02 10:05:27.140
137.0, 24577.575871655452, 9416.097034942752, -69262.4457791383, -51474.52521020475, -40124.84581766675, -43245.12699188316, -12327.948192113423, -45640.85401783634, 0.016, 0.78, 0.644, 192.0, 0.0, 0.0, 0.0, 0.0, 0.0, 0.0, 0.0, 0.0, 0.0, 1.654157127140898E9, 0.0, 2022-06-02 10:05:27.140
138.0, 24571.630307630337, 9416.320552387304, -69268.77132281916, -51471.97711133684, -40129.18205609108, -43250.78198323035, -12324.707189167404, -45661.641140179774, 0.016, 0.78, 0.644, 192.0, 0.0, 0.0, 0.0, 0.0, 0.0, 0.0, 0.0, 0.0, 0.0, 1.654157127140907E9, 0.0, 2022-06-02 10:05:27.140
139.0, 24590.24931076161, 9429.955116505042, -69271.2523664537, -51463.9975385663, -40125.96340488952, -43241.21543660348, -12312.883116350546, -45653.14747728676, 0.016, 0.78, 0.644, 192.0, 0.0, 0.0, 0.0, 0.0, 0.0, 0.0, 0.0, 0.0, 0.0, 1.6541571271409247E9, 0.0, 2022-06-02 10:05:27.140
140.0, 24573.61961288686, 9412.029017451885, -69285.69159337183, -51477.22977128384, -40143.487172542475, -43252.36895708668, -12316.995837330323, -45647.380727217285, 0.016, 0.78, 0.644, 192.0, 0.0, 0.0, 0.0, 0.0, 0.0, 0.0, 0.0, 0.0, 0.0, 1.6541571271409323E9, 0.0, 2022-06-02 10:05:27.140
141.0, 24569.596298884906, 9408.251572638937, -69279.9024915579, -51475.19576253841, -40148.98570167848, -43252.8606954647, -12330.071607836677, -45644.40794520473, 0.016, 0.78, 0.644, 192.0, 0.0, 0.0, 0.0, 0.0, 0.0, 0.0, 0.0, 0.0, 0.0, 1.6541571271409392E9, 0.0, 2022-06-02 10:05:27.140
142.0, 24570.24449947411, 9411.179651162583, -69268.01136350767, -51466.23271301183, -40138.815657951316, -43247.20570411751, -12325.355389756607, -45647.33602372838, 0.016, 0.78, 0.644, 192.0, 0.0, 0.0, 0.0, 0.0, 0.0, 0.0, 0.0, 0.0, 0.0, 1.6541571271409464E9, 0.0, 2022-06-02 10:05:27.140
143.0, 24576.994726299614, 9414.778282019888, -69267.20670070729, -51466.344471734104, -40128.77972469088, -43248.81502971829, -12323.29902926672, -45668.95016061666, 0.016, 0.78, 0.644, 192.0, 0.0, 0.0, 0.0, 0.0, 0.0, 0.0, 0.0, 0.0, 0.0, 1.6541571271409533E9, 0.0, 2022-06-02 10:05:27.140
144.0, 24582.515607180074, 9423.450758868546, -69274.22514846626, -51474.01112008228, -40134.390012549164, -43254.98411118795, -12338.855843407613, -45680.81893692243, 0.016, 0.78, 0.644, 192.0, 0.0, 0.0, 0.0, 0.0, 0.0, 0.0, 0.0, 0.0, 0.0, 1.6541571271409607E9, 0.0, 2022-06-02 10:05:27.140
145.0, 24573.86548207587, 9411.581982562779, -69279.65662236889, -51482.03539634173, -40145.0741463988, -43259.25329437891, -12351.238709835854, -45658.66835816722, 0.012, 0.78, 0.648, 192.0, 0.0, 96.0, 24.0, 96.0, 20.0, 64.0, 0.0, 0.0, 0.0, 1.6541571271409693E9, 0.0, 2022-06-02 10:05:27.140
146.0, 24578.805217600493, 9407.335151116271, -69270.51475888667, -51481.96834110837, -40137.72042247301, -43257.956893200506, -12347.81889293419, -45655.80733487694, 0.012, 0.78, 0.648, 192.0, 0.0, 0.0, 0.0, 0.0, 0.0, 0.0, 0.0, 0.0, 0.0, 1.654157127140977E9, 0.0, 2022-06-02 10:05:27.140
147.0, 24579.00638330059, 9408.028055194385, -69259.2941831701, -51473.98876833782, -40119.28023329738, -43246.02106166137, -12333.826700905169, -45641.301052725445, 0.012, 0.78, 0.648, 192.0, 0.0, 0.0, 0.0, 0.0, 0.0, 0.0, 0.0, 0.0, 0.0, 1.6541571271409843E9, 0.0, 2022-06-02 10:05:27.140
148.0, 24573.37374369785, 9413.615991308212, -69265.53031987314, -51474.07817531564, -40121.02366936489, -43241.7071749815, -12349.383515046064, -45654.19800927616, 0.012, 0.78, 0.648, 192.0, 0.0, 0.0, 0.0, 0.0, 0.0, 0.0, 0.0, 0.0, 0.0, 1.6541571271409917E9, 0.0, 2022-06-02 10:05:27.140
149.0, 24568.05402851749, 9404.183555148073, -69297.53801793314, -51494.37355928106, -40145.029442909894, -43264.55065781482, -12364.11331464211, -45692.9335824172, 0.012, 0.78, 0.648, 192.0, 0.0, 0.0, 0.0, 0.0, 0.0, 0.0, 0.0, 0.0, 0.0, 1.6541571271409984E9, 0.0, 2022-06-02 10:05:27.140
150.0, 24565.885909305325, 9393.611180020713, -69309.22798028326, -51506.398797798014, -40156.13825990418, -43283.95197200203, -12364.515646042306, -45697.69450398618, 0.012, 0.78, 0.648, 192.0, 0.0, 0.0, 0.0, 0.0, 0.0, 0.0, 0.0, 0.0, 0.0, 1.6541571271410117E9, 0.0, 2022-06-02 10:05:27.141
151.0, 24561.750836581094, 9392.38183407567, -69295.9063405879, -51501.12378610657, -40156.920570960116, -43274.78775677535, -12354.010326148311, -45672.03470135149, 0.012, 0.78, 0.648, 192.0, 0.0, 0.0, 0.0, 0.0, 0.0, 0.0, 0.0, 0.0, 0.0, 1.6541571271410189E9, 0.0, 2022-06-02 10:05:27.141
152.0, 24563.203699970687, 9398.57326728979, -69279.38840143543, -51487.04218709972, -40141.20729460804, -43256.92871295556, -12339.101712596621, -45655.82968662139, 0.012, 0.78, 0.648, 192.0, 0.0, 0.0, 0.0, 0.0, 0.0, 0.0, 0.0, 0.0, 0.0, 1.6541571271410267E9, 0.0, 2022-06-02 10:05:27.141
153.0, 24569.596298884906, 9400.651979524133, -69277.08617175653, -51485.20934405438, -40143.93420743158, -43252.011329175395, -12355.0161546488, -45662.89283786927, 0.012, 0.78, 0.648, 192.0, 0.0, 0.0, 0.0, 0.0, 0.0, 0.0, 0.0, 0.0, 0.0, 1.6541571271410356E9, 0.0, 2022-06-02 10:05:27.141
154.0, 24581.755647868595, 9415.00179946444, -69287.07740152805, -51488.74091967833, -40154.260713369935, -43252.637178020144, -12378.887817727067, -45682.65177996776, 0.012, 0.78, 0.648, 192.0, 0.0, 0.0, 0.0, 0.0, 0.0, 0.0, 0.0, 0.0, 0.0, 1.654157127141045E9, 0.0, 2022-06-02 10:05:27.141
155.0, 24587.410639215785, 9422.243764667961, -69281.22124448077, -51487.33275977764, -40145.18590512108, -43253.352433842716, -12341.605107975616, -45651.53815168598, 0.018000000000000002, 0.78, 0.648, 192.0, 0.0, 144.0, 24.0, 96.0, 20.0, 64.0, 0.0, 0.0, 0.0, 1.6541571271410534E9, 0.0, 2022-06-02 10:05:27.141
156.0, 24594.429086974753, 9423.651924568645, -69265.9997065067, -51476.33570150563, -40144.2247801095, -43244.255273849405, -12346.58954698915, -45639.6693753802, 0.018000000000000002, 0.78, 0.648, 192.0, 0.0, 0.0, 0.0, 0.0, 0.0, 0.0, 0.0, 0.0, 0.0, 1.6541571271410623E9, 0.0, 2022-06-02 10:05:27.141
157.0, 24574.983069298636, 9419.829776266788, -69266.46909314026, -51477.98973059532, -40148.00222492245, -43247.87625645116, -12362.816913463703, -45659.09304131187, 0.018000000000000002, 0.78, 0.648, 192.0, 0.0, 0.0, 0.0, 0.0, 0.0, 0.0, 0.0, 0.0, 0.0, 1.6541571271410704E9, 0.0, 2022-06-02 10:05:27.141
158.0, 24568.076380261944, 9417.929877988086, -69272.77228507666, -51478.593227695615, -40141.20729460804, -43252.078384408764, -12350.277584824275, -45676.281532798, 0.018000000000000002, 0.78, 0.648, 192.0, 0.0, 0.0, 0.0, 0.0, 0.0, 0.0, 0.0, 0.0, 0.0, 1.6541571271410787E9, 0.0, 2022-06-02 10:05:27.141
159.0, 24563.628383115338, 9406.19521214905, -69296.57689292156, -51495.82642267066, -40154.50658255894, -43269.982131717465, -12342.476826009373, -45697.783910964004, 0.018000000000000002, 0.78, 0.648, 192.0, 0.0, 0.0, 0.0, 0.0, 0.0, 0.0, 0.0, 0.0, 0.0, 1.6541571271410875E9, 0.0, 2022-06-02 10:05:27.141
160.0, 24567.986973284125, 9407.826889494287, -69298.47679120026, -51497.63691397154, -40167.7835187654, -43274.40777711961, -12369.477733311383, -45700.77904472101, 0.018000000000000002, 0.78, 0.648, 192.0, 0.0, 0.0, 0.0, 0.0, 0.0, 0.0, 0.0, 0.0, 0.0, 1.6541571271410956E9, 0.0, 2022-06-02 10:05:27.141
161.0, 24582.046220546512, 9425.19419493606, -69266.06676174006, -51472.87118111506, -40144.18007662059, -43247.809201217795, -12346.38838128905, -45656.388480232774, 0.018000000000000002, 0.78, 0.648, 192.0, 0.0, 0.0, 0.0, 0.0, 0.0, 0.0, 0.0, 0.0, 0.0, 1.6541571271411035E9, 0.0, 2022-06-02 10:05:27.141
162.0, 24575.944194310214, 9425.842395525266, -69259.83062503704, -51466.99267232331, -40127.1703990901, -43235.8063144453, -12312.369026228074, -45627.13004674078, 0.018000000000000002, 0.78, 0.648, 192.0, 0.0, 0.0, 0.0, 0.0, 0.0, 0.0, 0.0, 0.0, 0.0, 1.654157127141111E9, 0.0, 2022-06-02 10:05:27.141
163.0, 24570.691534363217, 9420.232107666983, -69270.42535190885, -51470.72541364735, -40130.18788459157, -43237.03566039034, -12304.747081368814, -45626.63830836276, 0.018000000000000002, 0.78, 0.648, 192.0, 0.0, 0.0, 0.0, 0.0, 0.0, 0.0, 0.0, 0.0, 0.0, 1.6541571271411178E9, 0.0, 2022-06-02 10:05:27.141
164.0, 24576.65945013278, 9415.784110520377, -69289.53609341814, -51481.27543703025, -40147.33167258879, -43254.51472455439, -12350.478750524373, -45676.84032640938, 0.018000000000000002, 0.78, 0.648, 192.0, 0.0, 0.0, 0.0, 0.0, 0.0, 0.0, 0.0, 0.0, 0.0, 1.6541571271411252E9, 0.0, 2022-06-02 10:05:27.141
165.0, 24589.042316561023, 9424.05425596884, -69281.60122413651, -51481.65541668599, -40149.41038482313, -43260.16971590158, -12376.786753748269, -45687.99384689258, 0.014, 0.786, 0.65, 192.0, 0.0, 112.0, 24.0, 144.0, 20.0, 80.0, 0.0, 0.0, 0.0, 1.6541571271411324E9, 0.0, 2022-06-02 10:05:27.141
166.0, 24585.086057792432, 9421.774378034399, -69260.03179073714, -51472.82647762615, -40133.58534974878, -43246.40104131711, -12328.685799680448, -45647.2242650061, 0.014, 0.786, 0.65, 192.0, 0.0, 0.0, 0.0, 0.0, 0.0, 0.0, 0.0, 0.0, 0.0, 1.6541571271411417E9, 0.0, 2022-06-02 10:05:27.141
167.0, 24576.838264088427, 9417.795767521355, -69252.23103192223, -51470.7477653918, -40128.91383515762, -43242.51183778189, -12319.029846075755, -45637.85888407932, 0.014, 0.786, 0.65, 192.0, 0.0, 0.0, 0.0, 0.0, 0.0, 0.0, 0.0, 0.0, 0.0, 1.65415712714115E9, 0.0, 2022-06-02 10:05:27.141
168.0, 24577.575871655452, 9420.455625111535, -69252.90158425589, -51464.71279438887, -40130.94784390305, -43242.22126510397, -12346.410733033506, -45661.23880877958, 0.014, 0.786, 0.65, 192.0, 0.0, 0.0, 0.0, 0.0, 0.0, 0.0, 0.0, 0.0, 0.0, 1.654157127141159E9, 0.0, 2022-06-02 10:05:27.141
169.0, 24581.129799023845, 9419.785072777877, -69267.40786640739, -51473.94406484891, -40141.63197775269, -43248.32329134027, -12351.775151702781, -45670.51478272853, 0.014, 0.786, 0.65, 192.0, 0.0, 0.0, 0.0, 0.0, 0.0, 0.0, 0.0, 0.0, 0.0, 1.6541571271411686E9, 0.0, 2022-06-02 10:05:27.141
170.0, 24585.130761281343, 9415.851165753742, -69272.68287809883, -51479.66611142947, -40148.91864644511, -43261.48846882444, -12343.39324753204, -45664.0774803254, 0.014, 0.786, 0.65, 192.0, 0.0, 0.0, 0.0, 0.0, 0.0, 0.0, 0.0, 0.0, 0.0, 1.6541571271411765E9, 0.0, 2022-06-02 10:05:27.141
171.0, 24571.943232052712, 9410.464395340014, -69268.5031018857, -51476.17923929444, -40146.504658043945, -43260.61675079069, -12326.33886651264, -45652.007538319536, 0.014, 0.786, 0.65, 192.0, 0.0, 0.0, 0.0, 0.0, 0.0, 0.0, 0.0, 0.0, 0.0, 1.6541571271411881E9, 0.0, 2022-06-02 10:05:27.141
172.0, 24567.20466222819, 9413.504232585936, -69261.64111633791, -51463.88577984402, -40141.00612890794, -43246.64691050612, -12329.579869458661, -45652.45457320864, 0.014, 0.786, 0.65, 192.0, 0.0, 0.0, 0.0, 0.0, 0.0, 0.0, 0.0, 0.0, 0.0, 1.6541571271411953E9, 0.0, 2022-06-02 10:05:27.141
173.0, 24572.300859963998, 9416.208793665028, -69263.58571810553, -51458.29784373019, -40140.51439052992, -43238.53322726885, -12327.255288035309, -45647.537189428476, 0.014, 0.786, 0.65, 192.0, 0.0, 0.0, 0.0, 0.0, 0.0, 0.0, 0.0, 0.0, 0.0, 1.6541571271412036E9, 0.0, 2022-06-02 10:05:27.141
174.0, 24565.95296453869, 9407.178688905084, -69286.96564280578, -51472.8488293706, -40154.260713369935, -43250.15613438561, -12337.984125373856, -45661.95406460215, 0.014, 0.786, 0.65, 192.0, 0.0, 0.0, 0.0, 0.0, 0.0, 0.0, 0.0, 0.0, 0.0, 1.6541571271412115E9, 0.0, 2022-06-02 10:05:27.141
175.0, 24564.745970338103, 9406.038749937863, -69289.82666609605, -51478.928503862444, -40155.04302442587, -43258.91801821208, -12342.007439375811, -45663.49633496956, 0.012, 0.786, 0.648, 192.0, 0.0, 96.0, 24.0, 144.0, 20.0, 64.0, 0.0, 0.0, 0.0, 1.6541571271412213E9, 0.0, 2022-06-02 10:05:27.141
176.0, 24563.807197070983, 9410.866726740209, -69272.01232576517, -51470.121916547054, -40152.025538924405, -43249.08325065175, -12352.557462758716, -45657.48371571109, 0.012, 0.786, 0.648, 192.0, 0.0, 0.0, 0.0, 0.0, 0.0, 0.0, 0.0, 0.0, 0.0, 1.6541571271412296E9, 0.0, 2022-06-02 10:05:27.141
177.0, 24564.00836277108, 9410.374988362193, -69257.70720931378, -51467.46205895687, -40144.068317898316, -43240.053145891805, -12340.44281726394, -45650.68878539667, 0.012, 0.786, 0.648, 192.0, 0.0, 0.0, 0.0, 0.0, 0.0, 0.0, 0.0, 0.0, 0.0, 1.6541571271412387E9, 0.0, 2022-06-02 10:05:27.141
178.0, 24562.46609240366, 9407.71513077201, -69257.30487791359, -51467.90909384598, -40142.74956497545, -43243.98705291594, -12346.120160355587, -45671.52061122902, 0.012, 0.786, 0.648, 192.0, 0.0, 0.0, 0.0, 0.0, 0.0, 0.0, 0.0, 0.0, 0.0, 1.6541571271412487E9, 0.0, 2022-06-02 10:05:27.141
179.0, 24563.53897613752, 9411.380816862682, -69269.86655829746, -51474.592265438114, -40145.6776434991, -43251.67605300857, -12349.316459812697, -45689.02202713752, 0.012, 0.786, 0.648, 192.0, 0.0, 0.0, 0.0, 0.0, 0.0, 0.0, 0.0, 0.0, 0.0, 1.6541571271412585E9, 0.0, 2022-06-02 10:05:27.141
180.0, 24557.90633653478, 9405.748177259944, -69288.50791317319, -51496.87695466006, -40171.53861183389, -43272.910210241105, -12384.900436985547, -45700.95785867666, 0.012, 0.786, 0.648, 192.0, 0.0, 0.0, 0.0, 0.0, 0.0, 0.0, 0.0, 0.0, 0.0, 1.6541571271412692E9, 0.0, 2022-06-02 10:05:27.141
181.0, 24561.61672611436, 9409.927953473087, -69276.48267465623, -51488.942085378425, -40166.17419316461, -43263.79069850334, -12375.758573503324, -45676.885029898294, 0.012, 0.786, 0.648, 192.0, 0.0, 0.0, 0.0, 0.0, 0.0, 0.0, 0.0, 0.0, 0.0, 1.6541571271412773E9, 0.0, 2022-06-02 10:05:27.141
182.0, 24564.209528471176, 9411.447872096047, -69256.36610464645, -51474.65932067148, -40146.10232664375, -43242.69065173753, -12324.550726956217, -45626.906529296226, 0.012, 0.786, 0.648, 192.0, 0.0, 0.0, 0.0, 0.0, 0.0, 0.0, 0.0, 0.0, 0.0, 1.6541571271412854E9, 0.0, 2022-06-02 10:05:27.141
183.0, 24574.357220453887, 9417.415787865613, -69250.33113364353, -51461.62825365404, -40129.00324213544, -43230.37484054266, -12298.980331299344, -45618.65873559222, 0.012, 0.786, 0.648, 192.0, 0.0, 0.0, 0.0, 0.0, 0.0, 0.0, 0.0, 0.0, 0.0, 1.6541571271412985E9, 0.0, 2022-06-02 10:05:27.141
184.0, 24584.86254034788, 9422.310819901326, -69265.23974719521, -51467.95379733489, -40140.067355640815, -43241.97539591496, -12341.940384142445, -45663.85396288085, 0.012, 0.786, 0.648, 192.0, 0.0, 0.0, 0.0, 0.0, 0.0, 0.0, 0.0, 0.0, 0.0, 1.654157127141308E9, 0.0, 2022-06-02 10:05:27.141
185.0, 24573.932537309236, 9417.348732632248, -69277.04146826762, -51482.303617275196, -40160.74271926197, -43261.711986269, -12382.508800328827, -45691.97245740562, 0.016, 0.784, 0.652, 192.0, 0.0, 128.0, 24.0, 128.0, 20.0, 96.0, 0.0, 0.0, 0.0, 1.654157127141322E9, 0.0, 2022-06-02 10:05:27.141
186.0, 24564.00836277108, 9412.073720940796, -69272.72758158775, -51481.07427133015, -40155.64652152616, -43258.3592246007, -12348.601203990127, -45664.18923904768, 0.016, 0.784, 0.652, 192.0, 0.0, 0.0, 0.0, 0.0, 0.0, 0.0, 0.0, 0.0, 0.0, 1.654157127141331E9, 0.0, 2022-06-02 10:05:27.141
187.0, 24557.414598156764, 9409.391511606158, -69269.1513024749, -51478.459117228886, -40146.37054757721, -43253.710061754, -12327.05412233521, -45659.24950352305, 0.016, 0.784, 0.652, 192.0, 0.0, 0.0, 0.0, 0.0, 0.0, 0.0, 0.0, 0.0, 0.0, 1.6541571271413407E9, 0.0, 2022-06-02 10:05:27.141
188.0, 24553.25717368808, 9406.083453426774, -69278.74020084622, -51487.22100105536, -40154.73010000349, -43256.14640189963, -12353.272718581286, -45678.56141073244, 0.016, 0.784, 0.652, 192.0, 0.0, 0.0, 0.0, 0.0, 0.0, 0.0, 0.0, 0.0, 0.0, 1.654157127141352E9, 0.0, 2022-06-02 10:05:27.141
189.0, 24559.18038596873, 9405.7705290044, -69291.68186088584, -51491.13255633504, -40161.6814925291, -43258.49333506743, -12359.464151795406, -45681.86946891183, 0.016, 0.784, 0.652, 192.0, 0.0, 0.0, 0.0, 0.0, 0.0, 0.0, 0.0, 0.0, 0.0, 1.65415712714136E9, 0.0, 2022-06-02 10:05:27.141
190.0, 24573.75372335359, 9417.639305310167, -69280.75185784721, -51481.297788774704, -40152.83020172479, -43248.81502971829, -12333.223203804875, -45640.83166609188, 0.016, 0.784, 0.652, 192.0, 0.0, 0.0, 0.0, 0.0, 0.0, 0.0, 0.0, 0.0, 0.0, 1.654157127141367E9, 0.0, 2022-06-02 10:05:27.141
191.0, 24568.2998977065, 9415.29237214236, -69273.91222404387, -51479.66611142947, -40157.836992482786, -43246.982186672954, -12339.63815446355, -45637.16598000121, 0.016, 0.784, 0.652, 192.0, 0.0, 0.0, 0.0, 0.0, 0.0, 0.0, 0.0, 0.0, 0.0, 1.654157127141376E9, 0.0, 2022-06-02 10:05:27.141
192.0, 24569.28337446253, 9413.683046541577, -69267.11729372946, -51477.43093698394, -40156.54059130437, -43247.87625645116, -12352.266890080797, -45646.3748987168, 0.016, 0.784, 0.652, 192.0, 0.0, 0.0, 0.0, 0.0, 0.0, 0.0, 0.0, 0.0, 0.0, 1.654157127141389E9, 0.0, 2022-06-02 10:05:27.141
193.0, 24574.088999520423, 9420.34386638926, -69263.16103496088, -51466.9479688344, -40139.910893429624, -43245.55167502781, -12331.68093343746, -45649.772363874006, 0.016, 0.784, 0.652, 192.0, 0.0, 0.0, 0.0, 0.0, 0.0, 0.0, 0.0, 0.0, 0.0, 1.654157127141396E9, 0.0, 2022-06-02 10:05:27.141
194.0, 24572.300859963998, 9422.154357690139, -69273.73341008823, -51469.40666072448, -40151.80202147985, -43253.79946873182, -12366.72846874338, -45691.704236472164, 0.014, 0.784, 0.646, 192.0, 0.0, 112.0, 24.0, 128.0, 20.0, 48.0, 0.0, 0.0, 0.0, 1.6541571271414049E9, 0.0, 2022-06-02 10:05:27.141
195.0, 24561.23674645862, 9408.475090083492, -69292.33006147505, -51489.38912026753, -40178.28883865939, -43272.95491373002, -12397.328006902697, -45708.44569306919, 0.014, 0.784, 0.646, 192.0, 0.0, 0.0, 0.0, 0.0, 0.0, 0.0, 0.0, 0.0, 0.0, 1.6541571271414125E9, 0.0, 2022-06-02 10:05:27.141
196.0, 24557.369894667852, 9401.724863257989, -69281.75768634769, -51486.14811732151, -40163.559039063344, -43267.85871599421, -12339.504043996816, -45669.17367806121, 0.014, 0.784, 0.646, 192.0, 0.0, 0.0, 0.0, 0.0, 0.0, 0.0, 0.0, 0.0, 0.0, 1.65415712714142E9, 0.0, 2022-06-02 10:05:27.141
197.0, 24563.740141837614, 9407.111633671717, -69262.69164832731, -51473.09469855961, -40148.672777256106, -43253.21832337598, -12328.216413046886, -45658.221323278114, 0.014, 0.784, 0.646, 192.0, 0.0, 0.0, 0.0, 0.0, 0.0, 0.0, 0.0, 0.0, 0.0, 1.6541571271414287E9, 0.0, 2022-06-02 10:05:27.141
198.0, 24567.875214561845, 9409.905601728631, -69261.64111633791, -51466.47858220084, -40142.54839927535, -43244.36703257168, -12323.790767644736, -45648.498314440054, 0.014, 0.784, 0.646, 192.0, 0.0, 0.0, 0.0, 0.0, 0.0, 0.0, 0.0, 0.0, 0.0, 1.654157127141436E9, 0.0, 2022-06-02 10:05:27.141
199.0, 24569.506891907084, 9409.659732539623, -69276.57208163406, -51475.26281777177, -40151.69026275758, -43247.16100062859, -12328.417578746985, -45643.111544026324, 0.014, 0.784, 0.646, 192.0, 0.0, 0.0, 0.0, 0.0, 0.0, 0.0, 0.0, 0.0, 0.0, 1.6541571271414433E9, 0.0, 2022-06-02 10:05:27.141
200.0, 24580.77217111256, 9421.349694889748, -69273.19696822131, -51475.21811428286, -40150.3268063458, -43254.112393154195, -12340.53222424176, -45653.41569822022, 0.014, 0.784, 0.646, 192.0, 0.0, 0.0, 0.0, 0.0, 0.0, 0.0, 0.0, 0.0, 0.0, 1.654157127141451E9, 0.0, 2022-06-02 10:05:27.141
201.0, 24576.324173965953, 9418.086340199274, -69279.25429096869, -51482.638893442025, -40155.04302442587, -43264.32714037027, -12363.241596608354, -45668.25725653854, 0.014, 0.784, 0.646, 192.0, 0.0, 0.0, 0.0, 0.0, 0.0, 0.0, 0.0, 0.0, 0.0, 1.6541571271414595E9, 0.0, 2022-06-02 10:05:27.141
202.0, 24587.63415666034, 9427.742293803965, -69258.95890700328, -51467.43970721242, -40144.113021387224, -43244.8587709497, -12353.138608114554, -45650.46526795212, 0.014, 0.784, 0.646, 192.0, 0.0, 0.0, 0.0, 0.0, 0.0, 0.0, 0.0, 0.0, 0.0, 1.6541571271414664E9, 0.0, 2022-06-02 10:05:27.141
203.0, 24574.267813476064, 9419.941534989064, -69258.66833432535, -51466.03154731173, -40149.90212320115, -43242.82476220426, -12360.268814595798, -45663.89866636976, 0.014, 0.784, 0.646, 192.0, 0.0, 0.0, 0.0, 0.0, 0.0, 0.0, 0.0, 0.0, 0.0, 1.654157127141474E9, 0.0, 2022-06-02 10:05:27.141
204.0, 24570.24449947411, 9418.19809892155, -69269.10659898599, -51468.110259546076, -40149.499791800954, -43246.95983492849, -12336.53126198426, -45670.51478272853, 0.018000000000000002, 0.784, 0.644, 192.0, 0.0, 144.0, 24.0, 128.0, 20.0, 32.0, 0.0, 0.0, 0.0, 1.6541571271414816E9, 0.0, 2022-06-02 10:05:27.141
205.0, 24571.33973495242, 9419.00276172194, -69280.32717470256, -51479.844925385114, -40165.861268742236, -43262.628407791664, -12353.004497647822, -45678.762576432535, 0.018000000000000002, 0.784, 0.644, 192.0, 0.0, 0.0, 0.0, 0.0, 0.0, 0.0, 0.0, 0.0, 0.0, 1.6541571271414888E9, 0.0, 2022-06-02 10:05:27.141
206.0, 24571.47384541915, 9419.092168699763, -69277.57791013455, -51478.90615211799, -40169.54930657736, -43258.47098332298, -12369.83536122267, -45670.06774783942, 0.018000000000000002, 0.784, 0.644, 192.0, 0.0, 0.0, 0.0, 0.0, 0.0, 0.0, 0.0, 0.0, 0.0, 1.654157127141502E9, 0.0, 2022-06-02 10:05:27.141
207.0, 24573.686668120226, 9420.947363489553, -69264.16686346136, -51469.2501985133, -40158.57460004981, -43241.394250559126, -12363.487465797361, -45652.67809065319, 0.018000000000000002, 0.784, 0.644, 192.0, 0.0, 0.0, 0.0, 0.0, 0.0, 0.0, 0.0, 0.0, 0.0, 1.6541571271415095E9, 0.0, 2022-06-02 10:05:27.141
208.0, 24584.348450225407, 9424.590697835767, -69254.68972381232, -51456.62146289605, -40133.02655613739, -43230.330137053745, -12297.1027847651, -45624.246671706045, 0.018000000000000002, 0.784, 0.644, 192.0, 0.0, 0.0, 0.0, 0.0, 0.0, 0.0, 0.0, 0.0, 0.0, 1.6541571271415172E9, 0.0, 2022-06-02 10:05:27.141
209.0, 24580.459246690185, 9420.545032089358, -69276.14739848941, -51472.781774137235, -40148.69512900056, -43247.22805586196, -12327.635267691048, -45657.19314303317, 0.018000000000000002, 0.784, 0.644, 192.0, 0.0, 0.0, 0.0, 0.0, 0.0, 0.0, 0.0, 0.0, 0.0, 1.6541571271415248E9, 0.0, 2022-06-02 10:05:27.141
210.0, 24574.714848365173, 9419.33803788877, -69280.61774738047, -51481.253085285796, -40167.47059434302, -43257.42045133358, -12365.610881520615, -45666.670282682215, 0.018000000000000002, 0.784, 0.644, 192.0, 0.0, 0.0, 0.0, 0.0, 0.0, 0.0, 0.0, 0.0, 0.0, 1.654157127141533E9, 0.0, 2022-06-02 10:05:27.141
211.0, 24574.133703009335, 9416.85699425423, -69275.96858453377, -51476.17923929444, -40162.26263788493, -43262.24842813593, -12343.169730087488, -45671.40885250674, 0.018000000000000002, 0.784, 0.644, 192.0, 0.0, 0.0, 0.0, 0.0, 0.0, 0.0, 0.0, 0.0, 0.0, 1.6541571271415403E9, 0.0, 2022-06-02 10:05:27.141
212.0, 24578.894624578315, 9419.203927422039, -69262.2446134382, -51463.93048333294, -40138.86036144023, -43244.47879129396, -12310.066796549178, -45645.3243667274, 0.018000000000000002, 0.784, 0.644, 192.0, 0.0, 0.0, 0.0, 0.0, 0.0, 0.0, 0.0, 0.0, 0.0, 1.6541571271415477E9, 0.0, 2022-06-02 10:05:27.141
213.0, 24584.66137464778, 9421.729674545488, -69263.0492762386, -51455.861503584565, -40134.345309060256, -43226.7538579409, -12309.418595959974, -45615.864767535306, 0.018000000000000002, 0.784, 0.644, 192.0, 0.0, 0.0, 0.0, 0.0, 0.0, 0.0, 0.0, 0.0, 0.0, 1.6541571271415565E9, 0.0, 2022-06-02 10:05:27.141
214.0, 24581.554482168496, 9424.34482864676, -69269.26306119717, -51458.43195419693, -40134.88175092718, -43228.76551494188, -12321.399130988018, -45627.822950818896, 0.012, 0.776, 0.646, 192.0, 0.0, 96.0, 24.0, 64.0, 20.0, 48.0, 0.0, 0.0, 0.0, 1.6541571271415672E9, 0.0, 2022-06-02 10:05:27.141
215.0, 24573.44079893122, 9416.588773320767, -69281.17654099186, -51473.16175379298, -40153.32194010281, -43256.07934666626, -12361.609919263115, -45667.34083501588, 0.012, 0.776, 0.646, 192.0, 0.0, 0.0, 0.0, 0.0, 0.0, 0.0, 0.0, 0.0, 0.0, 1.6541571271415744E9, 0.0, 2022-06-02 10:05:27.141
216.0, 24572.300859963998, 9418.220450666005, -69277.68966885682, -51473.09469855961, -40159.24515238347, -43262.44959383603, -12368.49425655535, -45680.75188168906, 0.012, 0.776, 0.646, 192.0, 0.0, 0.0, 0.0, 0.0, 0.0, 0.0, 0.0, 0.0, 0.0, 1.6541571271415813E9, 0.0, 2022-06-02 10:05:27.141
217.0, 24566.221185472154, 9420.477976855991, -69271.6546978539, -51470.345433991606, -40163.80490825235, -43262.67311128058, -12364.381535575574, -45685.75867244705, 0.012, 0.776, 0.646, 192.0, 0.0, 0.0, 0.0, 0.0, 0.0, 0.0, 0.0, 0.0, 0.0, 1.6541571271415887E9, 0.0, 2022-06-02 10:05:27.141
218.0, 24565.975316283148, 9420.76854953391, -69269.77715131965, -51464.243407755304, -40157.45701282704, -43257.48750656695, -12336.464206750896, -45671.58766646239, 0.012, 0.776, 0.646, 192.0, 0.0, 0.0, 0.0, 0.0, 0.0, 0.0, 0.0, 0.0, 0.0, 1.654157127141596E9, 0.0, 2022-06-02 10:05:27.141
219.0, 24572.837301830925, 9426.95998274803, -69281.44476192532, -51465.20453276689, -40156.786460493386, -43256.8616577222, -12344.220262076888, -45681.10950960035, 0.012, 0.776, 0.646, 192.0, 0.0, 0.0, 0.0, 0.0, 0.0, 0.0, 0.0, 0.0, 0.0, 1.6541571271416037E9, 0.0, 2022-06-02 10:05:27.141
220.0, 24574.357220453887, 9426.110616458729, -69286.22803523875, -51477.76621315077, -40172.45503335656, -43278.34168414375, -12377.9713962044, -45711.17260589273, 0.012, 0.776, 0.646, 192.0, 0.0, 0.0, 0.0, 0.0, 0.0, 0.0, 0.0, 0.0, 0.0, 1.6541571271416109E9, 0.0, 2022-06-02 10:05:27.141
221.0, 24576.882967577338, 9429.172805449105, -69273.50989264368, -51472.82647762615, -40168.52112633242, -43269.73626252845, -12374.082192669177, -45691.346608560874, 0.012, 0.776, 0.646, 192.0, 0.0, 0.0, 0.0, 0.0, 0.0, 0.0, 0.0, 0.0, 0.0, 1.6541571271416185E9, 0.0, 2022-06-02 10:05:27.141
222.0, 24587.500046193607, 9436.146549719162, -69255.53909010162, -51454.2968814727, -40150.08093715679, -43246.60220701721, -12354.010326148311, -45655.24854126556, 0.012, 0.776, 0.646, 192.0, 0.0, 0.0, 0.0, 0.0, 0.0, 0.0, 0.0, 0.0, 0.0, 1.6541571271416292E9, 0.0, 2022-06-02 10:05:27.141
223.0, 24580.839226345925, 9428.792825793365, -69258.2436511807, -51451.681727371426, -40141.65432949714, -43242.60124475971, -12342.834453920657, -45649.99588131856, 0.012, 0.776, 0.646, 192.0, 0.0, 0.0, 0.0, 0.0, 0.0, 0.0, 0.0, 0.0, 0.0, 1.6541571271416385E9, 0.0, 2022-06-02 10:05:27.141
224.0, 24592.640947418327, 9444.193177723071, -69261.88698552693, -51447.390192436, -40130.59021599176, -43235.091058622726, -12337.112407340099, -45656.477887210596, 0.024, 0.78, 0.654, 192.0, 0.0, 192.0, 24.0, 96.0, 20.0, 112.0, 0.0, 0.0, 0.0, 1.654157127141646E9, 0.0, 2022-06-02 10:05:27.141
225.0, 24589.422296216762, 9439.611070109733, -69267.34081117401, -51462.14234377651, -40147.957521433535, -43252.52541929787, -12362.883968697068, -45673.50991648554, 0.024, 0.78, 0.654, 192.0, 0.0, 0.0, 0.0, 0.0, 0.0, 0.0, 0.0, 0.0, 0.0, 1.6541571271416564E9, 0.0, 2022-06-02 10:05:27.141
226.0, 24585.10840953689, 9430.670372327611, -69259.36123840348, -51458.99074780831, -40143.42011730911, -43252.41366057559, -12344.957869643911, -45665.68680592618, 0.024, 0.78, 0.654, 192.0, 0.0, 0.0, 0.0, 0.0, 0.0, 0.0, 0.0, 0.0, 0.0, 1.654157127141667E9, 0.0, 2022-06-02 10:05:27.141
227.0, 24580.39219145682, 9426.825872281299, -69254.28739241212, -51453.29105297221, -40139.66502424062, -43238.93555866904, -12326.852956635114, -45642.59745390385, 0.024, 0.78, 0.654, 192.0, 0.0, 0.0, 0.0, 0.0, 0.0, 0.0, 0.0, 0.0, 0.0, 1.6541571271416743E9, 0.0, 2022-06-02 10:05:27.141
228.0, 24584.750781625604, 9434.604279351744, -69255.87436626844, -51446.87610231354, -40138.99447190696, -43224.27281430636, -12310.647941905016, -45627.666488607705, 0.024, 0.78, 0.654, 192.0, 0.0, 0.0, 0.0, 0.0, 0.0, 0.0, 0.0, 0.0, 0.0, 1.654157127141682E9, 0.0, 2022-06-02 10:05:27.141
229.0, 24588.57292992746, 9433.218471195516, -69273.37578217695, -51457.44847744089, -40145.34236733227, -43232.431201032545, -12311.363197727585, -45644.027965548994, 0.024, 0.78, 0.654, 192.0, 0.0, 0.0, 0.0, 0.0, 0.0, 0.0, 0.0, 0.0, 0.0, 1.654157127141691E9, 0.0, 2022-06-02 10:05:27.141
230.0, 24583.588490913928, 9429.262212426927, -69281.78003809214, -51469.361957235575, -40159.155745405646, -43245.574026772265, -12329.53516596975, -45651.51579994152, 0.024, 0.78, 0.654, 192.0, 0.0, 0.0, 0.0, 0.0, 0.0, 0.0, 0.0, 0.0, 0.0, 1.6541571271417003E9, 0.0, 2022-06-02 10:05:27.141
231.0, 24581.979165313147, 9423.227241423994, -69279.41075317988, -51471.97711133684, -40160.31803611732, -43247.675090751065, -12342.968564387389, -45651.56050343043, 0.024, 0.78, 0.654, 192.0, 0.0, 0.0, 0.0, 0.0, 0.0, 0.0, 0.0, 0.0, 0.0, 1.654157127141708E9, 0.0, 2022-06-02 10:05:27.141
232.0, 24580.280432734544, 9429.396322893659, -69266.46909314026, -51460.77888736474, -40150.79619297936, -43236.29805282332, -12345.427256277473, -45648.721831884606, 0.024, 0.78, 0.654, 192.0, 0.0, 0.0, 0.0, 0.0, 0.0, 0.0, 0.0, 0.0, 0.0, 1.6541571271417155E9, 0.0, 2022-06-02 10:05:27.141
233.0, 24577.642926888817, 9430.648020583156, -69264.27862218364, -51452.396983194, -40142.436640553075, -43227.26794806337, -12323.254325777809, -45633.63440437728, 0.024, 0.78, 0.654, 192.0, 0.0, 0.0, 0.0, 0.0, 0.0, 0.0, 0.0, 0.0, 0.0, 1.6541571271417255E9, 0.0, 2022-06-02 10:05:27.141
234.0, 24579.609880400883, 9428.05521822634, -69275.23097696673, -51458.92369257494, -40139.32974807379, -43224.116352095174, -12309.1056715376, -45626.5712531294, 0.022, 0.774, 0.646, 192.0, 0.0, 176.0, 24.0, 48.0, 20.0, 48.0, 0.0, 0.0, 0.0, 1.654157127141733E9, 0.0, 2022-06-02 10:05:27.141
235.0, 24587.410639215785, 9435.096017729762, -69280.79656133612, -51464.35516647759, -40142.48134404199, -43227.91614865258, -12312.346674483619, -45623.12908448328, 0.022, 0.774, 0.646, 192.0, 0.0, 0.0, 0.0, 0.0, 0.0, 0.0, 0.0, 0.0, 0.0, 1.6541571271417458E9, 0.0, 2022-06-02 10:05:27.141
236.0, 24585.756610126093, 9433.978430506997, -69269.64304085291, -51465.80802986718, -40139.575617262795, -43232.40884928809, -12323.29902926672, -45633.23207297708, 0.022, 0.774, 0.646, 192.0, 0.0, 0.0, 0.0, 0.0, 0.0, 0.0, 0.0, 0.0, 0.0, 1.6541571271417537E9, 0.0, 2022-06-02 10:05:27.141
237.0, 24568.702229106693, 9422.847261768255, -69268.83837805252, -51471.530076447736, -40142.70486148654, -43240.50018078091, -12333.558479971705, -45650.01823306301, 0.022, 0.774, 0.646, 192.0, 0.0, 0.0, 0.0, 0.0, 0.0, 0.0, 0.0, 0.0, 0.0, 1.6541571271417658E9, 0.0, 2022-06-02 10:05:27.141
238.0, 24577.933499566734, 9429.888061271675, -69260.70234307079, -51453.8945500725, -40137.02751839489, -43228.094962608215, -12334.072570094177, -45640.85401783634, 0.022, 0.774, 0.646, 192.0, 0.0, 0.0, 0.0, 0.0, 0.0, 0.0, 0.0, 0.0, 0.0, 1.6541571271417737E9, 0.0, 2022-06-02 10:05:27.141
239.0, 24576.72650536615, 9422.6237443237, -69279.32134620206, -51465.517457189264, -40154.819506981315, -43240.09784938072, -12357.92188142799, -45669.196029805666, 0.022, 0.774, 0.646, 192.0, 0.0, 0.0, 0.0, 0.0, 0.0, 0.0, 0.0, 0.0, 0.0, 1.654157127141782E9, 0.0, 2022-06-02 10:05:27.141
240.0, 24579.38636295633, 9416.566421576312, -69289.1561137624, -51479.353187007095, -40171.583315322794, -43263.343663614236, -12382.844076495658, -45693.42532079522, 0.022, 0.774, 0.646, 192.0, 0.0, 0.0, 0.0, 0.0, 0.0, 0.0, 0.0, 0.0, 0.0, 1.6541571271417897E9, 0.0, 2022-06-02 10:05:27.141
241.0, 24573.731371609138, 9415.135909931172, -69278.51668340167, -51473.94406484891, -40169.97398972201, -43261.95785545801, -12382.665262540015, -45679.47783225511, 0.022, 0.774, 0.646, 192.0, 0.0, 0.0, 0.0, 0.0, 0.0, 0.0, 0.0, 0.0, 0.0, 1.6541571276209385E9, 0.0, 2022-06-02 10:05:27.620
242.0, 24571.831473330436, 9419.807424522332, -69258.66833432535, -51460.37655596454, -40149.25392261195, -43247.406869817605, -12338.162939329499, -45656.29907325495, 0.022, 0.774, 0.646, 192.0, 0.0, 0.0, 0.0, 0.0, 0.0, 0.0, 0.0, 0.0, 0.0, 1.6541571276210585E9, 0.0, 2022-06-02 10:05:27.621
243.0, 24578.29112747802, 9428.278735670894, -69248.81121502057, -51448.597186636594, -40134.99350964946, -43228.854921919694, -12318.761625142291, -45635.37784044479, 0.022, 0.774, 0.646, 192.0, 0.0, 0.0, 0.0, 0.0, 0.0, 0.0, 0.0, 0.0, 0.0, 1.654157127621081E9, 0.0, 2022-06-02 10:05:27.621
244.0, 24573.61961288686, 9422.780206534888, -69266.08911348452, -51460.73418387582, -40142.436640553075, -43235.35927955619, -12309.060968048689, -45637.16598000121, 0.02, 0.784, 0.648, 192.0, 0.0, 160.0, 24.0, 128.0, 20.0, 64.0, 0.0, 0.0, 0.0, 1.6541571276210878E9, 0.0, 2022-06-02 10:05:27.621
245.0, 24568.925746551246, 9411.939610474064, -69284.30578521559, -51477.65445442849, -40162.88848672968, -43258.53803855635, -12338.900546896524, -45654.19800927616, 0.02, 0.784, 0.648, 192.0, 0.0, 0.0, 0.0, 0.0, 0.0, 0.0, 0.0, 0.0, 0.0, 1.6541571276210935E9, 0.0, 2022-06-02 10:05:27.621
246.0, 24566.75762733908, 9411.33611337377, -69283.07643927056, -51477.27447477275, -40162.776728007404, -43259.6109222902, -12358.458323294917, -45658.33308200039, 0.02, 0.784, 0.648, 192.0, 0.0, 0.0, 0.0, 0.0, 0.0, 0.0, 0.0, 0.0, 0.0, 1.6541571276211002E9, 0.0, 2022-06-02 10:05:27.621
247.0, 24562.130816236833, 9409.257401139426, -69272.5487676321, -51473.98876833782, -40160.09451867277, -43253.24067512044, -12368.49425655535, -45652.29811099746, 0.02, 0.784, 0.648, 192.0, 0.0, 0.0, 0.0, 0.0, 0.0, 0.0, 0.0, 0.0, 0.0, 1.654157127621106E9, 0.0, 2022-06-02 10:05:27.621
248.0, 24576.19006349922, 9421.617915823212, -69256.43315987983, -51458.320195474655, -40143.42011730911, -43240.94721567002, -12337.87236665158, -45655.360299987835, 0.02, 0.784, 0.648, 192.0, 0.0, 0.0, 0.0, 0.0, 0.0, 0.0, 0.0, 0.0, 0.0, 1.654157127621112E9, 0.0, 2022-06-02 10:05:27.621
249.0, 24579.67693563425, 9421.215584423016, -69268.99484026371, -51465.80802986718, -40143.55422777584, -43245.35050932771, -12321.980276343857, -45667.67611118271, 0.02, 0.784, 0.648, 192.0, 0.0, 0.0, 0.0, 0.0, 0.0, 0.0, 0.0, 0.0, 0.0, 1.6541571276211176E9, 0.0, 2022-06-02 10:05:27.621
250.0, 24576.950022810703, 9412.67721804109, -69281.06478226958, -51478.883800373536, -40161.14505066217, -43250.93844544154, -12337.112407340099, -45655.82968662139, 0.02, 0.784, 0.648, 192.0, 0.0, 0.0, 0.0, 0.0, 0.0, 0.0, 0.0, 0.0, 0.0, 1.6541571276211233E9, 0.0, 2022-06-02 10:05:27.621
251.0, 24572.032639030534, 9416.454662854036, -69267.6984390853, -51469.87604735805, -40163.491983829976, -43241.57306451477, -12337.805311418213, -45639.44585793565, 0.02, 0.784, 0.648, 192.0, 0.0, 0.0, 0.0, 0.0, 0.0, 0.0, 0.0, 0.0, 0.0, 1.654157127621129E9, 0.0, 2022-06-02 10:05:27.621
252.0, 24575.832435587938, 9424.568346091311, -69255.91906975735, -51459.214265252864, -40155.35594884824, -43232.297090565815, -12345.337849299653, -45647.76070687303, 0.02, 0.784, 0.648, 192.0, 0.0, 0.0, 0.0, 0.0, 0.0, 0.0, 0.0, 0.0, 0.0, 1.6541571276211345E9, 0.0, 2022-06-02 10:05:27.621
253.0, 24576.950022810703, 9433.374933406703, -69256.343752902, -51457.11320127406, -40145.56588477682, -43229.48077076444, -12353.16095985901, -45658.780116889495, 0.02, 0.784, 0.648, 192.0, 0.0, 0.0, 0.0, 0.0, 0.0, 0.0, 0.0, 0.0, 0.0, 1.6541571276211407E9, 0.0, 2022-06-02 10:05:27.621
254.0, 24572.546729153008, 9427.384665892681, -69283.12114275947, -51470.45719271388, -40163.53668731888, -43243.78588721584, -12362.436933807961, -45680.6848264557, 0.012, 0.776, 0.646, 192.0, 0.0, 96.0, 24.0, 64.0, 20.0, 48.0, 0.0, 0.0, 0.0, 1.6541571276211488E9, 0.0, 2022-06-02 10:05:27.621
255.0, 24575.76538035457, 9425.596526336256, -69289.73725911824, -51483.53296322024, -40173.214992668036, -43257.15223040012, -12360.715849484903, -45682.1823933342, 0.012, 0.776, 0.646, 192.0, 0.0, 0.0, 0.0, 0.0, 0.0, 0.0, 0.0, 0.0, 0.0, 1.6541571276211543E9, 0.0, 2022-06-02 10:05:27.621
0.0, 24572.457322175185, 9423.115482701718, -69284.21637823778, -51483.04122484222, -40171.605667067255, -43258.38157634516, -12361.989898918855, -45672.63819845179, 0.012, 0.776, 0.646, 192.0, 0.0, 0.0, 0.0, 0.0, 0.0, 0.0, 0.0, 0.0, 0.0, 1.65415712762117E9, 0.0, 2022-06-02 10:05:27.621
1.0, 24570.15509249629, 9424.85891876923, -69272.39230542092, -51470.79246888071, -40155.378300592696, -43248.32329134027, -12349.718791212892, -45658.1766197892, 0.012, 0.776, 0.646, 192.0, 0.0, 0.0, 0.0, 0.0, 0.0, 0.0, 0.0, 0.0, 0.0, 1.654157127621176E9, 0.0, 2022-06-02 10:05:27.621
2.0, 24572.792598342014, 9432.81613979532, -69265.7985408066, -51464.265759499765, -40149.52214354541, -43243.696480238024, -12351.685744724959, -45667.78786990498, 0.012, 0.776, 0.646, 192.0, 0.0, 0.0, 0.0, 0.0, 0.0, 0.0, 0.0, 0.0, 0.0, 1.6541571276211812E9, 0.0, 2022-06-02 10:05:27.621
3.0, 24575.787732099026, 9427.295258914859, -69292.9559103198, -51482.638893442025, -40172.432681612096, -43266.85288749372, -12398.333835403186, -45725.9918124666, 0.012, 0.776, 0.646, 192.0, 0.0, 0.0, 0.0, 0.0, 0.0, 0.0, 0.0, 0.0, 0.0, 1.6541571276211863E9, 0.0, 2022-06-02 10:05:27.621
4.0, 24582.850883346902, 9426.132968203185, -69299.6614336564, -51495.04411161472, -40183.16151895065, -43282.85673652372, -12403.273570927808, -45731.4456381137, 0.012, 0.776, 0.646, 192.0, 0.0, 0.0, 0.0, 0.0, 0.0, 0.0, 0.0, 0.0, 0.0, 1.6541571276211915E9, 0.0, 2022-06-02 10:05:27.621
5.0, 24576.145360010312, 9428.144625204162, -69278.80725607958, -51484.13646032053, -40173.32675139031, -43263.70129152552, -12370.215340878409, -45674.13576533029, 0.012, 0.776, 0.646, 192.0, 0.0, 0.0, 0.0, 0.0, 0.0, 0.0, 0.0, 0.0, 0.0, 1.6541571276211965E9, 0.0, 2022-06-02 10:05:27.621
6.0, 24569.596298884906, 9426.490596114469, -69263.76453206116, -51473.56408519317, -40160.832126239795, -43247.00453841741, -12361.967547174401, -45656.63434942179, 0.012, 0.776, 0.646, 192.0, 0.0, 0.0, 0.0, 0.0, 0.0, 0.0, 0.0, 0.0, 0.0, 1.6541571276212018E9, 0.0, 2022-06-02 10:05:27.621
7.0, 24566.779979083538, 9421.327343145293, -69262.71400007176, -51473.22880902634, -40146.95169293305, -43246.26693085038, -12332.82087240468, -45649.3253289849, 0.012, 0.776, 0.646, 192.0, 0.0, 0.0, 0.0, 0.0, 0.0, 0.0, 0.0, 0.0, 0.0, 1.6541571276212068E9, 0.0, 2022-06-02 10:05:27.621
8.0, 24571.8985285638, 9419.226279166494, -69281.66827936987, -51483.46590798687, -40158.529896560896, -43253.195971631525, -12353.406829048017, -45669.330140272396, 0.014, 0.79, 0.654, 192.0, 0.0, 112.0, 24.0, 176.0, 20.0, 112.0, 0.0, 0.0, 0.0, 1.654157127621212E9, 0.0, 2022-06-02 10:05:27.621
9.0, 24573.351391953398, 9416.409959365124, -69292.64298589743, -51493.837117414136, -40165.794213508874, -43266.13763167115, -12352.646869736538, -45673.91224788574, 0.014, 0.79, 0.654, 192.0, 0.0, 0.0, 0.0, 0.0, 0.0, 0.0, 0.0, 0.0, 0.0, 1.6541571276212173E9, 0.0, 2022-06-02 10:05:27.621
10.0, 24568.791636084516, 9416.365255876215, -69278.09200025702, -51485.164640565476, -40163.000245451956, -43251.094907652725, -12343.10267485412, -45643.8715033378, 0.014, 0.79, 0.654, 192.0, 0.0, 0.0, 0.0, 0.0, 0.0, 0.0, 0.0, 0.0, 0.0, 1.6541571276212225E9, 0.0, 2022-06-02 10:05:27.621
11.0, 24563.851900559894, 9413.437177352569, -69272.88404379893, -51480.0013875963, -40162.307341373846, -43240.27666333636, -12344.689648710448, -45640.60814864733, 0.014, 0.79, 0.654, 192.0, 0.0, 0.0, 0.0, 0.0, 0.0, 0.0, 0.0, 0.0, 0.0, 1.6541571276212273E9, 0.0, 2022-06-02 10:05:27.621
12.0, 24560.834415058427, 9407.938648216565, -69277.98024153474, -51479.62140794056, -40162.799079751865, -43244.36703257168, -12347.371858045086, -45656.813163377425, 0.014, 0.79, 0.654, 192.0, 0.0, 0.0, 0.0, 0.0, 0.0, 0.0, 0.0, 0.0, 0.0, 1.6541571276212325E9, 0.0, 2022-06-02 10:05:27.621
13.0, 24570.222147729655, 9418.980409977486, -69283.38936369293, -51478.05678582869, -40162.55321056285, -43238.734392968945, -12354.993802904344, -45664.233942536586, 0.014, 0.79, 0.654, 192.0, 0.0, 0.0, 0.0, 0.0, 0.0, 0.0, 0.0, 0.0, 0.0, 1.6541571276212382E9, 0.0, 2022-06-02 10:05:27.621
14.0, 24568.23284247313, 9415.650000053645, -69295.03462255414, -51493.74771043631, -40179.33937064879, -43256.6604920221, -12388.052032953745, -45691.59247774989, 0.014, 0.79, 0.654, 192.0, 0.0, 0.0, 0.0, 0.0, 0.0, 0.0, 0.0, 0.0, 0.0, 1.6541571276212437E9, 0.0, 2022-06-02 10:05:27.621
15.0, 24570.53507215203, 9420.43327336708, -69282.80821833709, -51485.38815801003, -40170.04104495538, -43250.42435531907, -12376.853808981636, -45676.03566360899, 0.014, 0.79, 0.654, 192.0, 0.0, 0.0, 0.0, 0.0, 0.0, 0.0, 0.0, 0.0, 0.0, 1.6541571276212485E9, 0.0, 2022-06-02 10:05:27.621
16.0, 24570.95975529668, 9426.982334492486, -69262.33402041603, -51467.28324500123, -40147.84576271126, -43229.54782599781, -12336.799482917724, -45626.481846151575, 0.014, 0.79, 0.654, 192.0, 0.0, 0.0, 0.0, 0.0, 0.0, 0.0, 0.0, 0.0, 0.0, 1.6541571276212537E9, 0.0, 2022-06-02 10:05:27.621
17.0, 24570.11038900738, 9425.14949144715, -69265.5526716176, -51469.786640380225, -40152.13729764668, -43236.566273756776, -12339.884023652558, -45647.738355128575, 0.018000000000000002, 0.788, 0.656, 192.0, 0.0, 144.0, 24.0, 160.0, 20.0, 128.0, 0.0, 0.0, 0.0, 1.6541571276212587E9, 0.0, 2022-06-02 10:05:27.621
18.0, 24578.939328067223, 9434.358410162737, -69271.92291878736, -51469.60782642458, -40155.154783148144, -43236.4545150345, -12346.433084777962, -45663.541038458476, 0.018000000000000002, 0.788, 0.656, 192.0, 0.0, 0.0, 0.0, 0.0, 0.0, 0.0, 0.0, 0.0, 0.0, 1.654157127621264E9, 0.0, 2022-06-02 10:05:27.621
19.0, 24574.2007582427, 9427.786997292877, -69285.93746256083, -51490.21613481238, -40171.98564672299, -43265.355320615214, -12363.979204175379, -45687.166832347735, 0.018000000000000002, 0.788, 0.656, 192.0, 0.0, 0.0, 0.0, 0.0, 0.0, 0.0, 0.0, 0.0, 0.0, 1.6541571276212692E9, 0.0, 2022-06-02 10:05:27.621
20.0, 24586.09188629292, 9437.554709619846, -69266.6479070959, -51482.41537599747, -40165.14601291967, -43261.734338013455, -12357.49719828334, -45667.76551816053, 0.018000000000000002, 0.788, 0.656, 192.0, 0.0, 0.0, 0.0, 0.0, 0.0, 0.0, 0.0, 0.0, 0.0, 1.6541571276212745E9, 0.0, 2022-06-02 10:05:27.621
21.0, 24583.767304869572, 9437.286488686383, -69253.95211624529, -51474.748727649305, -40153.67956801409, -43248.859733207195, -12332.843224149135, -45638.8200090909, 0.018000000000000002, 0.788, 0.656, 192.0, 0.0, 0.0, 0.0, 0.0, 0.0, 0.0, 0.0, 0.0, 0.0, 1.6541571276212797E9, 0.0, 2022-06-02 10:05:27.621
22.0, 24595.94900559771, 9449.87052081472, -69236.02601719213, -51460.063631542165, -40137.832181195285, -43234.822837689266, -12321.488537965839, -45629.901663053235, 0.018000000000000002, 0.788, 0.656, 192.0, 0.0, 0.0, 0.0, 0.0, 0.0, 0.0, 0.0, 0.0, 0.0, 1.6541571276212866E9, 0.0, 2022-06-02 10:05:27.621
23.0, 24590.651642161803, 9443.880253300698, -69264.16686346136, -51474.77107939376, -40159.80394599485, -43255.96758794398, -12361.341698329652, -45677.66734095423, 0.018000000000000002, 0.788, 0.656, 192.0, 0.0, 0.0, 0.0, 0.0, 0.0, 0.0, 0.0, 0.0, 0.0, 1.654157127621292E9, 0.0, 2022-06-02 10:05:27.621
24.0, 24581.688592635226, 9435.699514830056, -69282.62940438144, -51492.76423368028, -40173.214992668036, -43282.834384779264, -12381.346509617151, -45707.55162329097, 0.018000000000000002, 0.788, 0.656, 192.0, 0.0, 0.0, 0.0, 0.0, 0.0, 0.0, 0.0, 0.0, 0.0, 1.6541571276212971E9, 0.0, 2022-06-02 10:05:27.621
25.0, 24574.02194428706, 9433.53139561789, -69267.81019780757, -51488.159774322485, -40165.21306815303, -43273.111375941204, -12353.58564300366, -45673.71108218564, 0.018000000000000002, 0.788, 0.656, 192.0, 0.0, 0.0, 0.0, 0.0, 0.0, 0.0, 0.0, 0.0, 0.0, 1.6541571276213028E9, 0.0, 2022-06-02 10:05:27.621
26.0, 24574.513682665074, 9435.25247994095, -69252.85688076698, -51472.06651831466, -40158.41813783862, -43249.03854716284, -12350.836378435657, -45644.4750004381, 0.018000000000000002, 0.788, 0.656, 192.0, 0.0, 0.0, 0.0, 0.0, 0.0, 0.0, 0.0, 0.0, 0.0, 1.654157127621308E9, 0.0, 2022-06-02 10:05:27.621
27.0, 24574.603089642897, 9428.099921715251, -69255.02499997914, -51469.786640380225, -40152.13729764668, -43246.982186672954, -12340.331058541664, -45641.47986668109, 0.018000000000000002, 0.776, 0.654, 192.0, 0.0, 144.0, 24.0, 64.0, 20.0, 112.0, 0.0, 0.0, 0.0, 1.654157127621313E9, 0.0, 2022-06-02 10:05:27.621
28.0, 24564.254231960087, 9416.186441920572, -69281.98120379224, -51488.07036734466, -40160.966236706525, -43258.20276238951, -12349.048238879233, -45662.08817506888, 0.018000000000000002, 0.776, 0.654, 192.0, 0.0, 0.0, 0.0, 0.0, 0.0, 0.0, 0.0, 0.0, 0.0, 1.6541571276213183E9, 0.0, 2022-06-02 10:05:27.621
29.0, 24549.211507941665, 9402.66363652511, -69307.19397153782, -51511.092664133634, -40190.24702194298, -43285.717759814, -12391.203628921941, -45688.55264050396, 0.018000000000000002, 0.776, 0.654, 192.0, 0.0, 0.0, 0.0, 0.0, 0.0, 0.0, 0.0, 0.0, 0.0, 1.654157127621324E9, 0.0, 2022-06-02 10:05:27.621
30.0, 24565.9976680276, 9419.047465210851, -69275.27568045566, -51489.14325107852, -40163.60374255225, -43269.982131717465, -12357.050163394233, -45663.6304454363, 0.018000000000000002, 0.776, 0.654, 192.0, 0.0, 0.0, 0.0, 0.0, 0.0, 0.0, 0.0, 0.0, 0.0, 1.6541571276213293E9, 0.0, 2022-06-02 10:05:27.621
31.0, 24575.787732099026, 9432.659677584134, -69248.18536617582, -51469.67488165795, -40142.101364386246, -43253.195971631525, -12346.63425047806, -45658.95893084514, 0.018000000000000002, 0.776, 0.654, 192.0, 0.0, 0.0, 0.0, 0.0, 0.0, 0.0, 0.0, 0.0, 0.0, 1.6541571276213343E9, 0.0, 2022-06-02 10:05:27.621
32.0, 24571.831473330436, 9427.094093214762, -69259.47299712575, -51474.681672415936, -40148.09163190027, -43254.33591059875, -12364.046259408744, -45666.15619255974, 0.018000000000000002, 0.776, 0.654, 192.0, 0.0, 0.0, 0.0, 0.0, 0.0, 0.0, 0.0, 0.0, 0.0, 1.6541571276213396E9, 0.0, 2022-06-02 10:05:27.621
33.0, 24575.988897799125, 9421.170880934105, -69274.31455544407, -51488.33858827813, -40148.06928015581, -43259.38740484565, -12341.895680653535, -45667.25142803806, 0.018000000000000002, 0.776, 0.654, 192.0, 0.0, 0.0, 0.0, 0.0, 0.0, 0.0, 0.0, 0.0, 0.0, 1.6541571276213446E9, 0.0, 2022-06-02 10:05:27.621
34.0, 24575.698325121204, 9419.6733140556, -69275.63330836693, -51503.71658846338, -40163.201411152055, -43276.955875987514, -12354.591471504149, -45675.40981476424, 0.018000000000000002, 0.776, 0.654, 192.0, 0.0, 0.0, 0.0, 0.0, 0.0, 0.0, 0.0, 0.0, 0.0, 1.6541571276213498E9, 0.0, 2022-06-02 10:05:27.621
35.0, 24564.298935449, 9421.707322801032, -69270.58181412004, -51499.693274461424, -40159.1780971501, -43278.09581495474, -12346.58954698915, -45664.14453555877, 0.018000000000000002, 0.776, 0.654, 192.0, 0.0, 0.0, 0.0, 0.0, 0.0, 0.0, 0.0, 0.0, 0.0, 1.654157127621355E9, 0.0, 2022-06-02 10:05:27.621
36.0, 24564.9471360382, 9423.517814101913, -69257.26017442468, -51489.54558247871, -40140.17911436309, -43263.813050247794, -12330.1610148145, -45638.88706432427, 0.018000000000000002, 0.776, 0.654, 192.0, 0.0, 0.0, 0.0, 0.0, 0.0, 0.0, 0.0, 0.0, 0.0, 1.65415712762136E9, 0.0, 2022-06-02 10:05:27.621
37.0, 24567.048200017, 9421.439101867569, -69257.26017442468, -51489.29971328971, -40143.44246905357, -43260.6614542796, -12345.024924877278, -45645.45847719413, 0.02, 0.776, 0.652, 192.0, 0.0, 160.0, 24.0, 64.0, 20.0, 96.0, 0.0, 0.0, 0.0, 1.6541571276213653E9, 0.0, 2022-06-02 10:05:27.621
38.0, 24572.546729153008, 9421.170880934105, -69277.1532269899, -51500.676751217456, -40166.062434442334, -43277.581724832264, -12396.992730735867, -45693.35826556185, 0.02, 0.776, 0.652, 192.0, 0.0, 0.0, 0.0, 0.0, 0.0, 0.0, 0.0, 0.0, 0.0, 1.6541571276213703E9, 0.0, 2022-06-02 10:05:27.621
39.0, 24577.933499566734, 9426.222375181005, -69279.20958747978, -51505.4600245309, -40168.14114667668, -43290.47868138298, -12383.0228904513, -45699.08031214241, 0.02, 0.776, 0.652, 192.0, 0.0, 0.0, 0.0, 0.0, 0.0, 0.0, 0.0, 0.0, 0.0, 1.6541571276213758E9, 0.0, 2022-06-02 10:05:27.621
40.0, 24570.400961685296, 9422.847261768255, -69270.6041658645, -51500.47558551736, -40161.9273617181, -43286.18714644756, -12358.480675039373, -45670.82770715091, 0.02, 0.776, 0.652, 192.0, 0.0, 0.0, 0.0, 0.0, 0.0, 0.0, 0.0, 0.0, 0.0, 1.654157127621381E9, 0.0, 2022-06-02 10:05:27.621
41.0, 24578.224072244655, 9432.078532228295, -69250.50994759917, -51485.85754464359, -40141.36375681922, -43266.405852604614, -12340.643982964039, -45644.9220353272, 0.02, 0.776, 0.652, 192.0, 0.0, 0.0, 0.0, 0.0, 0.0, 0.0, 0.0, 0.0, 0.0, 1.654157127621386E9, 0.0, 2022-06-02 10:05:27.621
42.0, 24577.28529897753, 9430.58096534979, -69249.14649118739, -51486.43868999943, -40137.273387583904, -43265.42237584858, -12337.559442229205, -45660.00946283453, 0.02, 0.776, 0.652, 192.0, 0.0, 0.0, 0.0, 0.0, 0.0, 0.0, 0.0, 0.0, 0.0, 1.6541571276213913E9, 0.0, 2022-06-02 10:05:27.621
43.0, 24574.223109987153, 9418.667485555112, -69277.8014275791, -51500.0061988838, -40160.94388496207, -43275.83828876475, -12363.085134397166, -45680.77423343351, 0.02, 0.776, 0.652, 192.0, 0.0, 0.0, 0.0, 0.0, 0.0, 0.0, 0.0, 0.0, 0.0, 1.6541571276213987E9, 0.0, 2022-06-02 10:05:27.621
44.0, 24579.52047342306, 9415.53824133137, -69287.92676781735, -51510.80209145571, -40177.35006539227, -43286.90240227013, -12381.279454383786, -45683.2329253236, 0.02, 0.776, 0.652, 192.0, 0.0, 0.0, 0.0, 0.0, 0.0, 0.0, 0.0, 0.0, 0.0, 1.6541571276214037E9, 0.0, 2022-06-02 10:05:27.621
45.0, 24573.82077858696, 9416.409959365124, -69271.98997402072, -51507.13640536504, -40169.571658321816, -43292.17741396158, -12364.49329429785, -45685.02106488003, 0.02, 0.776, 0.652, 192.0, 0.0, 0.0, 0.0, 0.0, 0.0, 0.0, 0.0, 0.0, 0.0, 1.6541571276214087E9, 0.0, 2022-06-02 10:05:27.621
46.0, 24577.039429788525, 9424.255421668939, -69252.61101157797, -51486.32693127715, -40153.65721626964, -43271.032663706865, -12352.132779614065, -45664.792736147974, 0.02, 0.776, 0.652, 192.0, 0.0, 0.0, 0.0, 0.0, 0.0, 0.0, 0.0, 0.0, 0.0, 1.654157127621414E9, 0.0, 2022-06-02 10:05:27.621
47.0, 24568.948098295703, 9415.068854697807, -69262.11050297148, -51493.07715810266, -40162.10617567375, -43274.40777711961, -12376.876160726091, -45676.97443687612, 0.022, 0.78, 0.65, 192.0, 0.0, 176.0, 24.0, 96.0, 20.0, 80.0, 0.0, 0.0, 0.0, 1.6541571276214192E9, 0.0, 2022-06-02 10:05:27.621
48.0, 24562.644906359306, 9412.118424429706, -69274.18044497735, -51501.36965529557, -40171.583315322794, -43277.84994576573, -12376.11620141461, -45680.595419477875, 0.022, 0.78, 0.65, 192.0, 0.0, 0.0, 0.0, 0.0, 0.0, 0.0, 0.0, 0.0, 0.0, 1.6541571276214244E9, 0.0, 2022-06-02 10:05:27.621
49.0, 24566.645868616804, 9410.352636617738, -69287.43502943934, -51510.42211179997, -40174.91372524664, -43289.58461160477, -12367.35431758813, -45680.90834390025, 0.022, 0.78, 0.65, 192.0, 0.0, 0.0, 0.0, 0.0, 0.0, 0.0, 0.0, 0.0, 0.0, 1.6541571276214297E9, 0.0, 2022-06-02 10:05:27.621
50.0, 24570.423313429754, 9414.979447719985, -69281.28829971413, -51499.693274461424, -40165.74951001996, -43283.683751068565, -12366.616710021104, -45679.8801636553, 0.022, 0.78, 0.65, 192.0, 0.0, 0.0, 0.0, 0.0, 0.0, 0.0, 0.0, 0.0, 0.0, 1.654157127621435E9, 0.0, 2022-06-02 10:05:27.621
51.0, 24579.788694356525, 9428.546956604358, -69250.86757551046, -51477.76621315077, -40139.70972772953, -43259.90149496812, -12335.860709650602, -45658.10956455584, 0.022, 0.78, 0.65, 192.0, 0.0, 0.0, 0.0, 0.0, 0.0, 0.0, 0.0, 0.0, 0.0, 1.6541571276214402E9, 0.0, 2022-06-02 10:05:27.621
52.0, 24581.554482168496, 9433.218471195516, -69244.60908706297, -51466.59034092312, -40127.215102579015, -43237.058012134796, -12317.15229954151, -45626.12421824029, 0.022, 0.78, 0.65, 192.0, 0.0, 0.0, 0.0, 0.0, 0.0, 0.0, 0.0, 0.0, 0.0, 1.6541571276214454E9, 0.0, 2022-06-02 10:05:27.621
53.0, 24571.317383207963, 9423.070779212807, -69271.92291878736, -51485.34345452112, -40144.56005627633, -43249.26206460739, -12335.056046850212, -45652.40986971973, 0.022, 0.78, 0.65, 192.0, 0.0, 0.0, 0.0, 0.0, 0.0, 0.0, 0.0, 0.0, 0.0, 1.654157127621451E9, 0.0, 2022-06-02 10:05:27.621
54.0, 24573.709019864684, 9417.10286344324, -69286.33979396103, -51501.01202738429, -40159.04398668337, -43269.13276542816, -12352.244538336343, -45676.683864198196, 0.022, 0.78, 0.65, 192.0, 0.0, 0.0, 0.0, 0.0, 0.0, 0.0, 0.0, 0.0, 0.0, 1.654157127621456E9, 0.0, 2022-06-02 10:05:27.621
55.0, 24575.273641976553, 9422.556689090336, -69271.6546978539, -51490.059672601186, -40153.74662324746, -43260.974378701976, -12351.059895880211, -45660.34473900137, 0.022, 0.78, 0.65, 192.0, 0.0, 0.0, 0.0, 0.0, 0.0, 0.0, 0.0, 0.0, 0.0, 1.6541571276214612E9, 0.0, 2022-06-02 10:05:27.621
56.0, 24563.851900559894, 9416.879345998686, -69267.56432861857, -51488.942085378425, -40153.2772366139, -43260.21441939049, -12347.997706889833, -45656.20966627714, 0.022, 0.78, 0.65, 192.0, 0.0, 0.0, 0.0, 0.0, 0.0, 0.0, 0.0, 0.0, 0.0, 1.6541571276214664E9, 0.0, 2022-06-02 10:05:27.621
57.0, 24557.593412112405, 9413.973619219496, -69267.4972733852, -51487.98096036685, -40153.36664359172, -43260.34852985723, -12356.804294205225, -45666.35735825984, 0.022, 0.782, 0.646, 192.0, 0.0, 176.0, 24.0, 112.0, 20.0, 48.0, 0.0, 0.0, 0.0, 1.6541571276214716E9, 0.0, 2022-06-02 10:05:27.621
58.0, 24555.559403366973, 9415.135909931172, -69275.56625313357, -51489.41147201198, -40156.58529479329, -43256.28051236636, -12380.899474728045, -45677.26500955403, 0.022, 0.782, 0.646, 192.0, 0.0, 0.0, 0.0, 0.0, 0.0, 0.0, 0.0, 0.0, 0.0, 1.654157127621477E9, 0.0, 2022-06-02 10:05:27.621
59.0, 24555.00060975559, 9409.793843006355, -69282.20472123679, -51498.62039072757, -40162.35204486275, -43265.13180317066, -12363.800390219736, -45666.89380012677, 0.022, 0.782, 0.646, 192.0, 0.0, 0.0, 0.0, 0.0, 0.0, 0.0, 0.0, 0.0, 0.0, 1.6541571276214821E9, 0.0, 2022-06-02 10:05:27.621
60.0, 24547.579830596427, 9408.609200550223, -69269.41952340836, -51493.52419299176, -40149.90212320115, -43261.55552405781, -12327.67997117996, -45645.5255324275, 0.022, 0.782, 0.646, 192.0, 0.0, 0.0, 0.0, 0.0, 0.0, 0.0, 0.0, 0.0, 0.0, 1.6541571276214874E9, 0.0, 2022-06-02 10:05:27.621
61.0, 24521.405937839263, 9378.724918213478, -69273.37578217695, -51501.21319308438, -40156.004149437445, -43269.557448572814, -12347.125988856076, -45664.50216347005, 0.022, 0.782, 0.646, 192.0, 0.0, 0.0, 0.0, 0.0, 0.0, 0.0, 0.0, 0.0, 0.0, 1.6541571276214926E9, 0.0, 2022-06-02 10:05:27.621
62.0, 24511.28059760101, 9363.011641861396, -69269.53128213064, -51496.87695466006, -40156.60764653774, -43262.628407791664, -12382.285282884275, -45675.58862871989, 0.022, 0.782, 0.646, 192.0, 0.0, 0.0, 0.0, 0.0, 0.0, 0.0, 0.0, 0.0, 0.0, 1.6541571276214976E9, 0.0, 2022-06-02 10:05:27.621
63.0, 24492.013393880534, 9342.828016618254, -69287.41267769488, -51505.68354197545, -40172.18681242309, -43267.523439827375, -12416.148175734064, -45695.32521907392, 0.022, 0.782, 0.646, 192.0, 0.0, 0.0, 0.0, 0.0, 0.0, 0.0, 0.0, 0.0, 0.0, 1.654157127621503E9, 0.0, 2022-06-02 10:05:27.621
64.0, 24469.79575989196, 9313.502527892892, -69291.65950914139, -51515.1606816245, -40159.75924250594, -43274.07250095278, -12341.87332890908, -45659.18244828969, 0.022, 0.782, 0.646, 192.0, 0.0, 0.0, 0.0, 0.0, 0.0, 0.0, 0.0, 0.0, 0.0, 1.65415712762151E9, 0.0, 2022-06-02 10:05:27.621
65.0, 24443.84538457935, 9270.520123305336, -69280.93067180284, -51519.04988515972, -40151.08676565728, -43277.26880040989, -12328.261116535798, -45663.13870705828, 0.022, 0.782, 0.646, 192.0, 0.0, 0.0, 0.0, 0.0, 0.0, 0.0, 0.0, 0.0, 0.0, 1.6541571276215155E9, 0.0, 2022-06-02 10:05:27.621
66.0, 24416.509201110508, 9242.35692529165, -69275.07451475556, -51520.07806540467, -40149.05275691185, -43274.65364630862, -12347.39420978954, -45671.90059088476, 0.022, 0.782, 0.646, 192.0, 0.0, 0.0, 0.0, 0.0, 0.0, 0.0, 0.0, 0.0, 0.0, 1.6541571276215205E9, 0.0, 2022-06-02 10:05:27.621
67.0, 24401.332366625353, 9226.710704172934, -69268.41369490787, -51514.24426010183, -40134.837047438275, -43258.33687285625, -12328.708151424904, -45645.302014982946, 0.024, 0.784, 0.644, 192.0, 0.0, 192.0, 24.0, 128.0, 20.0, 32.0, 0.0, 0.0, 0.0, 1.6541571276215258E9, 0.0, 2022-06-02 10:05:27.621
68.0, 24357.053560859393, 9164.841075520644, -69282.96468054828, -51516.8594142031, -40141.0731841413, -43257.08517516675, -12341.515700997794, -45662.04347157997, 0.024, 0.784, 0.644, 192.0, 0.0, 0.0, 0.0, 0.0, 0.0, 0.0, 0.0, 0.0, 0.0, 1.6541571276215312E9, 0.0, 2022-06-02 10:05:27.621
69.0, 24312.32772020432, 9111.778034183746, -69307.6633581714, -51539.479379591874, -40166.10713793125, -43287.08121622577, -12397.26095166933, -45714.88299547231, 0.024, 0.784, 0.644, 192.0, 0.0, 0.0, 0.0, 0.0, 0.0, 0.0, 0.0, 0.0, 0.0, 1.6541571276215365E9, 0.0, 2022-06-02 10:05:27.621
70.0, 24276.4308186091, 9075.992891310798, -69300.1531720344, -51537.28890863525, -40161.86030648474, -43287.6176580927, -12395.137535946076, -45721.36500136436, 0.024, 0.784, 0.644, 192.0, 0.0, 0.0, 0.0, 0.0, 0.0, 0.0, 0.0, 0.0, 0.0, 1.6541571276215415E9, 0.0, 2022-06-02 10:05:27.621
71.0, 24228.441623263556, 9033.479873356804, -69296.7557068772, -51536.79717025723, -40155.579466292795, -43271.54675382933, -12370.103582156133, -45674.42633800821, 0.024, 0.784, 0.644, 192.0, 0.0, 0.0, 0.0, 0.0, 0.0, 0.0, 0.0, 0.0, 0.0, 1.654157127621547E9, 0.0, 2022-06-02 10:05:27.621
72.0, 24217.37750975818, 9018.347742360562, -69291.79361960813, -51526.336553852154, -40143.978910920494, -43250.29024485234, -12325.19892754542, -45628.024116518995, 0.024, 0.784, 0.644, 192.0, 0.0, 0.0, 0.0, 0.0, 0.0, 0.0, 0.0, 0.0, 0.0, 1.6541571276215522E9, 0.0, 2022-06-02 10:05:27.621
73.0, 24182.03940177434, 8995.481907782783, -69315.08413733056, -51542.38510637106, -40158.55224830535, -43262.09196592474, -12336.419503261985, -45653.01336682002, 0.024, 0.784, 0.644, 192.0, 0.0, 0.0, 0.0, 0.0, 0.0, 0.0, 0.0, 0.0, 0.0, 1.6541571276215575E9, 0.0, 2022-06-02 10:05:27.621
74.0, 24153.384465382635, 8968.458648736316, -69325.58945722455, -51547.28013840677, -40173.46086185704, -43276.91117249861, -12367.376669332585, -45675.208649064145, 0.024, 0.784, 0.644, 192.0, 0.0, 0.0, 0.0, 0.0, 0.0, 0.0, 0.0, 0.0, 0.0, 1.6541571276215627E9, 0.0, 2022-06-02 10:05:27.621
75.0, 24143.236773399924, 8959.674413165381, -69313.22894254077, -51536.79717025723, -40172.72325429002, -43276.262971909404, -12395.875143513102, -45688.485585270595, 0.024, 0.784, 0.644, 192.0, 0.0, 0.0, 0.0, 0.0, 0.0, 0.0, 0.0, 0.0, 0.0, 1.654157127621568E9, 0.0, 2022-06-02 10:05:27.621
76.0, 24127.76936623685, 8944.072895535577, -69309.54090470563, -51537.22185340188, -40173.66202755714, -43280.04041672235, -12424.708893860448, -45716.46996932864, 0.024, 0.784, 0.644, 192.0, 0.0, 0.0, 0.0, 0.0, 0.0, 0.0, 0.0, 0.0, 0.0, 1.6541571276215732E9, 0.0, 2022-06-02 10:05:27.621
77.0, 24097.90743564456, 8913.182784698341, -69321.92377113388, -51550.29762390824, -40168.96816122153, -43290.94806801654, -12397.752690047348, -45717.83342574041, 0.018000000000000002, 0.786, 0.646, 192.0, 0.0, 144.0, 24.0, 144.0, 20.0, 48.0, 0.0, 0.0, 0.0, 1.6541571276215785E9, 0.0, 2022-06-02 10:05:27.621
78.0, 24099.71792694544, 8909.114767207477, -69321.27557054468, -51541.647498804035, -40149.6786057566, -43272.910210241105, -12349.24940457933, -45690.89957367177, 0.018000000000000002, 0.786, 0.646, 192.0, 0.0, 0.0, 0.0, 0.0, 0.0, 0.0, 0.0, 0.0, 0.0, 1.6541571276215837E9, 0.0, 2022-06-02 10:05:27.621
79.0, 24093.280624542313, 8900.308179892085, -69333.34551255054, -51549.15768494102, -40162.86613498523, -43270.09389043974, -12363.241596608354, -45691.86069868335, 0.018000000000000002, 0.786, 0.646, 192.0, 0.0, 0.0, 0.0, 0.0, 0.0, 0.0, 0.0, 0.0, 0.0, 1.6541571276215887E9, 0.0, 2022-06-02 10:05:27.621
80.0, 24075.041601066783, 8884.70666226228, -69329.76923343769, -51550.58819658616, -40164.16253616363, -43271.39029161815, -12345.9636981444, -45661.59643669086, 0.018000000000000002, 0.786, 0.646, 192.0, 0.0, 0.0, 0.0, 0.0, 0.0, 0.0, 0.0, 0.0, 0.0, 1.654157127621594E9, 0.0, 2022-06-02 10:05:27.621
81.0, 24070.928880087005, 8878.068194159056, -69317.09579433153, -51540.12758018108, -40155.154783148144, -43260.59439904623, -12336.285392795253, -45645.03379404948, 0.018000000000000002, 0.786, 0.646, 192.0, 0.0, 0.0, 0.0, 0.0, 0.0, 0.0, 0.0, 0.0, 0.0, 1.6541571276215992E9, 0.0, 2022-06-02 10:05:27.621
82.0, 24060.065932281726, 8865.528865519627, -69326.52823049168, -51548.30831865172, -40156.495887815465, -43265.355320615214, -12329.266945036286, -45658.66835816722, 0.018000000000000002, 0.786, 0.646, 192.0, 0.0, 0.0, 0.0, 0.0, 0.0, 0.0, 0.0, 0.0, 0.0, 1.6541571276216044E9, 0.0, 2022-06-02 10:05:27.621
83.0, 24067.24084225188, 8871.787353967113, -69338.39700679744, -51550.83406577517, -40164.251943141455, -43262.27077988038, -12339.749913185826, -45659.11539305632, 0.018000000000000002, 0.786, 0.646, 192.0, 0.0, 0.0, 0.0, 0.0, 0.0, 0.0, 0.0, 0.0, 0.0, 1.6541571276216097E9, 0.0, 2022-06-02 10:05:27.621
84.0, 24072.80642662125, 8876.503572047182, -69349.17054762489, -51558.52306586779, -40176.56775433633, -43270.049186950826, -12368.985994933368, -45660.74707040156, 0.018000000000000002, 0.786, 0.646, 192.0, 0.0, 0.0, 0.0, 0.0, 0.0, 0.0, 0.0, 0.0, 0.0, 1.6541571276216147E9, 0.0, 2022-06-02 10:05:27.621
85.0, 24079.24372902438, 8878.895208703902, -69334.53015500667, -51551.8175425312, -40163.24611464097, -43272.8655067522, -12372.87519846859, -45661.641140179774, 0.018000000000000002, 0.786, 0.646, 192.0, 0.0, 0.0, 0.0, 0.0, 0.0, 0.0, 0.0, 0.0, 0.0, 1.65415712762162E9, 0.0, 2022-06-02 10:05:27.621
86.0, 24084.094057571183, 8881.040976171611, -69317.83340189856, -51547.77187678479, -40143.66598649812, -43269.3115793838, -12341.49334925334, -45650.80054411895, 0.018000000000000002, 0.786, 0.646, 192.0, 0.0, 0.0, 0.0, 0.0, 0.0, 0.0, 0.0, 0.0, 0.0, 1.654157127621627E9, 0.0, 2022-06-02 10:05:27.621
87.0, 24094.24174955389, 8887.634740785927, -69319.55448622162, -51545.15672268352, -40142.81662020882, -43265.04239619284, -12352.423352291984, -45648.61007316233, 0.016, 0.778, 0.644, 192.0, 0.0, 128.0, 24.0, 80.0, 20.0, 32.0, 0.0, 0.0, 0.0, 1.654157127621632E9, 0.0, 2022-06-02 10:05:27.621
88.0, 24104.814124681252, 8908.533621851639, -69335.64774222944, -51548.285966907264, -40163.08965242978, -43266.02587294887, -12396.948027246955, -45683.07646311241, 0.016, 0.778, 0.644, 192.0, 0.0, 0.0, 0.0, 0.0, 0.0, 0.0, 0.0, 0.0, 0.0, 1.654157127621637E9, 0.0, 2022-06-02 10:05:27.621
89.0, 24119.16394462156, 8921.877613291457, -69352.7691784822, -51564.513333381816, -40176.076015958315, -43288.73524531547, -12398.266780169819, -45707.797492479986, 0.016, 0.778, 0.644, 192.0, 0.0, 0.0, 0.0, 0.0, 0.0, 0.0, 0.0, 0.0, 0.0, 1.6541571276216424E9, 0.0, 2022-06-02 10:05:27.621
90.0, 24129.289284859813, 8926.169148226876, -69344.78960571166, -51565.54151362676, -40167.91762923213, -43288.645838337645, -12383.581684062683, -45695.50403302957, 0.016, 0.778, 0.644, 192.0, 0.0, 0.0, 0.0, 0.0, 0.0, 0.0, 0.0, 0.0, 0.0, 1.6541571276216476E9, 0.0, 2022-06-02 10:05:27.621
91.0, 24142.879145488638, 8937.680296621358, -69327.22113456979, -51556.48905712236, -40155.42300408161, -43278.09581495474, -12353.16095985901, -45675.09689034187, 0.016, 0.778, 0.644, 192.0, 0.0, 0.0, 0.0, 0.0, 0.0, 0.0, 0.0, 0.0, 0.0, 1.6541571276216528E9, 0.0, 2022-06-02 10:05:27.621
92.0, 24153.719741549463, 8949.996107816232, -69327.77992818117, -51553.180998942975, -40159.20044889456, -43275.74888178693, -12346.343677800141, -45666.536172215485, 0.016, 0.778, 0.644, 192.0, 0.0, 0.0, 0.0, 0.0, 0.0, 0.0, 0.0, 0.0, 0.0, 1.654157127621658E9, 0.0, 2022-06-02 10:05:27.621
93.0, 24178.463122661487, 8968.637462691959, -69331.60207648303, -51548.06244946271, -40164.31899837482, -43268.641027050144, -12340.085189352654, -45675.85684965335, 0.016, 0.778, 0.644, 192.0, 0.0, 0.0, 0.0, 0.0, 0.0, 0.0, 0.0, 0.0, 0.0, 1.654157127621663E9, 0.0, 2022-06-02 10:05:27.621
94.0, 24202.155971784112, 8989.73750945777, -69342.12974812147, -51554.499751865835, -40189.33060042031, -43286.544774358845, -12398.177373191998, -45703.64006801129, 0.016, 0.778, 0.644, 192.0, 0.0, 0.0, 0.0, 0.0, 0.0, 0.0, 0.0, 0.0, 0.0, 1.6541571276216705E9, 0.0, 2022-06-02 10:05:27.621
95.0, 24218.56215221431, 9007.261277110729, -69340.22984984277, -51558.09838272314, -40191.789292310394, -43294.166719218105, -12390.287207399275, -45703.438902311194, 0.016, 0.778, 0.644, 192.0, 0.0, 0.0, 0.0, 0.0, 0.0, 0.0, 0.0, 0.0, 0.0, 1.6541571276216757E9, 0.0, 2022-06-02 10:05:27.621
96.0, 24246.211260105523, 9037.346725147572, -69316.60405595352, -51543.36858312709, -40167.80587050985, -43281.53798360086, -12378.172561904497, -45682.49531775658, 0.016, 0.778, 0.644, 192.0, 0.0, 0.0, 0.0, 0.0, 0.0, 0.0, 0.0, 0.0, 0.0, 1.6541571276216807E9, 0.0, 2022-06-02 10:05:27.621
97.0, 24260.650487023653, 9066.359289450562, -69304.5564656921, -51533.399705100026, -40153.836030225284, -43273.64781780813, -12355.306727326719, -45684.52932650201, 0.018000000000000002, 0.776, 0.646, 192.0, 0.0, 144.0, 24.0, 64.0, 20.0, 48.0, 0.0, 0.0, 0.0, 1.654157127621686E9, 0.0, 2022-06-02 10:05:27.621
98.0, 24275.648507553164, 9090.253304273285, -69316.84992514252, -51531.20923414341, -40163.60374255225, -43270.47387009548, -12362.995727419344, -45683.881125912805, 0.018000000000000002, 0.776, 0.646, 192.0, 0.0, 0.0, 0.0, 0.0, 0.0, 0.0, 0.0, 0.0, 0.0, 1.6541571276216912E9, 0.0, 2022-06-02 10:05:27.621
99.0, 24298.62610085322, 9110.32517079415, -69328.83046017056, -51538.071219691185, -40186.80485329686, -43284.06373072431, -12366.661413510015, -45672.817012407424, 0.018000000000000002, 0.776, 0.646, 192.0, 0.0, 0.0, 0.0, 0.0, 0.0, 0.0, 0.0, 0.0, 0.0, 1.6541571276216965E9, 0.0, 2022-06-02 10:05:27.621
100.0, 24319.659092385664, 9122.66333373348, -69328.09285260354, -51540.97694647038, -40181.99922823897, -43296.692466341556, -12371.847018223647, -45686.16100384724, 0.018000000000000002, 0.776, 0.646, 192.0, 0.0, 0.0, 0.0, 0.0, 0.0, 0.0, 0.0, 0.0, 0.0, 1.6541571276217017E9, 0.0, 2022-06-02 10:05:27.621
101.0, 24336.62406642724, 9144.769208999778, -69309.47384947227, -51530.873957976575, -40165.83891699778, -43287.19297494805, -12380.74301251686, -45694.1852801067, 0.018000000000000002, 0.776, 0.646, 192.0, 0.0, 0.0, 0.0, 0.0, 0.0, 0.0, 0.0, 0.0, 0.0, 1.6541571276217067E9, 0.0, 2022-06-02 10:05:27.621
102.0, 24358.037037615424, 9174.452325636426, -69297.82859061105, -51518.82636771517, -40159.1780971501, -43270.831498006766, -12383.380518362585, -45689.02202713752, 0.018000000000000002, 0.776, 0.646, 192.0, 0.0, 0.0, 0.0, 0.0, 0.0, 0.0, 0.0, 0.0, 0.0, 1.6541571276217117E9, 0.0, 2022-06-02 10:05:27.621
103.0, 24388.368354841277, 9209.924544086998, -69302.4106982244, -51512.67963798996, -40155.82533548181, -43267.70225378302, -12379.044279938254, -45694.34174231789, 0.018000000000000002, 0.776, 0.646, 192.0, 0.0, 0.0, 0.0, 0.0, 0.0, 0.0, 0.0, 0.0, 0.0, 1.654157127621717E9, 0.0, 2022-06-02 10:05:27.621
104.0, 24415.793945287936, 9249.107152117153, -69311.64196868443, -51519.832196215655, -40166.82239375381, -43276.262971909404, -12388.052032953745, -45695.90636442976, 0.018000000000000002, 0.776, 0.646, 192.0, 0.0, 0.0, 0.0, 0.0, 0.0, 0.0, 0.0, 0.0, 0.0, 1.654157127621722E9, 0.0, 2022-06-02 10:05:27.621
105.0, 24443.2195357346, 9289.005015969875, -69298.52149468916, -51509.95272516641, -40166.01773095343, -43263.45542233651, -12387.940274231467, -45686.98801839209, 0.018000000000000002, 0.776, 0.646, 192.0, 0.0, 0.0, 0.0, 0.0, 0.0, 0.0, 0.0, 0.0, 0.0, 1.6541571276217277E9, 0.0, 2022-06-02 10:05:27.621
106.0, 24459.625716164795, 9348.103028309706, -69283.38936369293, -51498.66509421648, -40153.768974991915, -43254.62648327667, -12363.0180791638, -45670.85005889536, 0.016, 0.776, 0.656, 192.0, 0.0, 128.0, 24.0, 64.0, 20.0, 128.0, 0.0, 0.0, 0.0, 1.6541571281008625E9, 0.0, 2022-06-02 10:05:28.100
107.0, 24466.33123950139, 9405.636418537668, -69285.51277941618, -51499.87208841707, -40155.71357675953, -43254.47002106548, -12368.136628644066, -45667.60905594934, 0.016, 0.776, 0.656, 192.0, 0.0, 0.0, 0.0, 0.0, 0.0, 0.0, 0.0, 0.0, 0.0, 1.654157128101102E9, 0.0, 2022-06-02 10:05:28.101
108.0, 24467.806454635436, 9452.060991771341, -69305.42818372586, -51513.327838579164, -40170.01869321093, -43264.01421594789, -12388.074384698199, -45700.62258250983, 0.016, 0.776, 0.656, 192.0, 0.0, 0.0, 0.0, 0.0, 0.0, 0.0, 0.0, 0.0, 0.0, 1.654157128101111E9, 0.0, 2022-06-02 10:05:28.101
109.0, 24489.532350245998, 9494.238733558504, -69313.67597742987, -51519.29575434873, -40172.76795777893, -43272.88785849665, -12384.587512563172, -45713.67600127173, 0.016, 0.776, 0.656, 192.0, 0.0, 0.0, 0.0, 0.0, 0.0, 0.0, 0.0, 0.0, 0.0, 1.654157128101118E9, 0.0, 2022-06-02 10:05:28.101
110.0, 24511.191190623187, 9530.381504342737, -69300.42139296787, -51511.182071111456, -40173.99730372397, -43269.80331776182, -12404.525268617304, -45719.48745483011, 0.016, 0.776, 0.656, 192.0, 0.0, 0.0, 0.0, 0.0, 0.0, 0.0, 0.0, 0.0, 0.0, 1.6541571281011367E9, 0.0, 2022-06-02 10:05:28.101
111.0, 24506.877303943314, 9540.708010281089, -69295.86163709899, -51513.43959730144, -40181.79806253887, -43268.23869564995, -12413.398911166063, -45706.97047793514, 0.016, 0.776, 0.656, 192.0, 0.0, 0.0, 0.0, 0.0, 0.0, 0.0, 0.0, 0.0, 0.0, 1.6541571281011498E9, 0.0, 2022-06-02 10:05:28.101
112.0, 24508.263112099543, 9554.610795332288, -69284.50695091569, -51509.32687632166, -40160.72036751752, -43262.33783511375, -12348.467093523395, -45677.153250831754, 0.016, 0.776, 0.656, 192.0, 0.0, 0.0, 0.0, 0.0, 0.0, 0.0, 0.0, 0.0, 0.0, 1.6541571281011624E9, 0.0, 2022-06-02 10:05:28.101
113.0, 24520.9365512057, 9567.239530949537, -69290.34075621853, -51515.853585702615, -40161.23445763999, -43265.84705899323, -12343.706171954414, -45679.94721888867, 0.016, 0.776, 0.656, 192.0, 0.0, 0.0, 0.0, 0.0, 0.0, 0.0, 0.0, 0.0, 0.0, 1.6541571281011956E9, 0.0, 2022-06-02 10:05:28.101
114.0, 24531.643036799793, 9577.968368288084, -69300.39904122341, -51529.28698412025, -40176.701864803064, -43279.32516089978, -12361.252291351831, -45676.952085131656, 0.016, 0.776, 0.656, 192.0, 0.0, 0.0, 0.0, 0.0, 0.0, 0.0, 0.0, 0.0, 0.0, 1.6541571281012125E9, 0.0, 2022-06-02 10:05:28.101
115.0, 24535.487536846107, 9587.624321892778, -69298.72266038926, -51526.761236996805, -40178.24413517048, -43284.95780050252, -12360.40292506253, -45671.498259484564, 0.016, 0.776, 0.656, 192.0, 0.0, 0.0, 0.0, 0.0, 0.0, 0.0, 0.0, 0.0, 0.0, 1.6541571281012394E9, 0.0, 2022-06-02 10:05:28.101
116.0, 24542.14835669379, 9600.498926699034, -69283.83639858203, -51512.43376880095, -40172.07505370081, -43271.2114776625, -12359.128875628576, -45666.22324779311, 0.012, 0.776, 0.654, 192.0, 0.0, 96.0, 24.0, 64.0, 20.0, 112.0, 0.0, 0.0, 0.0, 1.6541571281012635E9, 0.0, 2022-06-02 10:05:28.101
117.0, 24546.216374184656, 9603.672874411688, -69279.74602934672, -51506.1082251201, -40163.693149530074, -43262.71781476949, -12363.68863149746, -45676.125070586815, 0.012, 0.776, 0.654, 192.0, 0.0, 0.0, 0.0, 0.0, 0.0, 0.0, 0.0, 0.0, 0.0, 1.6541571281012788E9, 0.0, 2022-06-02 10:05:28.101
118.0, 24560.789711569516, 9619.81083390842, -69281.60122413651, -51502.26372507378, -40158.26167562744, -43262.96368395849, -12369.1201054001, -45702.56718427744, 0.012, 0.776, 0.654, 192.0, 0.0, 0.0, 0.0, 0.0, 0.0, 0.0, 0.0, 0.0, 0.0, 1.6541571281012952E9, 0.0, 2022-06-02 10:05:28.101
119.0, 24557.95104002369, 9613.887621627764, -69299.77319237866, -51514.937164179944, -40171.06922520033, -43277.04528296534, -12349.91995691299, -45702.92481218873, 0.012, 0.776, 0.654, 192.0, 0.0, 0.0, 0.0, 0.0, 0.0, 0.0, 0.0, 0.0, 0.0, 1.6541571281013117E9, 0.0, 2022-06-02 10:05:28.101
120.0, 24561.124987736344, 9615.47459548409, -69284.9539858048, -51507.78460595424, -40161.65914078464, -43265.62354154868, -12366.97433793239, -45671.45355599565, 0.012, 0.776, 0.654, 192.0, 0.0, 0.0, 0.0, 0.0, 0.0, 0.0, 0.0, 0.0, 0.0, 1.6541571281013324E9, 0.0, 2022-06-02 10:05:28.101
121.0, 24560.119159235855, 9615.586354206367, -69279.03077352414, -51501.794338440224, -40161.748547762465, -43262.784870002855, -12363.68863149746, -45679.47783225511, 0.012, 0.776, 0.654, 192.0, 0.0, 0.0, 0.0, 0.0, 0.0, 0.0, 0.0, 0.0, 0.0, 1.6541571281013443E9, 0.0, 2022-06-02 10:05:28.101
122.0, 24563.203699970687, 9622.046008353951, -69273.66635485487, -51494.7535389368, -40158.97693145, -43257.19693388903, -12356.312555827208, -45683.121166601326, 0.012, 0.776, 0.654, 192.0, 0.0, 0.0, 0.0, 0.0, 0.0, 0.0, 0.0, 0.0, 0.0, 1.6541571281013603E9, 0.0, 2022-06-02 10:05:28.101
123.0, 24562.48844414812, 9627.410427023224, -69280.61774738047, -51496.072291859666, -40159.87100122822, -43251.69840475302, -12362.392230319052, -45682.45061426766, 0.012, 0.776, 0.654, 192.0, 0.0, 0.0, 0.0, 0.0, 0.0, 0.0, 0.0, 0.0, 0.0, 1.6541571281013856E9, 0.0, 2022-06-02 10:05:28.101
124.0, 24562.935479037224, 9626.181081078183, -69292.3524132195, -51509.17041411048, -40172.81266126784, -43262.96368395849, -12359.419448306495, -45684.81989917993, 0.012, 0.776, 0.654, 192.0, 0.0, 0.0, 0.0, 0.0, 0.0, 0.0, 0.0, 0.0, 0.0, 1.6541571281014E9, 0.0, 2022-06-02 10:05:28.101
125.0, 24559.67212434675, 9625.242307811059, -69292.46417194179, -51513.08196939015, -40179.40642588215, -43273.22313466348, -12360.335869829163, -45693.581783006404, 0.012, 0.776, 0.654, 192.0, 0.0, 0.0, 0.0, 0.0, 0.0, 0.0, 0.0, 0.0, 0.0, 1.6541571281014173E9, 0.0, 2022-06-02 10:05:28.101
126.0, 24562.890775548312, 9627.700999701143, -69275.99093627822, -51502.084911118145, -40161.9273617181, -43262.94133221404, -12365.476771053884, -45688.351474803865, 0.01, 0.776, 0.654, 192.0, 0.0, 80.0, 24.0, 64.0, 20.0, 112.0, 0.0, 0.0, 0.0, 1.654157128101438E9, 0.0, 2022-06-02 10:05:28.101
127.0, 24557.056970245478, 9625.845804911352, -69274.09103799952, -51500.38617853954, -40152.4278703246, -43257.93454145605, -12337.58179397366, -45668.88310538329, 0.01, 0.776, 0.654, 192.0, 0.0, 0.0, 0.0, 0.0, 0.0, 0.0, 0.0, 0.0, 0.0, 1.654157128101446E9, 0.0, 2022-06-02 10:05:28.101
128.0, 24565.95296453869, 9628.036275867973, -69276.08034325605, -51492.42895751345, -40149.030405167396, -43246.40104131711, -12336.240689306342, -45657.662529666726, 0.01, 0.776, 0.654, 192.0, 0.0, 0.0, 0.0, 0.0, 0.0, 0.0, 0.0, 0.0, 0.0, 1.6541571281014652E9, 0.0, 2022-06-02 10:05:28.101
129.0, 24574.647793131804, 9634.741799204565, -69289.96077656279, -51502.73311170735, -40166.911800731636, -43254.33591059875, -12353.943270914946, -45672.74995717406, 0.01, 0.776, 0.654, 192.0, 0.0, 0.0, 0.0, 0.0, 0.0, 0.0, 0.0, 0.0, 0.0, 1.6541571281014736E9, 0.0, 2022-06-02 10:05:28.101
130.0, 24576.05595303249, 9634.920613160208, -69290.0054800517, -51507.94106816543, -40168.54347807688, -43265.69059678204, -12356.469018038395, -45673.42050950772, 0.01, 0.776, 0.654, 192.0, 0.0, 0.0, 0.0, 0.0, 0.0, 0.0, 0.0, 0.0, 0.0, 1.6541571281014931E9, 0.0, 2022-06-02 10:05:28.101
131.0, 24581.53213042404, 9644.755380720542, -69273.8004653216, -51494.105338347596, -40154.104251158744, -43255.69936701052, -12357.385439561063, -45664.14453555877, 0.01, 0.776, 0.654, 192.0, 0.0, 0.0, 0.0, 0.0, 0.0, 0.0, 0.0, 0.0, 0.0, 1.6541571281015E9, 0.0, 2022-06-02 10:05:28.101
132.0, 24582.359144968887, 9653.696078502666, -69265.28445068414, -51482.303617275196, -40148.47161155601, -43246.13282038365, -12358.525378528284, -45664.74803265906, 0.01, 0.776, 0.654, 192.0, 0.0, 0.0, 0.0, 0.0, 0.0, 0.0, 0.0, 0.0, 0.0, 1.6541571281015062E9, 0.0, 2022-06-02 10:05:28.101
133.0, 24589.288185750032, 9663.128514662805, -69274.06868625506, -51480.202553296396, -40147.130506888694, -43244.121163382675, -12355.507893026817, -45673.64402695227, 0.01, 0.776, 0.654, 192.0, 0.0, 0.0, 0.0, 0.0, 0.0, 0.0, 0.0, 0.0, 0.0, 1.6541571281015124E9, 0.0, 2022-06-02 10:05:28.101
134.0, 24598.43004923225, 9664.290805374481, -69286.47390442777, -51494.23944881433, -40163.223762896516, -43270.33975962875, -12388.052032953745, -45717.364039106855, 0.01, 0.776, 0.654, 192.0, 0.0, 0.0, 0.0, 0.0, 0.0, 0.0, 0.0, 0.0, 0.0, 1.6541571281015184E9, 0.0, 2022-06-02 10:05:28.101
135.0, 24588.1035432939, 9652.556139535445, -69285.8033520941, -51506.80112919821, -40173.058530456845, -43284.577820846775, -12397.484469113884, -45721.58851880891, 0.01, 0.776, 0.654, 192.0, 0.0, 0.0, 0.0, 0.0, 0.0, 0.0, 0.0, 0.0, 0.0, 1.6541571281015248E9, 0.0, 2022-06-02 10:05:28.101
136.0, 24586.605976415394, 9654.366630836324, -69266.2008722068, -51495.491146503824, -40159.580428550296, -43255.8111257328, -12367.68959375496, -45667.31848327142, 0.02, 0.78, 0.656, 192.0, 0.0, 160.0, 24.0, 96.0, 20.0, 128.0, 0.0, 0.0, 0.0, 1.654157128101531E9, 0.0, 2022-06-02 10:05:28.101
137.0, 24581.82270310196, 9649.292784844969, -69260.70234307079, -51488.83032665615, -40149.74566098996, -43247.36216632869, -12342.20860507591, -45646.79958186145, 0.02, 0.78, 0.656, 192.0, 0.0, 0.0, 0.0, 0.0, 0.0, 0.0, 0.0, 0.0, 0.0, 1.6541571281015375E9, 0.0, 2022-06-02 10:05:28.101
138.0, 24594.876121863857, 9652.109104646339, -69270.93944203132, -51489.88085864554, -40155.26654187042, -43253.39713733162, -12361.989898918855, -45681.7353584451, 0.02, 0.78, 0.656, 192.0, 0.0, 0.0, 0.0, 0.0, 0.0, 0.0, 0.0, 0.0, 0.0, 1.6541571281015453E9, 0.0, 2022-06-02 10:05:28.101
139.0, 24609.58356971545, 9654.903072703251, -69276.32621244506, -51493.09950984711, -40153.09842265826, -43252.4583640645, -12341.605107975616, -45667.69846292716, 0.02, 0.78, 0.656, 192.0, 0.0, 0.0, 0.0, 0.0, 0.0, 0.0, 0.0, 0.0, 0.0, 1.6541571281015537E9, 0.0, 2022-06-02 10:05:28.101
140.0, 24598.407697487797, 9645.023601654006, -69278.02494502366, -51497.48045176035, -40164.52016407492, -43252.0560326643, -12350.568157502194, -45661.28351226849, 0.02, 0.78, 0.656, 192.0, 0.0, 0.0, 0.0, 0.0, 0.0, 0.0, 0.0, 0.0, 0.0, 1.6541571281015632E9, 0.0, 2022-06-02 10:05:28.101
141.0, 24590.45047646171, 9636.082903871884, -69273.01815426566, -51490.90903889049, -40166.17419316461, -43246.69161399503, -12358.368916317097, -45651.62755866379, 0.02, 0.78, 0.656, 192.0, 0.0, 0.0, 0.0, 0.0, 0.0, 0.0, 0.0, 0.0, 0.0, 1.654157128101572E9, 0.0, 2022-06-02 10:05:28.101
142.0, 24589.846979361413, 9635.814682938419, -69264.97152626175, -51478.660282928984, -40159.55807680584, -43237.817971446275, -12359.464151795406, -45654.77915463199, 0.02, 0.78, 0.656, 192.0, 0.0, 0.0, 0.0, 0.0, 0.0, 0.0, 0.0, 0.0, 0.0, 1.6541571281015809E9, 0.0, 2022-06-02 10:05:28.101
143.0, 24599.055898077, 9643.90601443124, -69267.4525698963, -51471.28420725873, -40154.77480349241, -43234.956948155996, -12367.086096654666, -45683.098814856865, 0.02, 0.78, 0.656, 192.0, 0.0, 0.0, 0.0, 0.0, 0.0, 0.0, 0.0, 0.0, 0.0, 1.6541571281015904E9, 0.0, 2022-06-02 10:05:28.101
144.0, 24591.746877640115, 9627.343371789859, -69300.37668947896, -51499.93914365043, -40191.29755393238, -43262.33783511375, -12412.840117554679, -45712.42430358223, 0.02, 0.78, 0.656, 192.0, 0.0, 0.0, 0.0, 0.0, 0.0, 0.0, 0.0, 0.0, 0.0, 1.654157128101598E9, 0.0, 2022-06-02 10:05:28.101
145.0, 24597.714793409683, 9632.260755570025, -69280.32717470256, -51492.80893716919, -40177.2830101589, -43255.14057339914, -12373.143419402055, -45666.75968966004, 0.02, 0.78, 0.656, 192.0, 0.0, 0.0, 0.0, 0.0, 0.0, 0.0, 0.0, 0.0, 0.0, 1.654157128101607E9, 0.0, 2022-06-02 10:05:28.101
146.0, 24595.546674197518, 9632.95365964814, -69255.51673835715, -51479.062614329174, -40154.3277686033, -43243.38355581565, -12338.811139918702, -45655.8743901103, 0.014, 0.776, 0.65, 192.0, 0.0, 112.0, 24.0, 64.0, 20.0, 80.0, 0.0, 0.0, 0.0, 1.654157128101614E9, 0.0, 2022-06-02 10:05:28.101
147.0, 24592.193912529223, 9630.33850554687, -69249.03473246512, -51467.126782790045, -40137.60866375073, -43233.01234638839, -12320.303895509709, -45651.001709819044, 0.014, 0.776, 0.65, 192.0, 0.0, 0.0, 0.0, 0.0, 0.0, 0.0, 0.0, 0.0, 0.0, 1.6541571281016223E9, 0.0, 2022-06-02 10:05:28.101
148.0, 24591.50100845111, 9625.979915378084, -69267.2514041962, -51476.60392243909, -40146.16938187712, -43234.73343071144, -12348.042410378745, -45668.05609083844, 0.014, 0.776, 0.65, 192.0, 0.0, 0.0, 0.0, 0.0, 0.0, 0.0, 0.0, 0.0, 0.0, 1.654157128101632E9, 0.0, 2022-06-02 10:05:28.101
149.0, 24583.43202870274, 9610.780729148475, -69293.02296555316, -51500.0061988838, -40173.058530456845, -43251.720756497474, -12366.72846874338, -45667.85492513835, 0.014, 0.776, 0.65, 192.0, 0.0, 0.0, 0.0, 0.0, 0.0, 0.0, 0.0, 0.0, 0.0, 1.6541571281016417E9, 0.0, 2022-06-02 10:05:28.101
150.0, 24585.600147914905, 9607.025636079983, -69284.19402649332, -51495.33468429264, -40169.86223099974, -43259.52151531238, -12346.455436522418, -45664.94919835916, 0.014, 0.776, 0.65, 192.0, 0.0, 0.0, 0.0, 0.0, 0.0, 0.0, 0.0, 0.0, 0.0, 1.654157128101657E9, 0.0, 2022-06-02 10:05:28.101
151.0, 24588.1035432939, 9605.818641879398, -69272.79463682111, -51490.90903889049, -40163.26846638542, -43264.28243688136, -12361.654622752027, -45684.775195691014, 0.014, 0.776, 0.65, 192.0, 0.0, 0.0, 0.0, 0.0, 0.0, 0.0, 0.0, 0.0, 0.0, 1.6541571281016648E9, 0.0, 2022-06-02 10:05:28.101
