%OpenBCI Raw EEG Data
%Number of channels = 8
%Sample Rate = 250 Hz
%Board = OpenBCI_GUI$BoardCytonSerial
Sample Index, EXG Channel 0, EXG Channel 1, EXG Channel 2, EXG Channel 3, EXG Channel 4, EXG Channel 5, EXG Channel 6, EXG Channel 7, Accel Channel 0, Accel Channel 1, Accel Channel 2, Other, Other, Other, Other, Other, Other, Other, Analog Channel 0, Analog Channel 1, Analog Channel 2, Timestamp, Other, Timestamp (Formatted)
0.0, 0.0, 0.0, 0.0, 0.0, 0.0, 0.0, 0.0, 0.0, -0.028, 0.888, 0.438, 192.0, 255.0, 32.0, 27.0, 192.0, 13.0, 176.0, 0.0, 0.0, 0.0, 1.654161681436818E9, 0.0, 2022-06-02 11:21:21.436
1.0, 27139.778690311756, 5023.219290163433, -71350.72456010873, -66593.89336036365, -51707.87742231815, -51935.26171866199, -50319.275298032204, -60674.883207664876, -0.028, 0.888, 0.438, 192.0, 0.0, 0.0, 0.0, 0.0, 0.0, 0.0, 0.0, 0.0, 0.0, 1.654161681452788E9, 0.0, 2022-06-02 11:21:21.452
2.0, 27153.972048040876, 5023.889842497092, -71361.56515616956, -66610.83598266078, -51707.43038742905, -51925.248137146016, -50321.95750736684, -60679.37590830039, -0.028, 0.888, 0.438, 192.0, 0.0, 0.0, 0.0, 0.0, 0.0, 0.0, 0.0, 0.0, 0.0, 1.6541616819303617E9, 0.0, 2022-06-02 11:21:21.930
3.0, 27150.842803817133, 5017.56429881624, -71375.82556913204, -66611.3724245277, -51723.6577539036, -51940.44732337562, -50339.59303374208, -60694.39628057436, -0.028, 0.888, 0.438, 192.0, 0.0, 0.0, 0.0, 0.0, 0.0, 0.0, 0.0, 0.0, 0.0, 1.6541616819304805E9, 0.0, 2022-06-02 11:21:21.930
4.0, 27144.852536303108, 5017.474891838418, -71376.78669414362, -66614.81459317381, -51729.87153886218, -51953.053707248415, -50340.24123433128, -60692.854010206946, -0.028, 0.888, 0.438, 192.0, 0.0, 0.0, 0.0, 0.0, 0.0, 0.0, 0.0, 0.0, 0.0, 1.6541616819304872E9, 0.0, 2022-06-02 11:21:21.930
5.0, 27136.917667021477, 5022.079351196212, -71365.9013945939, -66629.20911660303, -51722.67427714757, -51937.22867217406, -50331.725219693806, -60675.19613208725, -0.028, 0.888, 0.438, 192.0, 0.0, 0.0, 0.0, 0.0, 0.0, 0.0, 0.0, 0.0, 0.0, 1.654161681930493E9, 0.0, 2022-06-02 11:21:21.930
6.0, 27144.405501414003, 5026.102665198167, -71364.51558643766, -66626.10222412375, -51712.68304737605, -51922.230651644546, -50319.96820211032, -60671.172818085295, -0.028, 0.888, 0.438, 192.0, 0.0, 0.0, 0.0, 0.0, 0.0, 0.0, 0.0, 0.0, 0.0, 1.6541616819305055E9, 0.0, 2022-06-02 11:21:21.930
7.0, 27151.222783472873, 5025.6332785646055, -71376.80904588808, -66610.25483730494, -51714.739407865934, -51918.319096364874, -50319.81173989913, -60680.31468156751, -0.028, 0.888, 0.438, 192.0, 0.0, 0.0, 0.0, 0.0, 0.0, 0.0, 0.0, 0.0, 0.0, 1.6541616819305112E9, 0.0, 2022-06-02 11:21:21.930
8.0, 27132.693187319423, 5010.724665012916, -71402.22297933376, -66637.43455856259, -51745.361297769705, -51939.84382627533, -50356.49095255029, -60709.86368773743, -0.018000000000000002, 0.9420000000000001, 0.336, 192.0, 255.0, 112.0, 29.0, 112.0, 10.0, 128.0, 0.0, 0.0, 0.0, 1.654161681930518E9, 0.0, 2022-06-02 11:21:21.930
9.0, 27147.04300725973, 5021.185281418, -71394.01988911866, -66630.5278695259, -51752.40209727312, -51950.37149791378, -50358.05557466216, -60700.90063821086, -0.018000000000000002, 0.9420000000000001, 0.336, 192.0, 0.0, 0.0, 0.0, 0.0, 0.0, 0.0, 0.0, 0.0, 0.0, 1.6541616819305248E9, 0.0, 2022-06-02 11:21:21.930
10.0, 27158.107120765108, 5034.976307746924, -71356.13368226691, -66556.09656048972, -51726.04939056032, -51938.435666374644, -50320.23642304378, -60665.56253022701, -0.018000000000000002, 0.9420000000000001, 0.336, 192.0, 0.0, 0.0, 0.0, 0.0, 0.0, 0.0, 0.0, 0.0, 0.0, 1.6541616819305303E9, 0.0, 2022-06-02 11:21:21.930
11.0, 27165.058513290707, 5046.28629044131, -71338.96754252524, -66556.47654014546, -51705.5528408948, -51909.713674749575, -50302.69030364636, -60648.35168699643, -0.018000000000000002, 0.9420000000000001, 0.336, 192.0, 0.0, 0.0, 0.0, 0.0, 0.0, 0.0, 0.0, 0.0, 0.0, 1.6541616819305365E9, 0.0, 2022-06-02 11:21:21.930
12.0, 27164.164443512494, 5039.379601404619, -71355.06079853306, -66585.220883515, -51716.52754742236, -51913.021732928966, -50325.153806823946, -60669.94347214025, -0.018000000000000002, 0.9420000000000001, 0.336, 192.0, 0.0, 0.0, 0.0, 0.0, 0.0, 0.0, 0.0, 0.0, 0.0, 1.6541616819305427E9, 0.0, 2022-06-02 11:21:21.930
13.0, 27156.676609119968, 5031.891767012092, -71370.81877837406, -66600.62123544469, -51734.14072205314, -51936.82634077386, -50346.4326675454, -60695.40210907485, -0.018000000000000002, 0.9420000000000001, 0.336, 192.0, 0.0, 0.0, 0.0, 0.0, 0.0, 0.0, 0.0, 0.0, 0.0, 1.6541616819305494E9, 0.0, 2022-06-02 11:21:21.930
14.0, 27157.23540273135, 5032.763485045849, -71366.12491203845, -66610.59011347177, -51746.76945767039, -51945.49881762252, -50363.6882142649, -60699.87245796591, -0.018000000000000002, 0.9420000000000001, 0.336, 192.0, 0.0, 0.0, 0.0, 0.0, 0.0, 0.0, 0.0, 0.0, 0.0, 1.6541616819305594E9, 0.0, 2022-06-02 11:21:21.930
15.0, 27162.197490000428, 5035.468046124941, -71339.21341171426, -66578.18008401158, -51724.887099848645, -51941.02846873146, -50328.57362372561, -60671.798666930044, -0.018000000000000002, 0.9420000000000001, 0.336, 192.0, 0.0, 0.0, 0.0, 0.0, 0.0, 0.0, 0.0, 0.0, 0.0, 1.6541616819305656E9, 0.0, 2022-06-02 11:21:21.930
16.0, 27159.18000449896, 5033.1881681905, -71334.45249014527, -66580.28114799036, -51703.51883214937, -51929.003230214505, -50291.447376185344, -60656.73359116717, -0.018000000000000002, 0.9420000000000001, 0.336, 192.0, 0.0, 0.0, 0.0, 0.0, 0.0, 0.0, 0.0, 0.0, 0.0, 1.6541616819305713E9, 0.0, 2022-06-02 11:21:21.930
17.0, 27147.512393893292, 5031.109455956156, -71341.94032453779, -66591.70288940702, -51708.99500954092, -51924.42112260117, -50305.61838217001, -60668.95999538422, -0.01, 0.974, 0.278, 192.0, 255.0, 176.0, 30.0, 112.0, 8.0, 176.0, 0.0, 0.0, 0.0, 1.6541616819305775E9, 0.0, 2022-06-02 11:21:21.930
18.0, 27137.722329821867, 5015.597345304173, -71365.45435970477, -66620.4248810321, -51728.10575105021, -51945.76703855599, -50321.08578933308, -60690.48472529468, -0.01, 0.974, 0.278, 192.0, 0.0, 0.0, 0.0, 0.0, 0.0, 0.0, 0.0, 0.0, 0.0, 1.6541616819305851E9, 0.0, 2022-06-02 11:21:21.930
19.0, 27149.725216594365, 5029.924813500025, -71353.47382467674, -66615.99923562995, -51724.93180333755, -51946.258776934, -50315.56490845262, -60680.82877168999, -0.01, 0.974, 0.278, 192.0, 0.0, 0.0, 0.0, 0.0, 0.0, 0.0, 0.0, 0.0, 0.0, 1.654161681930593E9, 0.0, 2022-06-02 11:21:21.930
20.0, 27166.734894124857, 5038.217310692944, -71328.70809182026, -66573.79914209833, -51703.98821878293, -51934.680573306156, -50289.346312206544, -60656.93475686727, -0.01, 0.974, 0.278, 192.0, 0.0, 0.0, 0.0, 0.0, 0.0, 0.0, 0.0, 0.0, 0.0, 1.6541616819305987E9, 0.0, 2022-06-02 11:21:21.930
21.0, 27165.88552783555, 5037.770275803838, -71322.89663826188, -66571.40750544162, -51688.85608778669, -51916.66506727518, -50276.292893444646, -60648.84342537444, -0.01, 0.974, 0.278, 192.0, 0.0, 0.0, 0.0, 0.0, 0.0, 0.0, 0.0, 0.0, 0.0, 1.6541616819306068E9, 0.0, 2022-06-02 11:21:21.930
22.0, 27160.18583299945, 5034.417514135542, -71338.18523146931, -66583.14217128065, -51695.874535545656, -51922.096541177816, -50294.71073087582, -60665.47312324919, -0.01, 0.974, 0.278, 192.0, 0.0, 0.0, 0.0, 0.0, 0.0, 0.0, 0.0, 0.0, 0.0, 1.6541616819306548E9, 0.0, 2022-06-02 11:21:21.930
23.0, 27155.626077130568, 5020.179452917511, -71361.83337710302, -66610.79127917186, -51719.6567916461, -51944.49298912204, -50324.19268181237, -60690.55178052805, -0.01, 0.974, 0.278, 192.0, 0.0, 0.0, 0.0, 0.0, 0.0, 0.0, 0.0, 0.0, 0.0, 1.654161681930661E9, 0.0, 2022-06-02 11:21:21.930
24.0, 27150.999266028317, 5021.22998490691, -71354.3902461994, -66606.56679946982, -51722.58487016975, -51951.22086420308, -50320.616402699525, -60682.92983566879, -0.01, 0.974, 0.278, 192.0, 0.0, 0.0, 0.0, 0.0, 0.0, 0.0, 0.0, 0.0, 0.0, 1.6541616819306667E9, 0.0, 2022-06-02 11:21:21.930
25.0, 27164.52207142378, 5037.747924059382, -71325.51179236315, -66577.80010435583, -51699.227297213954, -51936.289898906936, -50292.07322503009, -60653.44788473224, -0.01, 0.974, 0.278, 192.0, 0.0, 0.0, 0.0, 0.0, 0.0, 0.0, 0.0, 0.0, 0.0, 1.6541616819306726E9, 0.0, 2022-06-02 11:21:21.930
26.0, 27162.42100744498, 5040.251319438376, -71318.33688239299, -66566.89245306164, -51685.860954029675, -51920.08488417684, -50288.586352895065, -60648.37403874088, -0.01, 0.974, 0.278, 192.0, 0.0, 0.0, 0.0, 0.0, 0.0, 0.0, 0.0, 0.0, 0.0, 1.6541616819306788E9, 0.0, 2022-06-02 11:21:21.930
27.0, 27151.51335615079, 5030.32714490022, -71339.81690881454, -66580.30349973483, -51697.32739893525, -51916.441549830626, -50305.26075425873, -60663.08148659248, -0.008, 0.988, 0.258, 192.0, 255.0, 192.0, 30.0, 224.0, 8.0, 16.0, 0.0, 0.0, 0.0, 1.6541616819306877E9, 0.0, 2022-06-02 11:21:21.930
28.0, 27154.75435909681, 5025.074484953223, -71358.3912084569, -66593.468677219, -51713.37595145416, -51925.315192379385, -50320.616402699525, -60679.554722256034, -0.008, 0.988, 0.258, 192.0, 0.0, 0.0, 0.0, 0.0, 0.0, 0.0, 0.0, 0.0, 0.0, 1.6541616819307036E9, 0.0, 2022-06-02 11:21:21.930
29.0, 27154.553193396714, 5018.681886039006, -71367.66718240586, -66603.32579652379, -51728.97746908396, -51951.39967815873, -50327.50073999176, -60685.96967291471, -0.008, 0.988, 0.258, 192.0, 0.0, 0.0, 0.0, 0.0, 0.0, 0.0, 0.0, 0.0, 0.0, 1.654161681930719E9, 0.0, 2022-06-02 11:21:21.930
30.0, 27167.5619086697, 5033.121112957134, -71335.4359669013, -66571.49691241943, -51702.75887283789, -51935.9099192512, -50290.24038198476, -60652.218538787194, -0.008, 0.988, 0.258, 192.0, 0.0, 0.0, 0.0, 0.0, 0.0, 0.0, 0.0, 0.0, 0.0, 1.65416168193073E9, 0.0, 2022-06-02 11:21:21.930
31.0, 27174.021562817285, 5042.195921205988, -71316.74990853667, -66559.38226692466, -51679.66952081556, -51908.14905263771, -50270.43673639736, -60635.18650951225, -0.008, 0.988, 0.258, 192.0, 0.0, 0.0, 0.0, 0.0, 0.0, 0.0, 0.0, 0.0, 0.0, 1.6541616819307404E9, 0.0, 2022-06-02 11:21:21.930
32.0, 27156.65425737551, 5036.987964747902, -71341.71680709324, -66580.57172066829, -51696.43332915704, -51915.659238774686, -50296.25300124324, -60661.33805052496, -0.008, 0.988, 0.258, 192.0, 0.0, 0.0, 0.0, 0.0, 0.0, 0.0, 0.0, 0.0, 0.0, 1.6541616819307551E9, 0.0, 2022-06-02 11:21:21.930
33.0, 27157.03423703125, 5030.863586767147, -71361.31928698055, -66592.48520046296, -51715.655829388605, -51931.79719827142, -50317.71067592033, -60684.472106036206, -0.008, 0.988, 0.258, 192.0, 0.0, 0.0, 0.0, 0.0, 0.0, 0.0, 0.0, 0.0, 0.0, 1.6541616819307783E9, 0.0, 2022-06-02 11:21:21.930
34.0, 27150.641638117035, 5019.6430110505835, -71352.46799617624, -66586.60669167122, -51722.09313179173, -51943.53186411046, -50313.01680958472, -60680.538199012066, -0.008, 0.988, 0.258, 192.0, 0.0, 0.0, 0.0, 0.0, 0.0, 0.0, 0.0, 0.0, 0.0, 1.6541616819307942E9, 0.0, 2022-06-02 11:21:21.930
35.0, 27145.433681658946, 5024.873319253125, -71329.75862380966, -66563.51733964888, -51710.22435548596, -51936.08873320684, -50297.370588466, -60657.09121907845, -0.008, 0.988, 0.258, 192.0, 0.0, 0.0, 0.0, 0.0, 0.0, 0.0, 0.0, 0.0, 0.0, 1.6541616819308057E9, 0.0, 2022-06-02 11:21:21.930
36.0, 27144.114928736086, 5023.286345396798, -71330.3844726544, -66561.84095881473, -51701.37306468166, -51923.99643945652, -50291.894411074456, -60649.96101259721, -0.008, 0.988, 0.258, 192.0, 0.0, 0.0, 0.0, 0.0, 0.0, 0.0, 0.0, 0.0, 0.0, 1.6541616819308143E9, 0.0, 2022-06-02 11:21:21.930
37.0, 27148.741739838333, 5029.008391977357, -71344.93545829481, -66568.83705482924, -51705.865765317176, -51920.46486383258, -50302.623248413, -60662.05330634753, -0.008, 0.988, 0.25, 192.0, 255.0, 192.0, 30.0, 224.0, 7.0, 208.0, 0.0, 0.0, 0.0, 1.654161681930824E9, 0.0, 2022-06-02 11:21:21.930
38.0, 27142.058568246197, 5018.145444172078, -71366.32607773854, -66585.33264223726, -51726.1611492826, -51933.831207016854, -50323.32096377861, -60682.32633856849, -0.008, 0.988, 0.25, 192.0, 0.0, 0.0, 0.0, 0.0, 0.0, 0.0, 0.0, 0.0, 0.0, 1.654161681930837E9, 0.0, 2022-06-02 11:21:21.930
39.0, 27145.6571991035, 5019.598307561673, -71363.12977828142, -66583.38804046965, -51736.08532382075, -51947.7116403236, -50326.09258009107, -60680.64995773434, -0.008, 0.988, 0.25, 192.0, 0.0, 0.0, 0.0, 0.0, 0.0, 0.0, 0.0, 0.0, 0.0, 1.6541616819308467E9, 0.0, 2022-06-02 11:21:21.930
40.0, 27168.6124406591, 5034.305755413265, -71333.55842036706, -66556.208319212, -51712.012495042385, -51933.22770991656, -50296.09653903205, -60648.91048060781, -0.008, 0.988, 0.25, 192.0, 0.0, 0.0, 0.0, 0.0, 0.0, 0.0, 0.0, 0.0, 0.0, 1.654161681930858E9, 0.0, 2022-06-02 11:21:21.930
41.0, 27172.188719771948, 5039.558415360262, -71326.40586214136, -66560.00811576941, -51696.16510822358, -51913.915802707175, -50286.32882670508, -60639.8133206145, -0.008, 0.988, 0.25, 192.0, 0.0, 0.0, 0.0, 0.0, 0.0, 0.0, 0.0, 0.0, 0.0, 1.6541616819308684E9, 0.0, 2022-06-02 11:21:21.930
42.0, 27149.725216594365, 5027.823749521226, -71350.09871126399, -66573.03918278684, -51710.22435548596, -51925.27048889047, -50306.80302462614, -60662.500341236635, -0.008, 0.988, 0.25, 192.0, 0.0, 0.0, 0.0, 0.0, 0.0, 0.0, 0.0, 0.0, 0.0, 1.6541616819308798E9, 0.0, 2022-06-02 11:21:21.930
43.0, 27146.931248537454, 5024.6274500641175, -71362.43687420331, -66581.95752882451, -51724.75298938191, -51937.049858218415, -50320.83992014408, -60676.20196058774, -0.008, 0.988, 0.25, 192.0, 0.0, 0.0, 0.0, 0.0, 0.0, 0.0, 0.0, 0.0, 0.0, 1.6541616819309E9, 0.0, 2022-06-02 11:21:21.930
44.0, 27155.04493177473, 5025.655630309061, -71359.97818231324, -66583.70096489204, -51734.587756942245, -51938.63683207474, -50324.05857134564, -60675.30789080953, -0.008, 0.988, 0.25, 192.0, 0.0, 0.0, 0.0, 0.0, 0.0, 0.0, 0.0, 0.0, 0.0, 1.6541616819309087E9, 0.0, 2022-06-02 11:21:21.930
45.0, 27167.85248134762, 5038.083200226212, -71337.089995991, -66561.12570299217, -51716.058160788794, -51936.46871286258, -50297.03531229917, -60650.20688178622, -0.008, 0.988, 0.25, 192.0, 0.0, 0.0, 0.0, 0.0, 0.0, 0.0, 0.0, 0.0, 0.0, 1.6541616819309156E9, 0.0, 2022-06-02 11:21:21.930
46.0, 27164.499719679323, 5036.317412414242, -71325.31062666305, -66553.23553719945, -51697.28269544634, -51917.78265449795, -50284.741852848754, -60641.601460170925, -0.008, 0.988, 0.25, 192.0, 0.0, 0.0, 0.0, 0.0, 0.0, 0.0, 0.0, 0.0, 0.0, 1.6541616819309225E9, 0.0, 2022-06-02 11:21:21.930
47.0, 27147.713559593387, 5017.1172639271335, -71358.52531892364, -66580.52701717938, -51715.655829388605, -51922.94590746712, -50305.26075425873, -60666.23308256067, -0.01, 0.99, 0.25, 192.0, 255.0, 176.0, 30.0, 240.0, 7.0, 208.0, 0.0, 0.0, 0.0, 1.65416168193093E9, 0.0, 2022-06-02 11:21:21.930
48.0, 27140.113966478584, 5007.304848111254, -71380.05004883409, -66603.72812792398, -51734.610108686706, -51943.28599492145, -50322.58335621159, -60684.76267871412, -0.01, 0.99, 0.25, 192.0, 0.0, 0.0, 0.0, 0.0, 0.0, 0.0, 0.0, 0.0, 0.0, 1.6541616819309375E9, 0.0, 2022-06-02 11:21:21.930
49.0, 27143.46672814688, 5012.669266780528, -71370.7964266296, -66591.3676132402, -51733.02313483038, -51950.32679442487, -50314.8273008856, -60672.513922752616, -0.01, 0.99, 0.25, 192.0, 0.0, 0.0, 0.0, 0.0, 0.0, 0.0, 0.0, 0.0, 0.0, 1.6541616819309464E9, 0.0, 2022-06-02 11:21:21.930
50.0, 27142.7067688354, 5016.200842404466, -71352.98208629873, -66577.15190376663, -51714.247669487915, -51945.69998332262, -50287.22289648329, -60647.47996896267, -0.01, 0.99, 0.25, 192.0, 0.0, 0.0, 0.0, 0.0, 0.0, 0.0, 0.0, 0.0, 0.0, 1.6541616819309576E9, 0.0, 2022-06-02 11:21:21.930
51.0, 27145.836013059143, 5020.157101173056, -71345.89658330638, -66571.25104323043, -51696.16510822358, -51927.505663336, -50276.24818995574, -60638.67338164728, -0.01, 0.99, 0.25, 192.0, 0.0, 0.0, 0.0, 0.0, 0.0, 0.0, 0.0, 0.0, 0.0, 1.6541616819309647E9, 0.0, 2022-06-02 11:21:21.930
52.0, 27141.678588590457, 5015.865566237637, -71365.20849051577, -66590.13826729516, -51704.09997750521, -51929.76318952599, -50296.25300124324, -60660.51103598011, -0.01, 0.99, 0.25, 192.0, 0.0, 0.0, 0.0, 0.0, 0.0, 0.0, 0.0, 0.0, 0.0, 1.654161681930972E9, 0.0, 2022-06-02 11:21:21.930
53.0, 27135.04012048723, 5000.50991779684, -71395.91978739736, -66620.84956417675, -51729.7597801399, -51952.09258223684, -50328.3277545366, -60692.004643917644, -0.01, 0.99, 0.25, 192.0, 0.0, 0.0, 0.0, 0.0, 0.0, 0.0, 0.0, 0.0, 0.0, 1.6541616819309795E9, 0.0, 2022-06-02 11:21:21.930
54.0, 27138.683454833445, 5004.533231798796, -71394.5563309856, -66616.44627051905, -51736.73352440996, -51964.944835298644, -50330.0264871152, -60690.66353925032, -0.01, 0.99, 0.25, 192.0, 0.0, 0.0, 0.0, 0.0, 0.0, 0.0, 0.0, 0.0, 0.0, 1.6541616819309864E9, 0.0, 2022-06-02 11:21:21.930
55.0, 27143.064396746686, 5011.261106879843, -71368.31538299506, -66595.68149992007, -51715.34290496623, -51954.97595727158, -50298.95756232233, -60660.77925691358, -0.01, 0.99, 0.25, 192.0, 0.0, 0.0, 0.0, 0.0, 0.0, 0.0, 0.0, 0.0, 0.0, 1.654161681930996E9, 0.0, 2022-06-02 11:21:21.930
56.0, 27144.584315369644, 5007.416606833531, -71362.32511548104, -66587.43370621606, -51703.58588738274, -51937.56394834089, -50292.56496340811, -60653.626698687876, -0.01, 0.99, 0.25, 192.0, 0.0, 0.0, 0.0, 0.0, 0.0, 0.0, 0.0, 0.0, 0.0, 1.6541616819310043E9, 0.0, 2022-06-02 11:21:21.931
57.0, 27131.08386171864, 4998.945295684969, -71385.83915064803, -66603.34814826824, -51719.16505326809, -51940.67084082018, -50318.71650442082, -60677.252492577136, -0.004, 0.99, 0.25, 192.0, 255.0, 224.0, 30.0, 240.0, 7.0, 208.0, 0.0, 0.0, 0.0, 1.654161681931014E9, 0.0, 2022-06-02 11:21:21.931
58.0, 27121.807887769686, 4988.641141491073, -71411.58836026053, -66628.11388112472, -51739.974527355975, -51959.66982360719, -50339.548330253165, -60702.39820508936, -0.004, 0.99, 0.25, 192.0, 0.0, 0.0, 0.0, 0.0, 0.0, 0.0, 0.0, 0.0, 0.0, 1.6541616819310212E9, 0.0, 2022-06-02 11:21:21.931
59.0, 27120.824411013655, 4985.914228667525, -71408.01208114768, -66628.58326775828, -51749.51872223839, -51975.919541826195, -50342.52111226572, -60704.11928941242, -0.004, 0.99, 0.25, 192.0, 0.0, 0.0, 0.0, 0.0, 0.0, 0.0, 0.0, 0.0, 0.0, 1.65416168193103E9, 0.0, 2022-06-02 11:21:21.931
60.0, 27131.97793149685, 5003.415644576031, -71374.14918829789, -66600.4200697446, -51728.373971983674, -51965.034242276466, -50317.598917198055, -60675.95609139873, -0.004, 0.99, 0.25, 192.0, 0.0, 0.0, 0.0, 0.0, 0.0, 0.0, 0.0, 0.0, 0.0, 1.654161681931039E9, 0.0, 2022-06-02 11:21:21.931
61.0, 27147.825318315667, 5023.666325052539, -71356.84893808949, -66580.95170032403, -51707.2068699845, -51940.17910244216, -50304.590201925064, -60663.88614939286, -0.004, 0.99, 0.25, 192.0, 0.0, 0.0, 0.0, 0.0, 0.0, 0.0, 0.0, 0.0, 0.0, 1.6541616819310503E9, 0.0, 2022-06-02 11:21:21.931
62.0, 27135.531858865244, 5003.996789931869, -71380.25121453419, -66601.18002905608, -51723.99303007043, -51946.61640484529, -50329.557100481645, -60691.4234985618, -0.004, 0.99, 0.25, 192.0, 0.0, 0.0, 0.0, 0.0, 0.0, 0.0, 0.0, 0.0, 0.0, 1.6541616819310591E9, 0.0, 2022-06-02 11:21:21.931
63.0, 27122.18786742543, 4983.634350733084, -71401.23950257772, -66621.14013685466, -51746.47888499247, -51961.43561141916, -50350.612443758546, -60710.7801092601, -0.004, 0.99, 0.25, 192.0, 0.0, 0.0, 0.0, 0.0, 0.0, 0.0, 0.0, 0.0, 0.0, 1.65416168193107E9, 0.0, 2022-06-02 11:21:21.931
64.0, 27135.308341420692, 4998.520612540318, -71388.9460431273, -66605.04688084684, -51748.40113501563, -51965.66009112121, -50342.409353543444, -60699.984216688186, -0.004, 0.99, 0.25, 192.0, 0.0, 0.0, 0.0, 0.0, 0.0, 0.0, 0.0, 0.0, 0.0, 1.6541616819310837E9, 0.0, 2022-06-02 11:21:21.931
65.0, 27153.502661407314, 5024.001601219368, -71352.37858919843, -66571.27339497488, -51722.51781493638, -51943.33069841036, -50308.74762639376, -60665.093143593454, -0.004, 0.99, 0.25, 192.0, 0.0, 0.0, 0.0, 0.0, 0.0, 0.0, 0.0, 0.0, 0.0, 1.6541616819310915E9, 0.0, 2022-06-02 11:21:21.931
66.0, 27146.461861903892, 5014.837385992692, -71354.3902461994, -66579.47648518998, -51715.924050322064, -51937.966279741086, -50305.95365833684, -60666.568358727505, -0.004, 0.99, 0.25, 192.0, 0.0, 0.0, 0.0, 0.0, 0.0, 0.0, 0.0, 0.0, 0.0, 1.6541616819311E9, 0.0, 2022-06-02 11:21:21.931
67.0, 27149.255829960806, 5018.927755228014, -71365.2978974936, -66587.99249982745, -51719.47797769046, -51933.85355876131, -50314.64848692995, -60676.51488501011, -0.01, 0.998, 0.25, 192.0, 255.0, 176.0, 31.0, 48.0, 7.0, 208.0, 0.0, 0.0, 0.0, 1.6541616819311087E9, 0.0, 2022-06-02 11:21:21.931
68.0, 27136.872963532565, 5019.732418028405, -71386.82262740405, -66607.23735180347, -51740.84624538973, -51945.8117420449, -50340.64356573148, -60698.643112020865, -0.01, 0.998, 0.25, 192.0, 0.0, 0.0, 0.0, 0.0, 0.0, 0.0, 0.0, 0.0, 0.0, 1.6541616819311185E9, 0.0, 2022-06-02 11:21:21.931
69.0, 27135.576562354156, 5026.303830898265, -71389.25896754969, -66611.12655533869, -51749.92105363859, -51964.251931220526, -50339.23540583079, -60699.134850398885, -0.01, 0.998, 0.25, 192.0, 0.0, 0.0, 0.0, 0.0, 0.0, 0.0, 0.0, 0.0, 0.0, 1.6541616819311297E9, 0.0, 2022-06-02 11:21:21.931
70.0, 27135.08482397614, 5009.383560345597, -71374.68563016482, -66602.36467151222, -51734.610108686706, -51965.637739376754, -50315.229632285795, -60680.180571100784, -0.01, 0.998, 0.25, 192.0, 0.0, 0.0, 0.0, 0.0, 0.0, 0.0, 0.0, 0.0, 0.0, 1.6541616819311388E9, 0.0, 2022-06-02 11:21:21.931
71.0, 27142.52795487976, 5013.764502258838, -71362.16865326985, -66587.00902307141, -51712.68304737605, -51942.011945487495, -50300.94686757885, -60664.22142555969, -0.01, 0.998, 0.25, 192.0, 0.0, 0.0, 0.0, 0.0, 0.0, 0.0, 0.0, 0.0, 0.0, 1.65416168193115E9, 0.0, 2022-06-02 11:21:21.931
72.0, 27135.777728054254, 5008.824766734215, -71379.49125522272, -66598.96720635501, -51720.43910270204, -51940.87200652027, -50318.06830383162, -60680.269978078606, -0.01, 0.998, 0.25, 192.0, 0.0, 0.0, 0.0, 0.0, 0.0, 0.0, 0.0, 0.0, 0.0, 1.654161681931158E9, 0.0, 2022-06-02 11:21:21.931
73.0, 27134.146050709016, 5008.377731845108, -71399.67488046586, -66621.25189557695, -51741.49444597893, -51959.13338174026, -50335.569719740124, -60700.878286466395, -0.01, 0.998, 0.25, 192.0, 0.0, 0.0, 0.0, 0.0, 0.0, 0.0, 0.0, 0.0, 0.0, 1.6541616819311671E9, 0.0, 2022-06-02 11:21:21.931
74.0, 27134.771899553765, 5006.857813222148, -71393.9975373742, -66619.3296455538, -51745.67422219208, -51971.69506212414, -50329.95943188184, -60698.26313236513, -0.01, 0.998, 0.25, 192.0, 0.0, 0.0, 0.0, 0.0, 0.0, 0.0, 0.0, 0.0, 0.0, 1.6541616819311752E9, 0.0, 2022-06-02 11:21:21.931
75.0, 27143.779652569254, 5027.287307654298, -71354.09967352149, -66584.8632556037, -51716.37108521117, -51951.53378862546, -50301.729178634785, -60664.55670172653, -0.01, 0.998, 0.25, 192.0, 0.0, 0.0, 0.0, 0.0, 0.0, 0.0, 0.0, 0.0, 0.0, 1.6541616819311829E9, 0.0, 2022-06-02 11:21:21.931
76.0, 27141.8574025461, 5037.032668236812, -71345.96363853975, -66578.9176915786, -51700.94838153701, -51935.440532617635, -50288.161669750414, -60655.83952138895, -0.01, 0.998, 0.25, 192.0, 0.0, 0.0, 0.0, 0.0, 0.0, 0.0, 0.0, 0.0, 0.0, 1.654161681931191E9, 0.0, 2022-06-02 11:21:21.931
77.0, 27141.052739745708, 5022.839310507692, -71365.16378702686, -66596.59792144274, -51711.0066665419, -51937.51924485198, -50301.99739956825, -60672.60332973044, -0.004, 1.002, 0.244, 192.0, 255.0, 224.0, 31.0, 80.0, 7.0, 160.0, 0.0, 0.0, 0.0, 1.6541616819312007E9, 0.0, 2022-06-02 11:21:21.931
78.0, 27126.546457594213, 4991.010426403335, -71394.06459260757, -66623.48707002247, -51734.90068136462, -51959.915692796196, -50336.37438254051, -60703.69460626777, -0.004, 1.002, 0.244, 192.0, 0.0, 0.0, 0.0, 0.0, 0.0, 0.0, 0.0, 0.0, 0.0, 1.6541616819312088E9, 0.0, 2022-06-02 11:21:21.931
79.0, 27130.681530318445, 4993.916153182525, -71387.47082799325, -66616.71449145251, -51736.86763487669, -51969.43753593416, -50336.77671394071, -60698.799574232056, -0.004, 1.002, 0.244, 192.0, 0.0, 0.0, 0.0, 0.0, 0.0, 0.0, 0.0, 0.0, 0.0, 1.654161681931218E9, 0.0, 2022-06-02 11:21:21.931
80.0, 27132.42496638596, 5003.6168102761285, -71370.50585395168, -66597.06730807631, -51727.390495227635, -51965.8165533324, -50319.364705010026, -60679.77823970059, -0.004, 1.002, 0.244, 192.0, 0.0, 0.0, 0.0, 0.0, 0.0, 0.0, 0.0, 0.0, 0.0, 1.6541616819312315E9, 0.0, 2022-06-02 11:21:21.931
81.0, 27147.22182121537, 5020.000638961868, -71343.30378094957, -66569.06057227381, -51697.30504719079, -51931.68543954915, -50290.6203616405, -60654.00667834362, -0.004, 1.002, 0.244, 192.0, 0.0, 0.0, 0.0, 0.0, 0.0, 0.0, 0.0, 0.0, 0.0, 1.654161681931243E9, 0.0, 2022-06-02 11:21:21.931
82.0, 27141.52212637927, 5009.651781279062, -71367.1977957723, -66587.65722366062, -51716.43814044454, -51934.63586981725, -50318.85061488755, -60678.9735769002, -0.004, 1.002, 0.244, 192.0, 0.0, 0.0, 0.0, 0.0, 0.0, 0.0, 0.0, 0.0, 0.0, 1.6541616819312518E9, 0.0, 2022-06-02 11:21:21.931
83.0, 27136.917667021477, 5008.869470223126, -71388.61076696048, -66602.56583721231, -51739.57219595578, -51949.52213162448, -50347.39379255698, -60701.19121088877, -0.004, 1.002, 0.244, 192.0, 0.0, 0.0, 0.0, 0.0, 0.0, 0.0, 0.0, 0.0, 0.0, 1.6541616819312592E9, 0.0, 2022-06-02 11:21:21.931
84.0, 27140.56100136769, 5018.301906383265, -71377.88192962193, -66591.90405510712, -51737.94051861054, -51952.226692703574, -50331.81462667163, -60687.802515960044, -0.004, 1.002, 0.244, 192.0, 0.0, 0.0, 0.0, 0.0, 0.0, 0.0, 0.0, 0.0, 0.0, 1.6541616819312696E9, 0.0, 2022-06-02 11:21:21.931
85.0, 27146.148937481517, 5025.074484953223, -71356.96069681176, -66570.62519438568, -51723.76951262588, -51945.007079244504, -50309.01584732722, -60664.51199823761, -0.004, 1.002, 0.244, 192.0, 0.0, 0.0, 0.0, 0.0, 0.0, 0.0, 0.0, 0.0, 0.0, 1.6541616819312794E9, 0.0, 2022-06-02 11:21:21.931
86.0, 27140.22572520086, 5028.807226277259, -71346.50008040668, -66561.30451694781, -51709.285582218836, -51928.7573610255, -50294.621323898, -60652.91144286531, -0.004, 1.002, 0.244, 192.0, 0.0, 0.0, 0.0, 0.0, 0.0, 0.0, 0.0, 0.0, 0.0, 1.6541616819312954E9, 0.0, 2022-06-02 11:21:21.931
87.0, 27145.098405492117, 5035.579804847218, -71351.55157465358, -66564.4114094271, -51705.61989612817, -51915.36866609677, -50294.397806453446, -60653.850216132436, -0.006, 1.004, 0.23800000000000002, 192.0, 255.0, 208.0, 31.0, 96.0, 7.0, 112.0, 0.0, 0.0, 0.0, 1.6541616819313045E9, 0.0, 2022-06-02 11:21:21.931
88.0, 27145.523088636768, 5022.392275618587, -71374.01507783117, -66589.98180508397, -51730.22916677346, -51932.69126804963, -50325.377324268506, -60682.03576589058, -0.006, 1.004, 0.23800000000000002, 192.0, 0.0, 0.0, 0.0, 0.0, 0.0, 0.0, 0.0, 0.0, 0.0, 1.6541616819313145E9, 0.0, 2022-06-02 11:21:21.931
89.0, 27142.438547901937, 5020.514729084341, -71374.95385109828, -66593.93806385256, -51740.64507968963, -51947.77869555697, -50331.34524003807, -60685.5226380256, -0.006, 1.004, 0.23800000000000002, 192.0, 0.0, 0.0, 0.0, 0.0, 0.0, 0.0, 0.0, 0.0, 0.0, 1.654161681931326E9, 0.0, 2022-06-02 11:21:21.931
90.0, 27146.75243458181, 5037.6585170815615, -71343.66140886086, -66562.98089778196, -51712.68304737605, -51934.121779694775, -50289.05573952863, -60650.09512306394, -0.006, 1.004, 0.23800000000000002, 192.0, 0.0, 0.0, 0.0, 0.0, 0.0, 0.0, 0.0, 0.0, 0.0, 1.654161681931338E9, 0.0, 2022-06-02 11:21:21.931
91.0, 27142.7067688354, 5034.953956002469, -71334.72071107873, -66552.54263312134, -51697.394454168614, -51914.8545759743, -50270.95082651983, -60636.54996592402, -0.006, 1.004, 0.23800000000000002, 192.0, 0.0, 0.0, 0.0, 0.0, 0.0, 0.0, 0.0, 0.0, 0.0, 1.6541616819313471E9, 0.0, 2022-06-02 11:21:21.931
92.0, 27124.087765704127, 5010.568202801729, -71366.9966300722, -66581.8681218467, -51720.28264049085, -51925.98574471304, -50304.389036224966, -60665.87545464939, -0.006, 1.004, 0.23800000000000002, 192.0, 0.0, 0.0, 0.0, 0.0, 0.0, 0.0, 0.0, 0.0, 0.0, 1.654161681931357E9, 0.0, 2022-06-02 11:21:21.931
93.0, 27126.054719216198, 5010.568202801729, -71388.5437117271, -66601.11297382272, -51739.8627686337, -51941.36374489829, -50333.24513831677, -60691.60231251745, -0.006, 1.004, 0.23800000000000002, 192.0, 0.0, 0.0, 0.0, 0.0, 0.0, 0.0, 0.0, 0.0, 0.0, 1.6541616819313672E9, 0.0, 2022-06-02 11:21:21.931
94.0, 27128.826335528654, 5014.457406336953, -71386.82262740405, -66600.95651161153, -51745.60716695871, -51952.785486314955, -50335.72618195131, -60693.63632126288, -0.006, 1.004, 0.23800000000000002, 192.0, 0.0, 0.0, 0.0, 0.0, 0.0, 0.0, 0.0, 0.0, 0.0, 1.6541616819313753E9, 0.0, 2022-06-02 11:21:21.931
95.0, 27131.441489629924, 5014.457406336953, -71367.75658938367, -66588.39483122765, -51730.38562898465, -51947.80104730142, -50306.60185892604, -60665.56253022701, -0.006, 1.004, 0.23800000000000002, 192.0, 0.0, 0.0, 0.0, 0.0, 0.0, 0.0, 0.0, 0.0, 0.0, 1.654161681931404E9, 0.0, 2022-06-02 11:21:21.931
96.0, 27136.33652166564, 5020.715894784438, -71353.40676944338, -66572.36863045319, -51705.150509494604, -51926.2539656465, -50282.95371329233, -60643.38959972735, -0.014, 1.002, 0.24, 192.0, 255.0, 144.0, 31.0, 80.0, 7.0, 128.0, 0.0, 0.0, 0.0, 1.6541616819314125E9, 0.0, 2022-06-02 11:21:21.931
97.0, 27121.427908113947, 5019.106569183657, -71363.17448177034, -66582.1139910357, -51702.289486204325, -51919.9060702212, -50293.10140527504, -60655.928928366775, -0.014, 1.002, 0.24, 192.0, 0.0, 0.0, 0.0, 0.0, 0.0, 0.0, 0.0, 0.0, 0.0, 1.654161681931422E9, 0.0, 2022-06-02 11:21:21.931
98.0, 27110.341442864115, 5002.27570560881, -71393.39404027391, -66614.34520654025, -51731.34675399623, -51943.86714027729, -50324.41619925692, -60688.8753996939, -0.014, 1.002, 0.24, 192.0, 0.0, 0.0, 0.0, 0.0, 0.0, 0.0, 0.0, 0.0, 0.0, 1.654161681931435E9, 0.0, 2022-06-02 11:21:21.931
99.0, 27121.51731509177, 5007.461310322441, -71386.93438612633, -66608.69021519307, -51735.48182672046, -51953.03135550396, -50320.70580967734, -60684.13682986937, -0.014, 1.002, 0.24, 192.0, 0.0, 0.0, 0.0, 0.0, 0.0, 0.0, 0.0, 0.0, 0.0, 1.6541616819314432E9, 0.0, 2022-06-02 11:21:21.931
100.0, 27126.389995383026, 5014.032723192301, -71363.17448177034, -66588.14896203864, -51715.25349798841, -51945.07413447787, -50300.5221844342, -60662.94737612574, -0.014, 1.002, 0.24, 192.0, 0.0, 0.0, 0.0, 0.0, 0.0, 0.0, 0.0, 0.0, 0.0, 1.6541616819314516E9, 0.0, 2022-06-02 11:21:21.931
101.0, 27121.07028020266, 5007.640124278084, -71364.2473655042, -66592.52990395187, -51708.36916069617, -51938.90505300821, -50298.6222861555, -60664.08731509296, -0.014, 1.002, 0.24, 192.0, 0.0, 0.0, 0.0, 0.0, 0.0, 0.0, 0.0, 0.0, 0.0, 1.6541616819314597E9, 0.0, 2022-06-02 11:21:21.931
102.0, 27130.078033218153, 5006.701351010961, -71376.25025227669, -66603.99634885744, -51715.8569950887, -51940.693192564635, -50310.17813803889, -60681.231103090184, -0.014, 1.002, 0.24, 192.0, 0.0, 0.0, 0.0, 0.0, 0.0, 0.0, 0.0, 0.0, 0.0, 1.6541616819314682E9, 0.0, 2022-06-02 11:21:21.931
103.0, 27113.09070743212, 4993.066786893223, -71398.04320312061, -66628.31504682482, -51739.81806514479, -51956.04884100543, -50332.26166156074, -60702.554667300545, -0.014, 1.002, 0.24, 192.0, 0.0, 0.0, 0.0, 0.0, 0.0, 0.0, 0.0, 0.0, 0.0, 1.6541616819314823E9, 0.0, 2022-06-02 11:21:21.931
104.0, 27121.047928458207, 5003.75092074286, -71382.91107212438, -66619.53081125389, -51737.94051861054, -51958.306367195415, -50325.980821368794, -60691.78112647309, -0.014, 1.002, 0.24, 192.0, 0.0, 0.0, 0.0, 0.0, 0.0, 0.0, 0.0, 0.0, 0.0, 1.654161681931492E9, 0.0, 2022-06-02 11:21:21.931
105.0, 27144.338446180638, 5029.209557677455, -71350.12106300844, -66582.98570906946, -51715.499367177414, -51941.36374489829, -50300.23161175628, -60661.22629180268, -0.014, 1.002, 0.24, 192.0, 0.0, 0.0, 0.0, 0.0, 0.0, 0.0, 0.0, 0.0, 0.0, 1.6541616819315026E9, 0.0, 2022-06-02 11:21:21.931
106.0, 27120.109155191083, 5011.7751970023155, -71356.2454409892, -66586.62904341567, -51718.449797445515, -51937.675707063165, -50303.85259435804, -60663.126190081384, -0.014, 1.002, 0.23600000000000002, 192.0, 255.0, 144.0, 31.0, 80.0, 7.0, 96.0, 0.0, 0.0, 0.0, 1.6541616819315116E9, 0.0, 2022-06-02 11:21:21.931
107.0, 27105.535817806223, 5002.409816075542, -71372.65162141938, -66600.59888370024, -51725.87057660468, -51936.17814018466, -50311.876870617496, -60675.91138790982, -0.014, 1.002, 0.23600000000000002, 192.0, 0.0, 0.0, 0.0, 0.0, 0.0, 0.0, 0.0, 0.0, 0.0, 1.6541616819315257E9, 0.0, 2022-06-02 11:21:21.931
108.0, 27106.876922473544, 4999.995827674369, -71393.23757806273, -66615.39573852965, -51744.176655313575, -51948.60571010181, -50328.931251636895, -60692.92106544031, -0.014, 1.002, 0.23600000000000002, 192.0, 0.0, 0.0, 0.0, 0.0, 0.0, 0.0, 0.0, 0.0, 0.0, 1.654161681931536E9, 0.0, 2022-06-02 11:21:21.931
109.0, 27104.552341050192, 4998.945295684969, -71401.86535142247, -66621.94479965506, -51760.69459446605, -51967.7164516111, -50340.80002794266, -60701.168859144316, -0.014, 1.002, 0.23600000000000002, 192.0, 0.0, 0.0, 0.0, 0.0, 0.0, 0.0, 0.0, 0.0, 0.0, 1.6541616819315464E9, 0.0, 2022-06-02 11:21:21.931
110.0, 27127.552286094702, 5019.732418028405, -71368.96358358426, -66587.07607830479, -51734.744219153436, -51952.40550665921, -50307.875908359994, -60666.36719302741, -0.014, 1.002, 0.23600000000000002, 192.0, 0.0, 0.0, 0.0, 0.0, 0.0, 0.0, 0.0, 0.0, 0.0, 1.6541616819315577E9, 0.0, 2022-06-02 11:21:21.931
111.0, 27124.825373271153, 5020.179452917511, -71365.9013945939, -66577.15190376663, -51725.937631838045, -51937.36278264079, -50306.78067288169, -60662.47798949218, -0.014, 1.002, 0.23600000000000002, 192.0, 0.0, 0.0, 0.0, 0.0, 0.0, 0.0, 0.0, 0.0, 0.0, 1.6541616819315672E9, 0.0, 2022-06-02 11:21:21.931
112.0, 27116.689338289423, 5017.050208693768, -71380.56413895657, -66589.40065972814, -51731.19029178504, -51934.76998028398, -50325.645545201965, -60680.22527458969, -0.014, 1.002, 0.23600000000000002, 192.0, 0.0, 0.0, 0.0, 0.0, 0.0, 0.0, 0.0, 0.0, 0.0, 1.6541616819315815E9, 0.0, 2022-06-02 11:21:21.931
113.0, 27112.733079520833, 5008.936525456492, -71403.98876714573, -66611.59594197225, -51746.30007103683, -51948.739820568546, -50334.809760428645, -60691.69171949527, -0.014, 1.002, 0.23600000000000002, 192.0, 0.0, 0.0, 0.0, 0.0, 0.0, 0.0, 0.0, 0.0, 0.0, 1.654161681931593E9, 0.0, 2022-06-02 11:21:21.931
114.0, 27111.436678342427, 5007.170737644522, -71398.5572932431, -66612.17708732809, -51751.306861794816, -51964.1625242427, -50333.08867610558, -60690.79764971705, -0.014, 1.002, 0.23600000000000002, 192.0, 0.0, 0.0, 0.0, 0.0, 0.0, 0.0, 0.0, 0.0, 0.0, 1.6541616819316027E9, 0.0, 2022-06-02 11:21:21.931
115.0, 27127.775803539254, 5028.539005343796, -71352.66916187634, -66573.19564499804, -51714.02415204336, -51941.22963443156, -50290.30743721813, -60648.99988758563, -0.014, 1.002, 0.23600000000000002, 192.0, 0.0, 0.0, 0.0, 0.0, 0.0, 0.0, 0.0, 0.0, 0.0, 1.654161681931615E9, 0.0, 2022-06-02 11:21:21.931
116.0, 27129.720405306867, 5027.823749521226, -71345.44954841728, -66572.18981649754, -51698.78026232484, -51928.46678834758, -50279.95857953532, -60642.160253782306, -0.008, 1.002, 0.234, 192.0, 255.0, 192.0, 31.0, 80.0, 7.0, 80.0, 0.0, 0.0, 0.0, 1.6541616819316232E9, 0.0, 2022-06-02 11:21:21.931
117.0, 27128.424004128457, 5017.854871494159, -71367.35425798348, -66586.2714155044, -51708.592678140725, -51928.48914009204, -50300.76805362321, -60663.34970752594, -0.008, 1.002, 0.234, 192.0, 0.0, 0.0, 0.0, 0.0, 0.0, 0.0, 0.0, 0.0, 0.0, 1.6541616819316316E9, 0.0, 2022-06-02 11:21:21.931
118.0, 27135.978893754353, 5012.244583635877, -71381.88289187943, -66602.40937500112, -51719.52268117937, -51942.23546293205, -50313.35208575155, -60681.454620534736, -0.008, 1.002, 0.234, 192.0, 0.0, 0.0, 0.0, 0.0, 0.0, 0.0, 0.0, 0.0, 0.0, 1.6541616819316392E9, 0.0, 2022-06-02 11:21:21.931
119.0, 27131.508544863293, 5009.629429534606, -71375.13266505393, -66599.28013077738, -51723.277774247865, -51951.39967815873, -50303.137338535475, -60672.648033219346, -0.008, 1.002, 0.234, 192.0, 0.0, 0.0, 0.0, 0.0, 0.0, 0.0, 0.0, 0.0, 0.0, 1.6541616819316545E9, 0.0, 2022-06-02 11:21:21.931
120.0, 27119.773879024255, 5015.03855169279, -71353.33971421, -66579.38707821215, -51713.64417238763, -51947.108143223304, -50285.591219138056, -60652.88909112085, -0.008, 1.002, 0.234, 192.0, 0.0, 0.0, 0.0, 0.0, 0.0, 0.0, 0.0, 0.0, 0.0, 1.6541616819316645E9, 0.0, 2022-06-02 11:21:21.931
121.0, 27130.56977159617, 5023.018124463335, -71343.23672571621, -66570.1111042632, -51705.06110251679, -51932.9594889831, -50277.65634985642, -60642.361419482404, -0.008, 1.002, 0.234, 192.0, 0.0, 0.0, 0.0, 0.0, 0.0, 0.0, 0.0, 0.0, 0.0, 1.6541616819316747E9, 0.0, 2022-06-02 11:21:21.931
122.0, 27142.639713602035, 5031.80236003427, -71353.16090025436, -66578.60476715623, -51707.0057042844, -51923.92938422316, -50287.35700695003, -60651.63739343136, -0.008, 1.002, 0.234, 192.0, 0.0, 0.0, 0.0, 0.0, 0.0, 0.0, 0.0, 0.0, 0.0, 1.6541616824102006E9, 0.0, 2022-06-02 11:21:22.410
123.0, 27126.188829682927, 5012.110473169145, -71377.81487438857, -66600.06244183332, -51728.776303383864, -51940.58143384236, -50312.34625725106, -60677.5207135106, -0.008, 1.002, 0.234, 192.0, 0.0, 0.0, 0.0, 0.0, 0.0, 0.0, 0.0, 0.0, 0.0, 1.6541616824103065E9, 0.0, 2022-06-02 11:21:22.410
124.0, 27108.642710285512, 4998.207688117944, -71380.87706337894, -66603.21403780152, -51741.1144663232, -51957.76992532849, -50319.543518965664, -60682.43809729077, -0.008, 1.002, 0.234, 192.0, 0.0, 0.0, 0.0, 0.0, 0.0, 0.0, 0.0, 0.0, 0.0, 1.6541616824103706E9, 0.0, 2022-06-02 11:21:22.410
125.0, 27116.823448756153, 5010.32233361272, -71358.16769101235, -66582.09163929125, -51725.356486482204, -51953.076058992876, -50300.835108856576, -60662.09800983644, -0.008, 1.002, 0.234, 192.0, 0.0, 0.0, 0.0, 0.0, 0.0, 0.0, 0.0, 0.0, 0.0, 1.65416168241038E9, 0.0, 2022-06-02 11:21:22.410
126.0, 27121.114983691572, 5017.720761027427, -71351.21629848675, -66571.45220893052, -51713.57711715426, -51937.09456170733, -50290.843879085056, -60651.43622773126, -0.008, 1.006, 0.23600000000000002, 192.0, 255.0, 192.0, 31.0, 112.0, 7.0, 96.0, 0.0, 0.0, 0.0, 1.6541616824103868E9, 0.0, 2022-06-02 11:21:22.410
127.0, 27127.999320983807, 5019.151272672567, -71363.33094398152, -66579.52118867889, -51719.58973641274, -51928.667954047676, -50297.52705067719, -60656.688887678254, -0.008, 1.006, 0.23600000000000002, 192.0, 0.0, 0.0, 0.0, 0.0, 0.0, 0.0, 0.0, 0.0, 0.0, 1.6541616824103937E9, 0.0, 2022-06-02 11:21:22.410
128.0, 27124.668911059965, 5011.730493513405, -71386.91203438188, -66599.19072379956, -51737.49348372144, -51941.92253850967, -50318.783559654185, -60675.68787046527, -0.008, 1.006, 0.23600000000000002, 192.0, 0.0, 0.0, 0.0, 0.0, 0.0, 0.0, 0.0, 0.0, 0.0, 1.6541616824104135E9, 0.0, 2022-06-02 11:21:22.410
129.0, 27138.772861811267, 5018.5254238278185, -71382.06170583508, -66591.45702021802, -51739.16986455559, -51948.53865486845, -50315.54255670817, -60668.95999538422, -0.008, 1.006, 0.23600000000000002, 192.0, 0.0, 0.0, 0.0, 0.0, 0.0, 0.0, 0.0, 0.0, 0.0, 1.6541616824104202E9, 0.0, 2022-06-02 11:21:22.410
130.0, 27145.836013059143, 5033.881072268614, -71359.15116776839, -66568.61353738469, -51722.920146336575, -51938.68153556366, -50290.70976861832, -60642.87550960488, -0.008, 1.006, 0.23600000000000002, 192.0, 0.0, 0.0, 0.0, 0.0, 0.0, 0.0, 0.0, 0.0, 0.0, 1.6541616824104273E9, 0.0, 2022-06-02 11:21:22.410
131.0, 27134.302512920203, 5023.5769180747175, -71357.63124914543, -66568.07709551777, -51717.44396894502, -51930.81372151539, -50289.61453314001, -60643.72487589418, -0.008, 1.006, 0.23600000000000002, 192.0, 0.0, 0.0, 0.0, 0.0, 0.0, 0.0, 0.0, 0.0, 0.0, 1.654161682410434E9, 0.0, 2022-06-02 11:21:22.410
132.0, 27137.208239699394, 5029.321316399732, -71354.81492934405, -66569.10527576272, -51711.43134968655, -51918.60966904279, -50295.73891112077, -60651.168006797794, -0.008, 1.006, 0.23600000000000002, 192.0, 0.0, 0.0, 0.0, 0.0, 0.0, 0.0, 0.0, 0.0, 0.0, 1.6541616824104412E9, 0.0, 2022-06-02 11:21:22.410
133.0, 27123.864248259575, 5018.726589527916, -71382.82166514655, -66597.71550866551, -51736.062972076295, -51938.860349519295, -50323.25390854525, -60680.78406820108, -0.008, 1.006, 0.23600000000000002, 192.0, 0.0, 0.0, 0.0, 0.0, 0.0, 0.0, 0.0, 0.0, 0.0, 1.654161682410627E9, 0.0, 2022-06-02 11:21:22.410
134.0, 27115.705861533388, 5020.939412228991, -71390.1530373279, -66610.34424428275, -51752.04446936184, -51964.766021343, -50327.321926036115, -60688.76364097162, -0.008, 1.006, 0.23600000000000002, 192.0, 0.0, 0.0, 0.0, 0.0, 0.0, 0.0, 0.0, 0.0, 0.0, 1.6541616824106352E9, 0.0, 2022-06-02 11:21:22.410
135.0, 27124.870076760064, 5029.053095466268, -71356.58071715603, -66583.25393000293, -51725.89292834913, -51953.59014911534, -50296.9235535769, -60659.54991096853, -0.008, 1.006, 0.23600000000000002, 192.0, 0.0, 0.0, 0.0, 0.0, 0.0, 0.0, 0.0, 0.0, 0.0, 1.6541616824106424E9, 0.0, 2022-06-02 11:21:22.410
136.0, 27133.69901581991, 5020.112397684145, -71338.87813554742, -66563.69615360453, -51703.31766644927, -51928.84676800332, -50280.65148361343, -60642.69669564923, -0.012, 1.006, 0.23600000000000002, 192.0, 255.0, 160.0, 31.0, 112.0, 7.0, 96.0, 0.0, 0.0, 0.0, 1.6541616824106493E9, 0.0, 2022-06-02 11:21:22.410
137.0, 27143.399672913514, 5011.350513857665, -71356.22308924474, -66574.26852873189, -51708.0562362738, -51926.27631739096, -50294.57662040909, -60658.09704757894, -0.012, 1.006, 0.23600000000000002, 192.0, 0.0, 0.0, 0.0, 0.0, 0.0, 0.0, 0.0, 0.0, 0.0, 1.6541616824108288E9, 0.0, 2022-06-02 11:21:22.410
138.0, 27132.46966987487, 5006.299019610765, -71379.98299360073, -66593.40162198563, -51727.47990220546, -51941.743724554035, -50320.415236999426, -60683.332167068984, -0.012, 1.006, 0.23600000000000002, 192.0, 0.0, 0.0, 0.0, 0.0, 0.0, 0.0, 0.0, 0.0, 0.0, 1.654161682410836E9, 0.0, 2022-06-02 11:21:22.410
139.0, 27126.41234712748, 5009.450615578963, -71387.18025531534, -66598.67663367708, -51739.72865816697, -51956.16059972771, -50327.456036502845, -60688.24955084915, -0.012, 1.006, 0.23600000000000002, 192.0, 0.0, 0.0, 0.0, 0.0, 0.0, 0.0, 0.0, 0.0, 0.0, 1.654161682410843E9, 0.0, 2022-06-02 11:21:22.410
140.0, 27137.722329821867, 5031.467083867441, -71350.43398743082, -66568.88175831817, -51711.118425264176, -51937.72041055208, -50283.065472014605, -60647.52467245158, -0.012, 1.006, 0.23600000000000002, 192.0, 0.0, 0.0, 0.0, 0.0, 0.0, 0.0, 0.0, 0.0, 0.0, 1.654161682410849E9, 0.0, 2022-06-02 11:21:22.410
141.0, 27124.13246919304, 5022.369923874131, -71341.64975185988, -66565.93132805006, -51698.84731755821, -51921.02365744396, -50269.54266661915, -60635.67824789027, -0.012, 1.006, 0.23600000000000002, 192.0, 0.0, 0.0, 0.0, 0.0, 0.0, 0.0, 0.0, 0.0, 0.0, 1.6541616824108565E9, 0.0, 2022-06-02 11:21:22.410
142.0, 27121.807887769686, 5011.462272579941, -71353.71969386574, -66577.82245610029, -51700.30018094781, -51915.525128307956, -50278.05868125662, -60645.73653289516, -0.012, 1.006, 0.23600000000000002, 192.0, 0.0, 0.0, 0.0, 0.0, 0.0, 0.0, 0.0, 0.0, 0.0, 1.6541616824108636E9, 0.0, 2022-06-02 11:21:22.410
143.0, 27118.388070868026, 5006.097853910667, -71375.06560982057, -66591.59113068476, -51718.22628000096, -51923.03531444494, -50294.129585519986, -60660.84631214695, -0.012, 1.006, 0.23600000000000002, 192.0, 0.0, 0.0, 0.0, 0.0, 0.0, 0.0, 0.0, 0.0, 0.0, 1.6541616824108706E9, 0.0, 2022-06-02 11:21:22.410
144.0, 27111.70489927589, 5006.254316121855, -71379.96064185628, -66598.27430227688, -51733.73839065294, -51939.55325359741, -50304.07611180259, -60663.57322497049, -0.012, 1.006, 0.23600000000000002, 192.0, 0.0, 0.0, 0.0, 0.0, 0.0, 0.0, 0.0, 0.0, 0.0, 1.6541616824108772E9, 0.0, 2022-06-02 11:21:22.410
145.0, 27138.12466122206, 5021.185281418, -71348.98112404122, -66573.53092116487, -51711.18548049754, -51929.07028544787, -50273.767146321195, -60631.99021005514, -0.012, 1.006, 0.23600000000000002, 192.0, 0.0, 0.0, 0.0, 0.0, 0.0, 0.0, 0.0, 0.0, 0.0, 1.654161682410884E9, 0.0, 2022-06-02 11:21:22.410
146.0, 27140.628056601057, 5029.544833844285, -71336.82177505753, -66559.65048785812, -51693.12527097765, -51910.11600614977, -50258.76912579169, -60619.85321281591, -0.012, 1.002, 0.232, 192.0, 255.0, 160.0, 31.0, 80.0, 7.0, 64.0, 0.0, 0.0, 0.0, 1.6541616824108908E9, 0.0, 2022-06-02 11:21:22.410
147.0, 27131.910876263486, 5030.349496644676, -71359.53114742413, -66577.73304912246, -51710.067893274776, -51916.68741901963, -50289.72629186229, -60647.14469279584, -0.012, 1.002, 0.232, 192.0, 0.0, 0.0, 0.0, 0.0, 0.0, 0.0, 0.0, 0.0, 0.0, 1.6541616824108975E9, 0.0, 2022-06-02 11:21:22.410
148.0, 27131.352082652105, 5019.508900583852, -71378.19485404431, -66590.78646788436, -51728.865710361686, -51929.94200348163, -50315.58726019708, -60670.7704866851, -0.012, 1.002, 0.232, 192.0, 0.0, 0.0, 0.0, 0.0, 0.0, 0.0, 0.0, 0.0, 0.0, 1.6541616824109044E9, 0.0, 2022-06-02 11:21:22.410
149.0, 27142.9079345355, 5017.027856949313, -71378.53013021113, -66584.75149688144, -51737.94051861054, -51940.15675069771, -50318.448283487356, -60671.373983785394, -0.012, 1.002, 0.232, 192.0, 0.0, 0.0, 0.0, 0.0, 0.0, 0.0, 0.0, 0.0, 0.0, 1.6541616824109113E9, 0.0, 2022-06-02 11:21:22.410
150.0, 27136.76120481029, 5029.991868733391, -71363.91208933736, -66565.75251409442, -51728.57513768377, -51940.35791639781, -50300.969219323306, -60656.80064640053, -0.012, 1.002, 0.232, 192.0, 0.0, 0.0, 0.0, 0.0, 0.0, 0.0, 0.0, 0.0, 0.0, 1.654161682410921E9, 0.0, 2022-06-02 11:21:22.410
151.0, 27131.955579752397, 5034.708086813461, -71344.75664433917, -66549.32398191976, -51702.84827981571, -51917.8050062424, -50276.47170740029, -60633.13014902236, -0.012, 1.002, 0.232, 192.0, 0.0, 0.0, 0.0, 0.0, 0.0, 0.0, 0.0, 0.0, 0.0, 1.6541616824109285E9, 0.0, 2022-06-02 11:21:22.410
152.0, 27138.392882155524, 5029.656592566561, -71351.39511244239, -66558.55525237981, -51700.50134664791, -51911.390055583724, -50289.72629186229, -60646.04945731753, -0.012, 1.002, 0.232, 192.0, 0.0, 0.0, 0.0, 0.0, 0.0, 0.0, 0.0, 0.0, 0.0, 1.6541616824109352E9, 0.0, 2022-06-02 11:21:22.410
153.0, 27146.32775143716, 5029.701296055472, -71367.8459963615, -66574.715563621, -51716.058160788794, -51920.44251208813, -50314.179100296395, -60671.57514948549, -0.012, 1.002, 0.232, 192.0, 0.0, 0.0, 0.0, 0.0, 0.0, 0.0, 0.0, 0.0, 0.0, 1.654161682410942E9, 0.0, 2022-06-02 11:21:22.410
154.0, 27145.523088636768, 5023.062827952245, -71375.62440343194, -66588.57364518329, -51730.31857375128, -51942.81660828789, -50314.179100296395, -60677.29719606605, -0.012, 1.002, 0.232, 192.0, 0.0, 0.0, 0.0, 0.0, 0.0, 0.0, 0.0, 0.0, 0.0, 1.6541616824109488E9, 0.0, 2022-06-02 11:21:22.410
155.0, 27158.397693443025, 5038.351421159676, -71345.7401210952, -66566.11014200571, -51701.84245131522, -51937.07220996288, -50267.195733451335, -60641.22148051518, -0.012, 1.002, 0.232, 192.0, 0.0, 0.0, 0.0, 0.0, 0.0, 0.0, 0.0, 0.0, 0.0, 1.6541616824109554E9, 0.0, 2022-06-02 11:21:22.410
156.0, 27158.80002484322, 5041.57007236124, -71328.81985054254, -66554.44253140004, -51678.82015452626, -51916.37449459726, -50252.443582110835, -60627.43045418626, -0.008, 0.998, 0.23600000000000002, 192.0, 255.0, 192.0, 31.0, 48.0, 7.0, 96.0, 0.0, 0.0, 0.0, 1.654161682410962E9, 0.0, 2022-06-02 11:21:22.410
157.0, 27142.52795487976, 5028.427246621519, -71349.42815893033, -66575.83315084375, -51688.78903255332, -51918.453206831604, -50275.018844010694, -60647.85994861841, -0.008, 0.998, 0.23600000000000002, 192.0, 0.0, 0.0, 0.0, 0.0, 0.0, 0.0, 0.0, 0.0, 0.0, 1.6541616824109688E9, 0.0, 2022-06-02 11:21:22.410
158.0, 27134.526030364756, 5013.339819114187, -71381.59231920152, -66605.85154364724, -51717.555727667306, -51941.78842804294, -50311.63100142849, -60682.10282112394, -0.008, 0.998, 0.23600000000000002, 192.0, 0.0, 0.0, 0.0, 0.0, 0.0, 0.0, 0.0, 0.0, 0.0, 1.6541616824109757E9, 0.0, 2022-06-02 11:21:22.410
159.0, 27137.342350166127, 5015.195013903977, -71378.17250229984, -66603.21403780152, -51729.223338272976, -51955.53475088296, -50318.89531837646, -60683.95801591373, -0.008, 0.998, 0.23600000000000002, 192.0, 0.0, 0.0, 0.0, 0.0, 0.0, 0.0, 0.0, 0.0, 0.0, 1.6541616824109828E9, 0.0, 2022-06-02 11:21:22.410
160.0, 27145.36662642558, 5029.23190942191, -71344.93545829481, -66575.98961305495, -51709.79967234131, -51945.8117420449, -50292.54261166366, -60658.25350979013, -0.008, 0.998, 0.23600000000000002, 192.0, 0.0, 0.0, 0.0, 0.0, 0.0, 0.0, 0.0, 0.0, 0.0, 1.6541616824109895E9, 0.0, 2022-06-02 11:21:22.410
161.0, 27158.688266120946, 5043.402915406575, -71320.77322253863, -66553.03437149935, -51683.69283481751, -51921.47069233307, -50267.88863752945, -60636.2593932461, -0.008, 0.998, 0.23600000000000002, 192.0, 0.0, 0.0, 0.0, 0.0, 0.0, 0.0, 0.0, 0.0, 0.0, 1.6541616824109967E9, 0.0, 2022-06-02 11:21:22.410
162.0, 27159.627039388066, 5038.4855316264075, -71333.71488257825, -66556.87887154566, -51690.77833780985, -51914.09461666282, -50281.18792548036, -60646.004753828616, -0.008, 0.998, 0.23600000000000002, 192.0, 0.0, 0.0, 0.0, 0.0, 0.0, 0.0, 0.0, 0.0, 0.0, 1.654161682411004E9, 0.0, 2022-06-02 11:21:22.411
163.0, 27144.293742691727, 5030.841235022693, -71357.96652531225, -66572.05570603082, -51713.39830319861, -51921.42598884416, -50306.490100203766, -60662.232120303175, -0.008, 0.998, 0.23600000000000002, 192.0, 0.0, 0.0, 0.0, 0.0, 0.0, 0.0, 0.0, 0.0, 0.0, 1.6541616824110115E9, 0.0, 2022-06-02 11:21:22.411
164.0, 27137.677626332956, 5022.191109918489, -71366.70605739427, -66579.74470612344, -51730.07270456228, -51934.97114598408, -50315.56490845262, -60666.09897209394, -0.008, 0.998, 0.23600000000000002, 192.0, 0.0, 0.0, 0.0, 0.0, 0.0, 0.0, 0.0, 0.0, 0.0, 1.654161682411019E9, 0.0, 2022-06-02 11:21:22.411
165.0, 27147.42298691547, 5027.399066376575, -71343.99668502768, -66558.1082174907, -51713.197137498515, -51928.04210520293, -50283.91483830391, -60637.04170430204, -0.008, 0.998, 0.23600000000000002, 192.0, 0.0, 0.0, 0.0, 0.0, 0.0, 0.0, 0.0, 0.0, 0.0, 1.6541616824110296E9, 0.0, 2022-06-02 11:21:22.411
166.0, 27156.251925975317, 5035.423342636031, -71330.5856383545, -66544.63011558415, -51693.72876807795, -51906.83029971484, -50269.430907896865, -60620.32259944947, -0.012, 1.0, 0.24, 192.0, 255.0, 160.0, 31.0, 64.0, 7.0, 128.0, 0.0, 0.0, 0.0, 1.6541616824110403E9, 0.0, 2022-06-02 11:21:22.411
167.0, 27144.51726013628, 5026.817921020737, -71345.22603097273, -66559.9634122805, -51700.38958792563, -51906.89735494821, -50284.63009412648, -60638.27105024708, -0.012, 1.0, 0.24, 192.0, 0.0, 0.0, 0.0, 0.0, 0.0, 0.0, 0.0, 0.0, 0.0, 1.6541616824110472E9, 0.0, 2022-06-02 11:21:22.411
168.0, 27128.98279773984, 5014.099778425668, -71373.41158073087, -66589.84769461724, -51725.87057660468, -51931.730143038054, -50314.29085901867, -60672.60332973044, -0.012, 1.0, 0.24, 192.0, 0.0, 0.0, 0.0, 0.0, 0.0, 0.0, 0.0, 0.0, 0.0, 1.6541616824110603E9, 0.0, 2022-06-02 11:21:22.411
169.0, 27145.523088636768, 5024.023952963824, -71369.16474928436, -66591.43466847356, -51733.24665227493, -51944.71650656659, -50309.99932408325, -60673.74326869765, -0.012, 1.0, 0.24, 192.0, 0.0, 0.0, 0.0, 0.0, 0.0, 0.0, 0.0, 0.0, 0.0, 1.6541616824110687E9, 0.0, 2022-06-02 11:21:22.411
170.0, 27159.247059732326, 5036.764447303349, -71335.90535353486, -66566.91480480609, -51711.18548049754, -51936.200491929114, -50277.14225973395, -60645.9153468508, -0.012, 1.0, 0.24, 192.0, 0.0, 0.0, 0.0, 0.0, 0.0, 0.0, 0.0, 0.0, 0.0, 1.6541616824110763E9, 0.0, 2022-06-02 11:21:22.411
171.0, 27158.46474867639, 5041.681831083516, -71324.57301909603, -66555.85069130071, -51691.62770409915, -51920.88954697723, -50270.10146023053, -60638.7627886251, -0.012, 1.0, 0.24, 192.0, 0.0, 0.0, 0.0, 0.0, 0.0, 0.0, 0.0, 0.0, 0.0, 1.6541616824110866E9, 0.0, 2022-06-02 11:21:22.411
172.0, 27141.41036765699, 5023.018124463335, -71351.35040895348, -66583.32098523629, -51706.02222752837, -51929.785541270445, -50293.704902375335, -60667.14950408334, -0.012, 1.0, 0.24, 192.0, 0.0, 0.0, 0.0, 0.0, 0.0, 0.0, 0.0, 0.0, 0.0, 1.6541616824110932E9, 0.0, 2022-06-02 11:21:22.411
173.0, 27127.46287911688, 5001.269877108321, -71383.8945488804, -66612.221790817, -51733.60428018621, -51949.85740779131, -50317.82243464261, -60694.038652663075, -0.012, 1.0, 0.24, 192.0, 0.0, 0.0, 0.0, 0.0, 0.0, 0.0, 0.0, 0.0, 0.0, 1.6541616824111E9, 0.0, 2022-06-02 11:21:22.411
174.0, 27125.942960493918, 5004.0861969096895, -71383.08988608002, -66606.07506109179, -51740.533320967355, -51955.73591658306, -50319.565870710125, -60692.406975317834, -0.012, 1.0, 0.24, 192.0, 0.0, 0.0, 0.0, 0.0, 0.0, 0.0, 0.0, 0.0, 0.0, 1.6541616824111276E9, 0.0, 2022-06-02 11:21:22.411
175.0, 27142.170326968473, 5026.66145880955, -71350.25517347518, -66574.04501128734, -51715.61112589969, -51940.89435826473, -50286.4182336829, -60657.9182336233, -0.012, 1.0, 0.24, 192.0, 0.0, 0.0, 0.0, 0.0, 0.0, 0.0, 0.0, 0.0, 0.0, 1.654161682411135E9, 0.0, 2022-06-02 11:21:22.411
176.0, 27134.637789087035, 5017.832519749703, -71344.80134782808, -66570.33462170776, -51705.575192639255, -51927.77388426947, -50280.338559191056, -60651.726800409175, -0.012, 1.0, 0.23800000000000002, 192.0, 255.0, 160.0, 31.0, 64.0, 7.0, 112.0, 0.0, 0.0, 0.0, 1.6541616824111428E9, 0.0, 2022-06-02 11:21:22.411
177.0, 27126.568809338667, 5008.288324867288, -71353.65263863238, -66579.83411310126, -51707.050407773306, -51921.671858033165, -50286.66410287191, -60659.05817259052, -0.012, 1.0, 0.23800000000000002, 192.0, 0.0, 0.0, 0.0, 0.0, 0.0, 0.0, 0.0, 0.0, 0.0, 1.6541616824111495E9, 0.0, 2022-06-02 11:21:22.411
178.0, 27128.33459715064, 5005.919039955025, -71368.82947311753, -66593.98276734147, -51717.51102417839, -51925.65046854621, -50299.4716524448, -60668.937643639765, -0.012, 1.0, 0.23800000000000002, 192.0, 0.0, 0.0, 0.0, 0.0, 0.0, 0.0, 0.0, 0.0, 0.0, 1.6541616824111567E9, 0.0, 2022-06-02 11:21:22.411
179.0, 27133.140222208527, 5008.981228945402, -71376.20554878778, -66602.65524419013, -51733.35841099721, -51940.91671000919, -50312.5250712067, -60675.28553906507, -0.012, 1.0, 0.23800000000000002, 192.0, 0.0, 0.0, 0.0, 0.0, 0.0, 0.0, 0.0, 0.0, 0.0, 1.6541616824111643E9, 0.0, 2022-06-02 11:21:22.411
180.0, 27150.395768928025, 5023.018124463335, -71348.24351647419, -66578.18008401158, -51713.53241366535, -51932.3559918828, -50289.43571918437, -60649.89395736384, -0.012, 1.0, 0.23800000000000002, 192.0, 0.0, 0.0, 0.0, 0.0, 0.0, 0.0, 0.0, 0.0, 0.0, 1.6541616824111707E9, 0.0, 2022-06-02 11:21:22.411
181.0, 27151.692170106435, 5022.414627363041, -71339.92866753682, -66570.80400834132, -51699.629628614144, -51919.21316614308, -50280.5173731467, -60642.67434390478, -0.012, 1.0, 0.23800000000000002, 192.0, 0.0, 0.0, 0.0, 0.0, 0.0, 0.0, 0.0, 0.0, 0.0, 1.6541616824111776E9, 0.0, 2022-06-02 11:21:22.411
182.0, 27138.61639960008, 5014.636220292595, -71356.26779273365, -66589.89239810615, -51705.12815775015, -51921.671858033165, -50290.44154768486, -60650.20688178622, -0.012, 1.0, 0.23800000000000002, 192.0, 0.0, 0.0, 0.0, 0.0, 0.0, 0.0, 0.0, 0.0, 0.0, 1.6541616824111843E9, 0.0, 2022-06-02 11:21:22.411
183.0, 27138.526992622257, 5013.585688303196, -71372.38340048592, -66602.36467151222, -51720.32734397976, -51933.27241340547, -50309.86521361652, -60666.85893140542, -0.012, 1.0, 0.23800000000000002, 192.0, 0.0, 0.0, 0.0, 0.0, 0.0, 0.0, 0.0, 0.0, 0.0, 1.6541616824111917E9, 0.0, 2022-06-02 11:21:22.411
184.0, 27149.09936774962, 5015.463234837441, -71371.55638594108, -66600.64358718916, -51728.016344072385, -51946.839922289844, -50314.91670786342, -60669.02705061759, -0.012, 1.0, 0.23800000000000002, 192.0, 0.0, 0.0, 0.0, 0.0, 0.0, 0.0, 0.0, 0.0, 0.0, 1.6541616824111986E9, 0.0, 2022-06-02 11:21:22.411
185.0, 27155.00022828582, 5019.151272672567, -71351.59627814249, -66582.3151567358, -51713.93474506554, -51948.292785679434, -50289.10044301754, -60646.54119569555, -0.008, 0.998, 0.23800000000000002, 192.0, 255.0, 192.0, 31.0, 48.0, 7.0, 112.0, 0.0, 0.0, 0.0, 1.654161682411206E9, 0.0, 2022-06-02 11:21:22.411
186.0, 27162.86804233409, 5034.797493791281, -71333.55842036706, -66562.75738033741, -51694.533430878335, -51928.22091915857, -50268.872114285485, -60630.15736700981, -0.008, 0.998, 0.23800000000000002, 192.0, 0.0, 0.0, 0.0, 0.0, 0.0, 0.0, 0.0, 0.0, 0.0, 1.6541616824112136E9, 0.0, 2022-06-02 11:21:22.411
187.0, 27155.737835852844, 5036.47387462543, -71339.21341171426, -66566.55717689481, -51693.907582033586, -51919.12375916526, -50273.47657364328, -60639.8133206145, -0.008, 0.998, 0.23800000000000002, 192.0, 0.0, 0.0, 0.0, 0.0, 0.0, 0.0, 0.0, 0.0, 0.0, 1.654161682411221E9, 0.0, 2022-06-02 11:21:22.411
188.0, 27144.047873502717, 5015.686752281994, -71364.18031027082, -66588.95362483902, -51716.25932648889, -51936.87104426278, -50298.06349254412, -60668.177684328286, -0.008, 0.998, 0.23800000000000002, 192.0, 0.0, 0.0, 0.0, 0.0, 0.0, 0.0, 0.0, 0.0, 0.0, 1.6541616824112284E9, 0.0, 2022-06-02 11:21:22.411
189.0, 27151.870984062076, 5009.204746389955, -71375.53499645412, -66595.39092724216, -51734.83362613126, -51957.389945672745, -50308.18883278237, -60680.24762633415, -0.008, 0.998, 0.23800000000000002, 192.0, 0.0, 0.0, 0.0, 0.0, 0.0, 0.0, 0.0, 0.0, 0.0, 1.6541616824112356E9, 0.0, 2022-06-02 11:21:22.411
190.0, 27155.89429806403, 5025.722685542427, -71349.29404846359, -66570.15580775212, -51716.75106486691, -51949.633890346755, -50283.51250690371, -60654.85604463292, -0.008, 0.998, 0.23800000000000002, 192.0, 0.0, 0.0, 0.0, 0.0, 0.0, 0.0, 0.0, 0.0, 0.0, 1.654161682411243E9, 0.0, 2022-06-02 11:21:22.411
191.0, 27157.436568431447, 5037.390296148097, -71332.59729535547, -66554.93426977805, -51695.36044542318, -51928.71265753659, -50266.97221600678, -60640.03683805905, -0.008, 0.998, 0.23800000000000002, 192.0, 0.0, 0.0, 0.0, 0.0, 0.0, 0.0, 0.0, 0.0, 0.0, 1.6541616824112496E9, 0.0, 2022-06-02 11:21:22.411
192.0, 27157.436568431447, 5044.09581948469, -71341.31447569306, -66561.43862741455, -51696.52273613486, -51920.12958766575, -50280.964408035805, -60651.05624807552, -0.008, 0.998, 0.23800000000000002, 192.0, 0.0, 0.0, 0.0, 0.0, 0.0, 0.0, 0.0, 0.0, 0.0, 1.65416168241126E9, 0.0, 2022-06-02 11:21:22.411
193.0, 27167.271335991783, 5047.04624975279, -71355.12785376643, -66575.29670897684, -51709.844375830224, -51925.717523779575, -50300.99157106776, -60668.58001572848, -0.008, 0.998, 0.23800000000000002, 192.0, 0.0, 0.0, 0.0, 0.0, 0.0, 0.0, 0.0, 0.0, 0.0, 1.6541616824112682E9, 0.0, 2022-06-02 11:21:22.411
194.0, 27183.5657576997, 5049.616700365151, -71353.18325199882, -66576.77192411089, -51715.029980543855, -51934.90409075071, -50300.85746060103, -60667.23891106116, -0.008, 0.998, 0.23800000000000002, 192.0, 0.0, 0.0, 0.0, 0.0, 0.0, 0.0, 0.0, 0.0, 0.0, 1.654161682411275E9, 0.0, 2022-06-02 11:21:22.411
195.0, 27169.908841837507, 5044.676964840528, -71335.79359481258, -66564.09848500472, -51706.17868973955, -51936.84869251832, -50280.405614424424, -60649.33516375246, -0.008, 1.004, 0.234, 192.0, 255.0, 192.0, 31.0, 96.0, 7.0, 80.0, 0.0, 0.0, 0.0, 1.6541616824112818E9, 0.0, 2022-06-02 11:21:22.411
196.0, 27168.344219725637, 5042.732363072916, -71319.0297864711, -66546.9099935186, -51689.66075058708, -51917.93911670913, -50265.60875959501, -60631.811396099496, -0.008, 1.004, 0.234, 192.0, 0.0, 0.0, 0.0, 0.0, 0.0, 0.0, 0.0, 0.0, 0.0, 1.654161682411289E9, 0.0, 2022-06-02 11:21:22.411
197.0, 27169.394751715037, 5034.864549024648, -71335.52537387912, -66561.8633105592, -51692.47707038845, -51911.85944221729, -50275.68939634436, -60640.8638526039, -0.008, 1.004, 0.234, 192.0, 0.0, 0.0, 0.0, 0.0, 0.0, 0.0, 0.0, 0.0, 0.0, 1.6541616824112966E9, 0.0, 2022-06-02 11:21:22.411
198.0, 27164.834995846155, 5025.521519842329, -71365.11908353795, -66584.48327594796, -51714.78411135484, -51922.163596411185, -50299.60576291153, -60662.41093425881, -0.008, 1.004, 0.234, 192.0, 0.0, 0.0, 0.0, 0.0, 0.0, 0.0, 0.0, 0.0, 0.0, 1.6541616824113042E9, 0.0, 2022-06-02 11:21:22.411
199.0, 27145.74660608132, 5016.536118571296, -71375.35618249848, -66595.81561038681, -51731.57027144078, -51941.587262342844, -50309.26171651622, -60672.96095764172, -0.008, 1.004, 0.234, 192.0, 0.0, 0.0, 0.0, 0.0, 0.0, 0.0, 0.0, 0.0, 0.0, 1.6541616824113114E9, 0.0, 2022-06-02 11:21:22.411
200.0, 27150.37341718357, 5029.6789443110165, -71346.81300482905, -66572.30157521983, -51714.09120727673, -51932.512454093994, -50277.74575683424, -60639.790968870046, -0.008, 1.004, 0.234, 192.0, 0.0, 0.0, 0.0, 0.0, 0.0, 0.0, 0.0, 0.0, 0.0, 1.654161682411318E9, 0.0, 2022-06-02 11:21:22.411
201.0, 27161.16930975548, 5043.6487845955835, -71329.98214125421, -66549.9051272756, -51694.01934075586, -51907.92553519315, -50258.16562869139, -60619.316770948986, -0.008, 1.004, 0.234, 192.0, 0.0, 0.0, 0.0, 0.0, 0.0, 0.0, 0.0, 0.0, 0.0, 1.6541616824113255E9, 0.0, 2022-06-02 11:21:22.411
202.0, 27151.17807998396, 5036.116246714145, -71344.51077515016, -66556.92357503457, -51701.261305959386, -51902.96344792408, -50275.309416688615, -60634.739474623144, -0.008, 1.004, 0.234, 192.0, 0.0, 0.0, 0.0, 0.0, 0.0, 0.0, 0.0, 0.0, 0.0, 1.6541616824113328E9, 0.0, 2022-06-02 11:21:22.411
203.0, 27144.338446180638, 5027.488473354397, -71368.98593532872, -66579.45413344553, -51721.84726260272, -51917.067398675375, -50292.87788783049, -60654.07373357699, -0.008, 1.004, 0.234, 192.0, 0.0, 0.0, 0.0, 0.0, 0.0, 0.0, 0.0, 0.0, 0.0, 1.65416168241134E9, 0.0, 2022-06-02 11:21:22.411
204.0, 27145.81366131469, 5027.220252420932, -71372.47280746375, -66584.75149688144, -51734.40894298661, -51934.27824190596, -50301.25979200123, -60659.25933829062, -0.008, 1.004, 0.234, 192.0, 0.0, 0.0, 0.0, 0.0, 0.0, 0.0, 0.0, 0.0, 0.0, 1.6541616824113472E9, 0.0, 2022-06-02 11:21:22.411
205.0, 27155.08963526364, 5039.960746760457, -71343.16967048284, -66560.23163321396, -51716.37108521117, -51929.584375570346, -50273.45422189882, -60631.56552691049, -0.014, 1.0, 0.232, 192.0, 255.0, 144.0, 31.0, 64.0, 7.0, 64.0, 0.0, 0.0, 0.0, 1.654161682411354E9, 0.0, 2022-06-02 11:21:22.411
206.0, 27160.655219633012, 5053.707069600471, -71323.94717025128, -66542.68551381654, -51692.47707038845, -51906.83029971484, -50252.64474781093, -60613.55002087951, -0.014, 1.0, 0.232, 192.0, 0.0, 0.0, 0.0, 0.0, 0.0, 0.0, 0.0, 0.0, 0.0, 1.6541616824113617E9, 0.0, 2022-06-02 11:21:22.411
207.0, 27150.440472416936, 5037.256185681365, -71343.12496699393, -66564.23259547146, -51700.74721583691, -51913.24525037352, -50262.926550260374, -60633.487776933645, -0.014, 1.0, 0.232, 192.0, 0.0, 0.0, 0.0, 0.0, 0.0, 0.0, 0.0, 0.0, 0.0, 1.6541616824113688E9, 0.0, 2022-06-02 11:21:22.411
208.0, 27142.729120579854, 5024.783912275304, -71365.56611842706, -66586.49493294895, -51722.8083876143, -51932.9594889831, -50294.01782679771, -60667.52948373908, -0.014, 1.0, 0.232, 192.0, 0.0, 0.0, 0.0, 0.0, 0.0, 0.0, 0.0, 0.0, 0.0, 1.6541616824113755E9, 0.0, 2022-06-02 11:21:22.411
209.0, 27156.47544341987, 5036.563281603251, -71356.80423460058, -66578.00127005593, -51723.14366378113, -51937.31807915188, -50295.22482099829, -60666.546006983044, -0.014, 1.0, 0.232, 192.0, 0.0, 0.0, 0.0, 0.0, 0.0, 0.0, 0.0, 0.0, 0.0, 1.6541616824113827E9, 0.0, 2022-06-02 11:21:22.411
210.0, 27164.70088537942, 5048.275595697832, -71328.75279530916, -66556.67770584556, -51704.681122861046, -51929.6067273148, -50270.414384652904, -60641.48970144865, -0.014, 1.0, 0.232, 192.0, 0.0, 0.0, 0.0, 0.0, 0.0, 0.0, 0.0, 0.0, 0.0, 1.65416168241139E9, 0.0, 2022-06-02 11:21:22.411
211.0, 27152.697998606924, 5046.241586952399, -71319.61093182694, -66546.41825514058, -51693.058215744284, -51918.2073376426, -50262.74773630473, -60635.74530312364, -0.014, 1.0, 0.232, 192.0, 0.0, 0.0, 0.0, 0.0, 0.0, 0.0, 0.0, 0.0, 0.0, 1.6541616824113972E9, 0.0, 2022-06-02 11:21:22.411
212.0, 27156.363684697593, 5046.822732308237, -71323.05310047306, -66549.54749936431, -51685.92800926304, -51907.16557588167, -50256.98098623526, -60637.01935255759, -0.014, 1.0, 0.232, 192.0, 0.0, 0.0, 0.0, 0.0, 0.0, 0.0, 0.0, 0.0, 0.0, 1.654161682411404E9, 0.0, 2022-06-02 11:21:22.411
213.0, 27160.8116818442, 5041.793589805793, -71340.66627510384, -66570.84871183023, -51701.17189898156, -51917.492081820026, -50278.14808823444, -60658.3652685124, -0.014, 1.0, 0.232, 192.0, 0.0, 0.0, 0.0, 0.0, 0.0, 0.0, 0.0, 0.0, 0.0, 1.654161682411411E9, 0.0, 2022-06-02 11:21:22.411
214.0, 27151.625114873066, 5034.752790302371, -71354.9937432997, -66586.09260154875, -51723.81421611479, -51939.150922197216, -50297.884678588474, -60673.609158230924, -0.014, 1.0, 0.232, 192.0, 0.0, 0.0, 0.0, 0.0, 0.0, 0.0, 0.0, 0.0, 0.0, 1.654161682411421E9, 0.0, 2022-06-02 11:21:22.411
215.0, 27160.23053648836, 5050.8683980546475, -71326.20469644126, -66558.48819714645, -51705.03875077233, -51927.505663336, -50273.65538759892, -60644.730704394664, -0.012, 1.002, 0.228, 192.0, 255.0, 160.0, 31.0, 80.0, 7.0, 32.0, 0.0, 0.0, 0.0, 1.6541616824114287E9, 0.0, 2022-06-02 11:21:22.411
216.0, 27172.836920361155, 5052.075392255234, -71304.18822815278, -66535.1529759351, -51677.38964288111, -51896.63790424322, -50246.90034948592, -60616.925134292265, -0.012, 1.002, 0.228, 192.0, 0.0, 0.0, 0.0, 0.0, 0.0, 0.0, 0.0, 0.0, 0.0, 1.6541616824114356E9, 0.0, 2022-06-02 11:21:22.411
217.0, 27168.500681936825, 5044.364040418153, -71317.95690273725, -66544.8536330287, -51677.99313998141, -51881.5951802248, -50247.74971577522, -60615.67343660277, -0.012, 1.002, 0.228, 192.0, 0.0, 0.0, 0.0, 0.0, 0.0, 0.0, 0.0, 0.0, 0.0, 1.6541616824114432E9, 0.0, 2022-06-02 11:21:22.411
218.0, 27147.66885610448, 5027.108493698656, -71350.50104266418, -66572.56979615329, -51705.798710083815, -51894.73800596452, -50275.868210299996, -60639.634506658855, -0.012, 1.002, 0.228, 192.0, 0.0, 0.0, 0.0, 0.0, 0.0, 0.0, 0.0, 0.0, 0.0, 1.6541616824114509E9, 0.0, 2022-06-02 11:21:22.411
219.0, 27152.697998606924, 5030.684772811505, -71360.60403115799, -66581.97988056896, -51720.193233513026, -51910.04895091641, -50284.18305923737, -60646.89882360683, -0.012, 1.002, 0.228, 192.0, 0.0, 0.0, 0.0, 0.0, 0.0, 0.0, 0.0, 0.0, 0.0, 1.65416168241146E9, 0.0, 2022-06-02 11:21:22.411
220.0, 27164.09738827913, 5042.508845628363, -71340.8897925484, -66560.27633670287, -51706.73748335093, -51907.38909332622, -50260.64667232594, -60623.1612709953, -0.012, 1.002, 0.228, 192.0, 0.0, 0.0, 0.0, 0.0, 0.0, 0.0, 0.0, 0.0, 0.0, 1.654161682411468E9, 0.0, 2022-06-02 11:21:22.411
221.0, 27175.340315740148, 5055.80813357927, -71317.62162657043, -66531.44258635552, -51682.46348887247, -51880.52229649095, -50237.37850634796, -60599.33431140594, -0.012, 1.002, 0.228, 192.0, 0.0, 0.0, 0.0, 0.0, 0.0, 0.0, 0.0, 0.0, 0.0, 1.6541616824114769E9, 0.0, 2022-06-02 11:21:22.411
222.0, 27157.28010622026, 5044.922834029536, -71331.72557732172, -66546.68647607404, -51689.146660464605, -51882.243380814005, -50250.767201276685, -60614.28762844654, -0.012, 1.002, 0.228, 192.0, 0.0, 0.0, 0.0, 0.0, 0.0, 0.0, 0.0, 0.0, 0.0, 1.6541616824114835E9, 0.0, 2022-06-02 11:21:22.411
223.0, 27154.7096556079, 5038.932566515514, -71351.59627814249, -66567.71946760648, -51706.71513160648, -51897.688436232624, -50271.24139919775, -60636.57231766848, -0.012, 1.002, 0.228, 192.0, 0.0, 0.0, 0.0, 0.0, 0.0, 0.0, 0.0, 0.0, 0.0, 1.654161682411517E9, 0.0, 2022-06-02 11:21:22.411
224.0, 27161.41517894449, 5043.559377617762, -71354.74787411069, -66573.50856942042, -51719.27681199036, -51916.97799169755, -50281.29968420264, -60645.445960217236, -0.012, 1.002, 0.228, 192.0, 0.0, 0.0, 0.0, 0.0, 0.0, 0.0, 0.0, 0.0, 0.0, 1.6541616824115236E9, 0.0, 2022-06-02 11:21:22.411
225.0, 27187.678478679478, 5063.921816816547, -71323.94717025128, -66547.3570284077, -51700.52369839236, -51912.597049784315, -50258.34444264704, -60620.501413405116, -0.006, 1.01, 0.232, 192.0, 255.0, 208.0, 31.0, 144.0, 7.0, 64.0, 0.0, 0.0, 0.0, 1.6541616824115305E9, 0.0, 2022-06-02 11:21:22.411
226.0, 27194.808685160722, 5075.589427422217, -71303.96471070823, -66526.14522291961, -51674.193343424005, -51890.11119486227, -50233.46695106828, -60603.04470098552, -0.006, 1.01, 0.232, 192.0, 0.0, 0.0, 0.0, 0.0, 0.0, 0.0, 0.0, 0.0, 0.0, 1.6541616824115372E9, 0.0, 2022-06-02 11:21:22.411
227.0, 27166.019638302285, 5061.284310970821, -71321.2873126611, -66541.27735391585, -51677.50140160339, -51888.7477384505, -50238.831369737556, -60616.96983778117, -0.006, 1.01, 0.232, 192.0, 0.0, 0.0, 0.0, 0.0, 0.0, 0.0, 0.0, 0.0, 0.0, 1.6541616824115443E9, 0.0, 2022-06-02 11:21:22.411
228.0, 27161.348123711126, 5050.5778253767285, -71340.93449603731, -66560.45515065851, -51691.29242793232, -51903.142261879715, -50256.779820535165, -60638.69573339173, -0.006, 1.01, 0.232, 192.0, 0.0, 0.0, 0.0, 0.0, 0.0, 0.0, 0.0, 0.0, 0.0, 1.654161682411552E9, 0.0, 2022-06-02 11:21:22.411
229.0, 27163.04685628973, 5040.296022927288, -71353.83145258803, -66572.79331359784, -51712.928916565055, -51926.27631739096, -50279.511544646215, -60654.9678033552, -0.006, 1.01, 0.232, 192.0, 0.0, 0.0, 0.0, 0.0, 0.0, 0.0, 0.0, 0.0, 0.0, 1.6541616824115603E9, 0.0, 2022-06-02 11:21:22.411
230.0, 27162.46571093389, 5045.191054962999, -71338.67696984732, -66562.24329021493, -51706.31280020628, -51931.35016338232, -50270.28027418617, -60642.9649165827, -0.006, 1.01, 0.232, 192.0, 0.0, 0.0, 0.0, 0.0, 0.0, 0.0, 0.0, 0.0, 0.0, 1.654161682411567E9, 0.0, 2022-06-02 11:21:22.411
231.0, 27167.51720518079, 5051.3377846882095, -71323.3883766399, -66547.1111592187, -51686.84443078571, -51912.66410501768, -50251.974195477276, -60622.66953261728, -0.006, 1.01, 0.232, 192.0, 0.0, 0.0, 0.0, 0.0, 0.0, 0.0, 0.0, 0.0, 0.0, 1.6541616824115744E9, 0.0, 2022-06-02 11:21:22.411
232.0, 27163.069208034183, 5053.6847178560165, -71326.47291737472, -66546.59706909623, -51682.46348887247, -51896.66025598768, -50252.0636024551, -60623.11656750638, -0.006, 1.01, 0.232, 192.0, 0.0, 0.0, 0.0, 0.0, 0.0, 0.0, 0.0, 0.0, 0.0, 1.654161682411585E9, 0.0, 2022-06-02 11:21:22.411
233.0, 27160.43170218846, 5050.086086998712, -71347.81883332954, -66565.37253443868, -51700.076663503256, -51905.176270625154, -50272.24722769824, -60643.546061938534, -0.006, 1.01, 0.232, 192.0, 0.0, 0.0, 0.0, 0.0, 0.0, 0.0, 0.0, 0.0, 0.0, 1.6541616824115925E9, 0.0, 2022-06-02 11:21:22.411
234.0, 27177.016696574297, 5064.502962172385, -71339.74985358118, -66556.49889188992, -51699.24964895841, -51906.025636914455, -50258.36679439149, -60633.13014902236, -0.006, 1.01, 0.232, 192.0, 0.0, 0.0, 0.0, 0.0, 0.0, 0.0, 0.0, 0.0, 0.0, 1.6541616824116004E9, 0.0, 2022-06-02 11:21:22.411
235.0, 27177.351972741126, 5071.7672791203595, -71318.91802774883, -66531.46493809998, -51686.33034066324, -51898.2025263551, -50236.149160402914, -60607.64916034331, -0.004, 1.012, 0.232, 192.0, 255.0, 224.0, 31.0, 160.0, 7.0, 64.0, 0.0, 0.0, 0.0, 1.6541616824116104E9, 0.0, 2022-06-02 11:21:22.411
236.0, 27173.038086061253, 5064.994700550402, -71309.66440554433, -66522.72540601795, -51680.11655570466, -51883.36096803677, -50232.5058260567, -60598.46259337218, -0.004, 1.012, 0.232, 192.0, 0.0, 0.0, 0.0, 0.0, 0.0, 0.0, 0.0, 0.0, 0.0, 1.6541616824116168E9, 0.0, 2022-06-02 11:21:22.411
237.0, 27173.32865873917, 5067.229874995933, -71316.01230096964, -66527.86630724267, -51681.30119816079, -51872.877999887234, -50240.485398827244, -60605.883372531345, -0.004, 1.012, 0.232, 192.0, 0.0, 0.0, 0.0, 0.0, 0.0, 0.0, 0.0, 0.0, 0.0, 1.6541616824116232E9, 0.0, 2022-06-02 11:21:22.411
238.0, 27156.65425737551, 5043.1793979620215, -71352.6915136208, -66563.69615360453, -51713.37595145416, -51898.113119377274, -50277.00814926722, -60643.09902704943, -0.004, 1.012, 0.232, 192.0, 0.0, 0.0, 0.0, 0.0, 0.0, 0.0, 0.0, 0.0, 0.0, 1.65416168241163E9, 0.0, 2022-06-02 11:21:22.411
239.0, 27161.012847544298, 5049.884921298614, -71350.09871126399, -66562.35504893721, -51719.52268117937, -51910.11600614977, -50273.67773934338, -60642.20495727122, -0.004, 1.012, 0.232, 192.0, 0.0, 0.0, 0.0, 0.0, 0.0, 0.0, 0.0, 0.0, 0.0, 1.6541616824116373E9, 0.0, 2022-06-02 11:21:22.411
240.0, 27176.43555121846, 5064.122982516645, -71328.26105693115, -66543.17725219455, -51707.56449789578, -51908.93136369364, -50252.48828559975, -60621.86486981689, -0.004, 1.012, 0.232, 192.0, 0.0, 0.0, 0.0, 0.0, 0.0, 0.0, 0.0, 0.0, 0.0, 1.654161682411644E9, 0.0, 2022-06-02 11:21:22.411
241.0, 27172.881623850066, 5061.060793526268, -71316.54874283657, -66534.03538871233, -51694.48872738943, -51899.02954089994, -50244.9110442294, -60615.13699473584, -0.004, 1.012, 0.232, 192.0, 0.0, 0.0, 0.0, 0.0, 0.0, 0.0, 0.0, 0.0, 0.0, 1.6541616824116511E9, 0.0, 2022-06-02 11:21:22.411
242.0, 27159.47057717688, 5052.6341858666165, -71330.1833069543, -66546.3511999072, -51699.495518147414, -51898.98483741103, -50257.91975950239, -60630.93967806574, -0.004, 1.012, 0.232, 192.0, 0.0, 0.0, 0.0, 0.0, 0.0, 0.0, 0.0, 0.0, 0.0, 1.6541616828915834E9, 0.0, 2022-06-02 11:21:22.891
243.0, 27150.216954972384, 5043.089990984201, -71353.89850782139, -66569.01586878489, -51719.6567916461, -51918.8555382318, -50286.8205650831, -60661.98625111416, -0.004, 1.012, 0.232, 192.0, 0.0, 0.0, 0.0, 0.0, 0.0, 0.0, 0.0, 0.0, 0.0, 1.654161682891742E9, 0.0, 2022-06-02 11:21:22.891
244.0, 27164.969106312885, 5049.95197653198, -71346.14245249539, -66560.65631635861, -51719.23210850145, -51927.259794146994, -50279.10921324602, -60656.8677016339, -0.004, 1.012, 0.232, 192.0, 0.0, 0.0, 0.0, 0.0, 0.0, 0.0, 0.0, 0.0, 0.0, 1.6541616828917477E9, 0.0, 2022-06-02 11:21:22.891
245.0, 27173.976859328373, 5060.636110381617, -71320.0356149716, -66538.21516492548, -51704.85993681669, -51922.47652083356, -50253.69527980033, -60628.302172220014, -0.006, 1.006, 0.232, 192.0, 255.0, 208.0, 31.0, 112.0, 7.0, 64.0, 0.0, 0.0, 0.0, 1.6541616828917527E9, 0.0, 2022-06-02 11:21:22.891
246.0, 27168.38892321455, 5060.077316770234, -71309.68675728879, -66527.62043805367, -51696.25451520139, -51916.06157017488, -50245.33572737405, -60622.53542215055, -0.006, 1.006, 0.232, 192.0, 0.0, 0.0, 0.0, 0.0, 0.0, 0.0, 0.0, 0.0, 0.0, 1.6541616828917582E9, 0.0, 2022-06-02 11:21:22.891
247.0, 27160.31994346618, 5056.590444635206, -71321.7790510391, -66537.56696433628, -51701.14954723711, -51917.24621263101, -50260.7137275593, -60638.9639543252, -0.006, 1.006, 0.232, 192.0, 0.0, 0.0, 0.0, 0.0, 0.0, 0.0, 0.0, 0.0, 0.0, 1.6541616828917634E9, 0.0, 2022-06-02 11:21:22.891
248.0, 27167.226632502872, 5053.125924244634, -71334.11721397845, -66549.39103715314, -51711.78897759783, -51922.18594815564, -50274.884733543964, -60651.83855913146, -0.006, 1.006, 0.232, 192.0, 0.0, 0.0, 0.0, 0.0, 0.0, 0.0, 0.0, 0.0, 0.0, 1.6541616828917687E9, 0.0, 2022-06-02 11:21:22.891
249.0, 27172.635754661056, 5056.769258590849, -71331.27854243261, -66548.76518830839, -51718.06981778977, -51931.730143038054, -50274.59416086604, -60652.017373087096, -0.006, 1.006, 0.232, 192.0, 0.0, 0.0, 0.0, 0.0, 0.0, 0.0, 0.0, 0.0, 0.0, 1.654161682891775E9, 0.0, 2022-06-02 11:21:22.891
250.0, 27183.699868166434, 5065.978177306435, -71308.88209448839, -66530.14618517712, -51704.03292227184, -51928.5561953254, -50251.99654722173, -60631.27495423257, -0.006, 1.006, 0.232, 192.0, 0.0, 0.0, 0.0, 0.0, 0.0, 0.0, 0.0, 0.0, 0.0, 1.654161682891781E9, 0.0, 2022-06-02 11:21:22.891
251.0, 27173.730990139367, 5063.363023205165, -71303.71884151922, -66523.68653102953, -51692.007683754884, -51916.06157017488, -50243.05584943961, -60621.03785527204, -0.006, 1.006, 0.232, 192.0, 0.0, 0.0, 0.0, 0.0, 0.0, 0.0, 0.0, 0.0, 0.0, 1.654161682891786E9, 0.0, 2022-06-02 11:21:22.891
252.0, 27155.84959457512, 5053.617662622651, -71323.70130106226, -66540.6068015822, -51700.18842222553, -51914.36283759628, -50259.88671301445, -60636.348800223925, -0.006, 1.006, 0.232, 192.0, 0.0, 0.0, 0.0, 0.0, 0.0, 0.0, 0.0, 0.0, 0.0, 1.654161682891791E9, 0.0, 2022-06-02 11:21:22.891
253.0, 27156.631905631057, 5047.158008475067, -71342.05208326007, -66557.8623483017, -51709.71026536349, -51920.12958766575, -50271.91195153141, -60654.23019578817, -0.006, 1.006, 0.232, 192.0, 0.0, 0.0, 0.0, 0.0, 0.0, 0.0, 0.0, 0.0, 0.0, 1.6541616828917964E9, 0.0, 2022-06-02 11:21:22.891
254.0, 27139.823393800663, 5033.590499590695, -71359.41938870185, -66572.70390662002, -51733.60428018621, -51941.90018676522, -50294.531916920176, -60670.85989366292, -0.006, 1.006, 0.232, 192.0, 0.0, 0.0, 0.0, 0.0, 0.0, 0.0, 0.0, 0.0, 0.0, 1.6541616828918016E9, 0.0, 2022-06-02 11:21:22.891
255.0, 27142.147975224016, 5047.001546263879, -71338.9898942697, -66549.99453425343, -51723.76951262588, -51939.62030883078, -50276.33759693356, -60649.156349796816, -0.002, 1.004, 0.234, 192.0, 255.0, 240.0, 31.0, 96.0, 7.0, 80.0, 0.0, 0.0, 0.0, 1.6541616828918073E9, 0.0, 2022-06-02 11:21:22.891
0.0, 27154.84376607463, 5058.289177213809, -71321.55553359455, -66531.66610380007, -51700.16607048107, -51915.435721330134, -50254.18701817835, -60628.41393094229, -0.002, 1.004, 0.234, 192.0, 0.0, 0.0, 0.0, 0.0, 0.0, 0.0, 0.0, 0.0, 0.0, 1.6541616828918335E9, 0.0, 2022-06-02 11:21:22.891
1.0, 27151.13337649505, 5044.453447395975, -71339.74985358118, -66546.26179292939, -51707.49744266242, -51914.832224229845, -50267.978044507276, -60644.23896601665, -0.002, 1.004, 0.234, 192.0, 0.0, 0.0, 0.0, 0.0, 0.0, 0.0, 0.0, 0.0, 0.0, 1.6541616828918386E9, 0.0, 2022-06-02 11:21:22.891
2.0, 27142.974989768863, 5029.880110011114, -71365.00732481567, -66570.08875251874, -51725.37883822666, -51929.718486037076, -50292.34144596356, -60670.50226575164, -0.002, 1.004, 0.234, 192.0, 0.0, 0.0, 0.0, 0.0, 0.0, 0.0, 0.0, 0.0, 0.0, 1.6541616828918433E9, 0.0, 2022-06-02 11:21:22.891
3.0, 27140.27042868977, 5019.777121517315, -71371.60108942998, -66579.83411310126, -51737.895815121636, -51947.28695717895, -50303.65142865794, -60680.06881237851, -0.002, 1.004, 0.234, 192.0, 0.0, 0.0, 0.0, 0.0, 0.0, 0.0, 0.0, 0.0, 0.0, 1.6541616828918483E9, 0.0, 2022-06-02 11:21:22.891
4.0, 27150.5075276503, 5027.577880332217, -71346.65654261787, -66558.04116225734, -51721.84726260272, -51945.54352111144, -50278.14808823444, -60655.57130045549, -0.002, 1.004, 0.234, 192.0, 0.0, 0.0, 0.0, 0.0, 0.0, 0.0, 0.0, 0.0, 0.0, 1.654161682891853E9, 0.0, 2022-06-02 11:21:22.891
5.0, 27159.068245776685, 5044.1181712291445, -71324.4389086293, -66531.84491775572, -51697.126233235154, -51922.56592781138, -50255.79634377913, -60632.370189710884, -0.002, 1.004, 0.234, 192.0, 0.0, 0.0, 0.0, 0.0, 0.0, 0.0, 0.0, 0.0, 0.0, 1.654161682891858E9, 0.0, 2022-06-02 11:21:22.891
6.0, 27162.823338845177, 5049.661403854061, -71328.14929820887, -66532.38135962264, -51690.1524889651, -51909.62426777175, -50257.85270426902, -60633.80070135602, -0.002, 1.004, 0.234, 192.0, 0.0, 0.0, 0.0, 0.0, 0.0, 0.0, 0.0, 0.0, 0.0, 1.654161682891863E9, 0.0, 2022-06-02 11:21:22.891
7.0, 27164.32090572368, 5047.649746853083, -71348.46703391874, -66550.1062929757, -51702.647114115614, -51918.29674462041, -50269.7661840637, -60650.47510271968, -0.002, 1.004, 0.234, 192.0, 0.0, 0.0, 0.0, 0.0, 0.0, 0.0, 0.0, 0.0, 0.0, 1.654161682891868E9, 0.0, 2022-06-02 11:21:22.891
8.0, 27155.84959457512, 5039.804284549271, -71365.07438004905, -66565.88662456116, -51724.37300972617, -51942.41427688769, -50283.847783070545, -60665.67428894929, -0.002, 1.004, 0.234, 192.0, 0.0, 0.0, 31.0, 64.0, 7.0, 80.0, 0.0, 0.0, 0.0, 1.654161682891873E9, 0.0, 2022-06-02 11:21:22.891
9.0, 27180.57062394269, 5059.406764436575, -71333.7372343227, -66535.71176954648, -51702.289486204325, -51933.02654421646, -50253.44941061133, -60633.845404844935, -0.002, 1.004, 0.234, 192.0, 0.0, 0.0, 0.0, 0.0, 0.0, 0.0, 0.0, 0.0, 0.0, 1.654161682891878E9, 0.0, 2022-06-02 11:21:22.891
10.0, 27174.110969795107, 5061.373717948642, -71319.78974578259, -66521.6525222841, -51688.0514249863, -51917.08975041983, -50248.75554427571, -60624.748244851624, -0.002, 1.004, 0.234, 192.0, 0.0, 0.0, 0.0, 0.0, 0.0, 0.0, 0.0, 0.0, 0.0, 1.654161682891883E9, 0.0, 2022-06-02 11:21:22.891
11.0, 27155.38020794156, 5044.632261351617, -71339.54868788108, -66540.33858064873, -51695.51690763437, -51917.827357986855, -50266.771050306685, -60643.6131171719, -0.002, 1.004, 0.234, 192.0, 0.0, 0.0, 0.0, 0.0, 0.0, 0.0, 0.0, 0.0, 0.0, 1.6541616828918877E9, 0.0, 2022-06-02 11:21:22.891
12.0, 27140.136318223038, 5027.711990798949, -71368.94123183981, -66571.76513335289, -51718.025114300865, -51933.31711689438, -50285.591219138056, -60666.03191686058, -0.002, 1.004, 0.234, 192.0, 0.0, 0.0, 0.0, 0.0, 0.0, 0.0, 0.0, 0.0, 0.0, 1.654161682891893E9, 0.0, 2022-06-02 11:21:22.891
13.0, 27143.600838613613, 5034.372810646631, -71367.35425798348, -66571.11693276369, -51725.445893460026, -51943.9118437662, -50285.68062611588, -60666.32248953849, -0.002, 1.004, 0.234, 192.0, 0.0, 0.0, 0.0, 0.0, 0.0, 0.0, 0.0, 0.0, 0.0, 1.6541616828918977E9, 0.0, 2022-06-02 11:21:22.891
14.0, 27168.880661592564, 5052.723592844438, -71336.55355412407, -66544.2501359284, -51705.016399027874, -51935.306422150905, -50261.20546593732, -60639.58980316995, -0.002, 1.004, 0.234, 192.0, 0.0, 0.0, 0.0, 0.0, 0.0, 0.0, 0.0, 0.0, 0.0, 1.654161682891903E9, 0.0, 2022-06-02 11:21:22.891
15.0, 27161.23636498885, 5055.7410783459045, -71319.38741438239, -66530.19088866602, -51685.63743658512, -51915.41336958568, -50241.60298605001, -60618.91443954879, -0.002, 1.004, 0.234, 192.0, 0.0, 0.0, 0.0, 0.0, 0.0, 0.0, 0.0, 0.0, 0.0, 1.654161682891908E9, 0.0, 2022-06-02 11:21:22.891
16.0, 27137.61057109959, 5040.586595605207, -71328.0822429755, -66539.31040040379, -51688.386701153126, -51907.56790728187, -50247.92852973087, -60627.51986116408, -0.002, 1.004, 0.234, 192.0, 0.0, 0.0, 0.0, 0.0, 0.0, 0.0, 0.0, 0.0, 0.0, 1.6541616828919127E9, 0.0, 2022-06-02 11:21:22.891
17.0, 27128.89339076202, 5030.99769723388, -71351.99860954269, -66560.00811576941, -51704.85993681669, -51919.34727660981, -50266.636939839955, -60651.52563470908, -0.002, 1.004, 0.234, 192.0, 0.0, 0.0, 0.0, 0.0, 0.0, 0.0, 0.0, 0.0, 0.0, 1.6541616828919177E9, 0.0, 2022-06-02 11:21:22.891
18.0, 27134.41427164248, 5034.931604258014, -71355.79840610009, -66560.32104019177, -51717.71218987849, -51929.4055616147, -50276.69522484484, -60657.58295745647, -0.008, 0.998, 0.23800000000000002, 192.0, 255.0, 192.0, 31.0, 48.0, 7.0, 112.0, 0.0, 0.0, 0.0, 1.6541616828919225E9, 0.0, 2022-06-02 11:21:22.891
19.0, 27143.489079891337, 5043.335860173209, -71333.55842036706, -66535.30943814629, -51704.256439716395, -51923.59410805632, -50253.292948400136, -60632.504300177614, -0.008, 0.998, 0.23800000000000002, 192.0, 0.0, 0.0, 0.0, 0.0, 0.0, 0.0, 0.0, 0.0, 0.0, 1.6541616828919272E9, 0.0, 2022-06-02 11:21:22.891
20.0, 27150.194603227927, 5054.869360312147, -71320.32618764951, -66515.93047570354, -51684.31868366226, -51901.62234325676, -50235.255090624705, -60613.57237262397, -0.008, 0.998, 0.23800000000000002, 192.0, 0.0, 0.0, 0.0, 0.0, 0.0, 0.0, 0.0, 0.0, 0.0, 1.654161682891932E9, 0.0, 2022-06-02 11:21:22.891
21.0, 27142.304437435203, 5045.61573810765, -71341.38153092642, -66531.19671716652, -51693.37114016666, -51899.65538974469, -50255.68458505686, -60632.437244944245, -0.008, 0.998, 0.23800000000000002, 192.0, 0.0, 0.0, 0.0, 0.0, 0.0, 0.0, 0.0, 0.0, 0.0, 1.6541616828919373E9, 0.0, 2022-06-02 11:21:22.891
22.0, 27145.32192293667, 5047.314470686254, -71362.10159803649, -66548.13933946364, -51709.82202408577, -51907.72436949306, -50276.87403880049, -60653.626698687876, -0.008, 0.998, 0.23800000000000002, 192.0, 0.0, 0.0, 0.0, 0.0, 0.0, 0.0, 0.0, 0.0, 0.0, 1.6541616828919444E9, 0.0, 2022-06-02 11:21:22.891
23.0, 27146.104233992606, 5044.296985184787, -71371.15405454088, -66559.58343262476, -51725.60235567121, -51928.1538639252, -50289.83805058456, -60667.03774536106, -0.008, 0.998, 0.23800000000000002, 192.0, 0.0, 0.0, 0.0, 0.0, 0.0, 0.0, 0.0, 0.0, 0.0, 1.654161682891949E9, 0.0, 2022-06-02 11:21:22.891
24.0, 27147.04300725973, 5052.120095744145, -71352.6915136208, -66546.32884816275, -51718.09216953423, -51936.60282332931, -50275.22000971079, -60652.151483553826, -0.008, 0.998, 0.23800000000000002, 192.0, 0.0, 0.0, 0.0, 0.0, 0.0, 0.0, 0.0, 0.0, 0.0, 1.6541616828919537E9, 0.0, 2022-06-02 11:21:22.891
25.0, 27155.961353297396, 5067.565151162762, -71326.91995226384, -66525.49702233041, -51694.1534512226, -51914.8545759743, -50255.12579144547, -60629.39740769833, -0.008, 0.998, 0.23800000000000002, 192.0, 0.0, 0.0, 0.0, 0.0, 0.0, 0.0, 0.0, 0.0, 0.0, 1.6541616828919585E9, 0.0, 2022-06-02 11:21:22.891
26.0, 27155.402559686016, 5058.825619080737, -71328.46222263125, -66531.80021426681, -51690.17484070955, -51906.718540992566, -50255.863399012494, -60634.962992067696, -0.008, 0.998, 0.23800000000000002, 192.0, 0.0, 0.0, 0.0, 0.0, 0.0, 0.0, 0.0, 0.0, 0.0, 1.6541616828919635E9, 0.0, 2022-06-02 11:21:22.891
27.0, 27151.021617772774, 5042.978232261924, -71354.74787411069, -66562.57856638177, -51712.0571985313, -51930.053762203905, -50283.423099925894, -60666.00956511612, -0.008, 0.998, 0.23800000000000002, 192.0, 0.0, 0.0, 0.0, 0.0, 0.0, 0.0, 0.0, 0.0, 0.0, 1.654161682891968E9, 0.0, 2022-06-02 11:21:22.891
28.0, 27142.349140924114, 5039.401953149075, -71364.35912422647, -66571.09458101924, -51730.542091195835, -51954.126590982276, -50297.549402421646, -60680.24762633415, -0.01, 1.002, 0.24, 192.0, 255.0, 176.0, 31.0, 80.0, 7.0, 128.0, 0.0, 0.0, 0.0, 1.6541616828919728E9, 0.0, 2022-06-02 11:21:22.891
29.0, 27145.99247527033, 5058.490342913908, -71333.3349029225, -66541.00913298239, -51708.48091941845, -51944.33652691085, -50260.780782792666, -60644.99892532813, -0.01, 1.002, 0.24, 192.0, 0.0, 0.0, 0.0, 0.0, 0.0, 0.0, 0.0, 0.0, 0.0, 1.6541616828919778E9, 0.0, 2022-06-02 11:21:22.891
30.0, 27148.160594482495, 5068.839200596714, -71309.46323984423, -66520.3561211057, -51681.949398749995, -51917.78265449795, -50231.23177662275, -60619.2050122267, -0.01, 1.002, 0.24, 192.0, 0.0, 0.0, 0.0, 0.0, 0.0, 0.0, 0.0, 0.0, 0.0, 1.6541616828919828E9, 0.0, 2022-06-02 11:21:22.891
31.0, 27144.360797925092, 5054.891712056603, -71326.62937958591, -66538.52808934785, -51690.13013722064, -51917.1568056532, -50246.87799774147, -60635.90176533482, -0.01, 1.002, 0.24, 192.0, 0.0, 0.0, 0.0, 0.0, 0.0, 0.0, 0.0, 0.0, 0.0, 1.6541616828919876E9, 0.0, 2022-06-02 11:21:22.891
32.0, 27137.498812377315, 5047.672098597539, -71352.5350514096, -66561.28216520336, -51707.72096010697, -51926.70100053561, -50274.59416086604, -60659.66166969081, -0.01, 1.002, 0.24, 192.0, 0.0, 0.0, 0.0, 0.0, 0.0, 0.0, 0.0, 0.0, 0.0, 1.6541616828919923E9, 0.0, 2022-06-02 11:21:22.891
33.0, 27123.17134418146, 5033.746961801882, -71372.4951592082, -66578.18008401158, -51730.76560864039, -51949.633890346755, -50292.90023957494, -60676.20196058774, -0.01, 1.002, 0.24, 192.0, 0.0, 0.0, 0.0, 0.0, 0.0, 0.0, 0.0, 0.0, 0.0, 1.654161682891997E9, 0.0, 2022-06-02 11:21:22.891
34.0, 27152.407425929003, 5048.8120375647595, -71345.29308620609, -66547.89347027463, -51711.945439809024, -51940.71554430909, -50258.43384962486, -60641.601460170925, -0.01, 1.002, 0.24, 192.0, 0.0, 0.0, 0.0, 0.0, 0.0, 0.0, 0.0, 0.0, 0.0, 1.654161682892002E9, 0.0, 2022-06-02 11:21:22.892
35.0, 27145.32192293667, 5054.71289810096, -71327.92578076432, -66535.91293524658, -51691.0018552544, -51924.44347434562, -50241.17830290536, -60626.04464603003, -0.01, 1.002, 0.24, 192.0, 0.0, 0.0, 0.0, 0.0, 0.0, 0.0, 0.0, 0.0, 0.0, 1.6541616828920069E9, 0.0, 2022-06-02 11:21:22.892
36.0, 27121.51731509177, 5046.867435797148, -71334.5418971231, -66544.18308069505, -51689.3478261647, -51916.218032386074, -50247.36973611948, -60633.66659088929, -0.01, 1.002, 0.24, 192.0, 0.0, 0.0, 0.0, 0.0, 0.0, 0.0, 0.0, 0.0, 0.0, 1.6541616828920116E9, 0.0, 2022-06-02 11:21:22.892
37.0, 27115.99643421131, 5030.394200133586, -71364.80615911557, -66576.10137177723, -51715.924050322064, -51936.08873320684, -50282.35021619203, -60665.62958546038, -0.01, 1.002, 0.24, 192.0, 0.0, 0.0, 0.0, 0.0, 0.0, 0.0, 0.0, 0.0, 0.0, 1.6541616828920164E9, 0.0, 2022-06-02 11:21:22.892
38.0, 27107.726288762846, 5024.426284364019, -71378.99951684469, -66591.94875859605, -51733.51487320839, -51957.83698056186, -50292.855536086034, -60678.14656235535, -0.012, 0.998, 0.234, 192.0, 255.0, 160.0, 31.0, 48.0, 7.0, 80.0, 0.0, 0.0, 0.0, 1.6541616828920212E9, 0.0, 2022-06-02 11:21:22.892
39.0, 27114.297701632706, 5025.141540186589, -71362.72744688124, -66576.48135143297, -51726.71994289398, -51958.172256728685, -50272.62720735398, -60657.42649524528, -0.012, 0.998, 0.234, 192.0, 0.0, 0.0, 0.0, 0.0, 0.0, 0.0, 0.0, 0.0, 0.0, 1.6541616828920262E9, 0.0, 2022-06-02 11:21:22.892
40.0, 27130.480364618346, 5035.937432758503, -71340.57686812602, -66553.59316511074, -51704.41290192758, -51934.34529713933, -50253.47176235578, -60633.04074204454, -0.012, 0.998, 0.234, 192.0, 0.0, 0.0, 0.0, 0.0, 0.0, 0.0, 0.0, 0.0, 0.0, 1.654161682892031E9, 0.0, 2022-06-02 11:21:22.892
41.0, 27134.66014083149, 5036.965613003446, -71346.83535657352, -66552.45322614351, -51703.205907726995, -51917.78265449795, -50257.87505601347, -60635.588840912445, -0.012, 0.998, 0.234, 192.0, 0.0, 0.0, 0.0, 0.0, 0.0, 0.0, 0.0, 0.0, 0.0, 1.6541616828920355E9, 0.0, 2022-06-02 11:21:22.892
42.0, 27120.71265229138, 5016.603173804662, -71377.68076392183, -66579.4094299566, -51730.966774340486, -51936.58047158486, -50290.70976861832, -60668.75882968412, -0.012, 0.998, 0.234, 192.0, 0.0, 0.0, 0.0, 0.0, 0.0, 0.0, 0.0, 0.0, 0.0, 1.6541616828920405E9, 0.0, 2022-06-02 11:21:22.892
43.0, 27115.191771410915, 5017.027856949313, -71386.12972332594, -66585.15382828162, -51747.77528617088, -51950.974995014076, -50303.763187380224, -60679.59942574495, -0.012, 0.998, 0.234, 192.0, 0.0, 0.0, 0.0, 0.0, 0.0, 0.0, 0.0, 0.0, 0.0, 1.6541616828920472E9, 0.0, 2022-06-02 11:21:22.892
44.0, 27129.60864658459, 5038.373772904131, -71355.53018516663, -66557.59412736823, -51729.40215222861, -51941.587262342844, -50277.20931496732, -60650.899785864334, -0.012, 0.998, 0.234, 192.0, 0.0, 0.0, 0.0, 0.0, 0.0, 0.0, 0.0, 0.0, 0.0, 1.654161682892052E9, 0.0, 2022-06-02 11:21:22.892
45.0, 27137.252943188305, 5047.895616042092, -71337.58173436901, -66542.3502376497, -51712.75010260941, -51924.62228830127, -50258.92558800287, -60634.270087989586, -0.012, 0.998, 0.234, 192.0, 0.0, 0.0, 0.0, 0.0, 0.0, 0.0, 0.0, 0.0, 0.0, 1.6541616828920567E9, 0.0, 2022-06-02 11:21:22.892
46.0, 27131.530896607746, 5045.61573810765, -71350.47869091973, -66550.64273484264, -51716.281678233354, -51923.907032478695, -50272.649559098434, -60651.726800409175, -0.012, 0.998, 0.234, 192.0, 0.0, 0.0, 0.0, 0.0, 0.0, 0.0, 0.0, 0.0, 0.0, 1.6541616828920617E9, 0.0, 2022-06-02 11:21:22.892
47.0, 27126.47940236085, 5032.405857134564, -71378.55248195559, -66576.34724096624, -51739.974527355975, -51942.70484956561, -50303.137338535475, -60683.95801591373, -0.012, 0.998, 0.234, 192.0, 0.0, 0.0, 0.0, 0.0, 0.0, 0.0, 0.0, 0.0, 0.0, 1.6541616828920665E9, 0.0, 2022-06-02 11:21:22.892
48.0, 27136.537687365733, 5034.417514135542, -71375.02090633166, -66576.52605492188, -51745.83068440326, -51949.94681476913, -50301.326847234595, -60684.58386475848, -0.014, 1.002, 0.23600000000000002, 192.0, 255.0, 144.0, 31.0, 80.0, 7.0, 96.0, 0.0, 0.0, 0.0, 1.6541616828920712E9, 0.0, 2022-06-02 11:21:22.892
49.0, 27142.147975224016, 5048.655575353572, -71350.90337406438, -66559.06934250228, -51731.659678418604, -51947.21990194558, -50276.13643123346, -60661.13688482486, -0.014, 1.002, 0.23600000000000002, 192.0, 0.0, 0.0, 0.0, 0.0, 0.0, 0.0, 0.0, 0.0, 0.0, 1.654161682892076E9, 0.0, 2022-06-02 11:21:22.892
50.0, 27145.836013059143, 5052.500075399885, -71334.67600758982, -66546.3064964183, -51711.07372177526, -51933.205358172105, -50258.456201369314, -60644.596593927934, -0.014, 1.002, 0.23600000000000002, 192.0, 0.0, 0.0, 0.0, 0.0, 0.0, 0.0, 0.0, 0.0, 0.0, 1.6541616828920808E9, 0.0, 2022-06-02 11:21:22.892
51.0, 27149.07701600516, 5049.482589898418, -71333.8936965339, -66547.08880747424, -51700.81427107028, -51915.54748005241, -50257.98681473575, -60643.277841005074, -0.014, 1.002, 0.23600000000000002, 192.0, 0.0, 0.0, 0.0, 0.0, 0.0, 0.0, 0.0, 0.0, 0.0, 1.6541616828920856E9, 0.0, 2022-06-02 11:21:22.892
52.0, 27135.442451887426, 5041.503017127874, -71354.41259794385, -66569.35114495172, -51718.11452127869, -51926.365724368785, -50277.99162602325, -60666.03191686058, -0.014, 1.002, 0.23600000000000002, 192.0, 0.0, 0.0, 0.0, 0.0, 0.0, 0.0, 0.0, 0.0, 0.0, 1.6541616828920903E9, 0.0, 2022-06-02 11:21:22.892
53.0, 27121.249094158306, 5030.237737922399, -71371.17640628533, -66584.59503467024, -51741.516797723394, -51952.80783805941, -50292.14028026346, -60681.7228414682, -0.014, 1.002, 0.23600000000000002, 192.0, 0.0, 0.0, 0.0, 0.0, 0.0, 0.0, 0.0, 0.0, 0.0, 1.6541616828920953E9, 0.0, 2022-06-02 11:21:22.892
54.0, 27138.392882155524, 5042.195921205988, -71353.04914153209, -66569.68642111855, -51736.353544754216, -51954.104239237815, -50278.28219870117, -60662.58974821446, -0.014, 1.002, 0.23600000000000002, 192.0, 0.0, 0.0, 0.0, 0.0, 0.0, 0.0, 0.0, 0.0, 0.0, 1.6541616828921E9, 0.0, 2022-06-02 11:21:22.892
55.0, 27131.352082652105, 5045.593386363195, -71337.2911616911, -66551.6038598542, -51717.98041081196, -51937.22867217406, -50259.171457191886, -60644.8648148614, -0.014, 1.002, 0.23600000000000002, 192.0, 0.0, 0.0, 0.0, 0.0, 0.0, 0.0, 0.0, 0.0, 0.0, 1.6541616828921049E9, 0.0, 2022-06-02 11:21:22.892
56.0, 27116.46582084487, 5042.441790394997, -71345.89658330638, -66552.78850231034, -51717.98041081196, -51928.444436603124, -50267.93334101836, -60652.73262890967, -0.014, 1.002, 0.23600000000000002, 192.0, 0.0, 0.0, 0.0, 0.0, 0.0, 0.0, 0.0, 0.0, 0.0, 1.6541616828921099E9, 0.0, 2022-06-02 11:21:22.892
57.0, 27123.148992437007, 5036.317412414242, -71358.72648462374, -66561.79625532583, -51729.692724906534, -51931.3054598934, -50286.57469589409, -60668.82588491749, -0.014, 1.002, 0.23600000000000002, 192.0, 0.0, 0.0, 0.0, 0.0, 0.0, 0.0, 0.0, 0.0, 0.0, 1.6541616828921146E9, 0.0, 2022-06-02 11:21:22.892
58.0, 27126.434698871937, 5033.1881681905, -71365.3426009825, -66563.24911871542, -51742.74614366843, -51942.95071875462, -50293.414329697414, -60671.6198529744, -0.01, 1.004, 0.23800000000000002, 192.0, 255.0, 176.0, 31.0, 96.0, 7.0, 112.0, 0.0, 0.0, 0.0, 1.6541616828921196E9, 0.0, 2022-06-02 11:21:22.892
59.0, 27141.119794979073, 5048.610871864662, -71343.97433328323, -66537.20933642499, -51731.21264352949, -51938.79329428593, -50272.76131782071, -60645.49066370615, -0.01, 1.004, 0.23800000000000002, 192.0, 0.0, 0.0, 0.0, 0.0, 0.0, 0.0, 0.0, 0.0, 0.0, 1.6541616828921244E9, 0.0, 2022-06-02 11:21:22.892
60.0, 27152.630943373555, 5064.5476656612955, -71316.52639109212, -66507.70503374399, -51702.35654143769, -51908.12670089325, -50243.636994795444, -60613.59472436843, -0.01, 1.004, 0.23800000000000002, 192.0, 0.0, 0.0, 0.0, 0.0, 0.0, 0.0, 0.0, 0.0, 0.0, 1.6541616828921292E9, 0.0, 2022-06-02 11:21:22.892
61.0, 27152.027446273263, 5056.992776035402, -71325.40003364086, -66517.53980130432, -51700.88132630364, -51899.34246532231, -50251.393050121434, -60620.88139306085, -0.01, 1.004, 0.23800000000000002, 192.0, 0.0, 0.0, 0.0, 0.0, 0.0, 0.0, 0.0, 0.0, 0.0, 1.654161682892134E9, 0.0, 2022-06-02 11:21:22.892
62.0, 27146.19364097043, 5045.369868918642, -71348.60114438548, -66543.199603939, -51716.19227125553, -51908.32786659335, -50271.84489629804, -60643.05432356052, -0.01, 1.004, 0.23800000000000002, 192.0, 0.0, 0.0, 0.0, 0.0, 0.0, 0.0, 0.0, 0.0, 0.0, 1.6541616828921387E9, 0.0, 2022-06-02 11:21:22.892
63.0, 27137.409405399492, 5038.060848481757, -71361.11812128045, -66560.4104471696, -51731.70438190751, -51927.93034648065, -50280.070338257596, -60653.49258822115, -0.01, 1.004, 0.23800000000000002, 192.0, 0.0, 0.0, 0.0, 0.0, 0.0, 0.0, 0.0, 0.0, 0.0, 1.6541616828921435E9, 0.0, 2022-06-02 11:21:22.892
64.0, 27153.23444047385, 5042.978232261924, -71341.22506871523, -66545.457130129, -51719.634439901645, -51925.96339296859, -50256.712765301796, -60630.60440189891, -0.01, 1.004, 0.23800000000000002, 192.0, 0.0, 0.0, 0.0, 0.0, 0.0, 0.0, 0.0, 0.0, 0.0, 1.6541616828921502E9, 0.0, 2022-06-02 11:21:22.892
65.0, 27146.148937481517, 5049.773162576337, -71320.97438823873, -66532.47076660047, -51699.56257338078, -51909.4007503272, -50238.76431450419, -60613.930000535256, -0.01, 1.004, 0.23800000000000002, 192.0, 0.0, 0.0, 0.0, 0.0, 0.0, 0.0, 0.0, 0.0, 0.0, 1.654161682892155E9, 0.0, 2022-06-02 11:21:22.892
66.0, 27136.649446088013, 5050.801342821282, -71320.77322253863, -66530.92849623306, -51692.432366899535, -51893.1957355971, -50240.351288360514, -60614.42173891327, -0.01, 1.004, 0.23800000000000002, 192.0, 0.0, 0.0, 0.0, 0.0, 0.0, 0.0, 0.0, 0.0, 0.0, 1.6541616828921604E9, 0.0, 2022-06-02 11:21:22.892
67.0, 27136.157707709994, 5045.61573810765, -71342.05208326007, -66551.89443253214, -51705.26226821688, -51904.17044212466, -50255.28225365666, -60637.86871884689, -0.01, 1.004, 0.23800000000000002, 192.0, 0.0, 0.0, 0.0, 0.0, 0.0, 0.0, 0.0, 0.0, 0.0, 1.6541616828921652E9, 0.0, 2022-06-02 11:21:22.892
68.0, 27130.346254151616, 5038.217310692944, -71360.82754860254, -66569.57466239628, -51728.0610475613, -51931.12664593776, -50276.42700391138, -60661.09218133595, -0.01, 1.006, 0.23600000000000002, 192.0, 255.0, 176.0, 31.0, 112.0, 7.0, 96.0, 0.0, 0.0, 0.0, 1.65416168289217E9, 0.0, 2022-06-02 11:21:22.892
69.0, 27132.156745452496, 5040.5418921162955, -71347.39415018489, -66554.9119180336, -51725.84822486022, -51943.9118437662, -50270.615550353, -60654.52076846609, -0.01, 1.006, 0.23600000000000002, 192.0, 0.0, 0.0, 0.0, 0.0, 0.0, 0.0, 0.0, 0.0, 0.0, 1.6541616828921747E9, 0.0, 2022-06-02 11:21:22.892
70.0, 27154.642600374533, 5052.47772365543, -71324.55066735156, -66532.11313868918, -51700.38958792563, -51923.81762550087, -50244.08402968455, -60631.02908504356, -0.01, 1.006, 0.23600000000000002, 192.0, 0.0, 0.0, 0.0, 0.0, 0.0, 0.0, 0.0, 0.0, 0.0, 1.6541616828921795E9, 0.0, 2022-06-02 11:21:22.892
71.0, 27152.8097573292, 5054.288214956309, -71327.07641447501, -66532.67193230057, -51693.01351225538, -51912.19471838412, -50244.262843640194, -60635.54413742354, -0.01, 1.006, 0.23600000000000002, 192.0, 0.0, 0.0, 0.0, 0.0, 0.0, 0.0, 0.0, 0.0, 0.0, 1.6541616828921845E9, 0.0, 2022-06-02 11:21:22.892
72.0, 27138.23641994434, 5042.084162483712, -71348.44468217429, -66549.59220285324, -51711.05137003081, -51923.147073167216, -50271.28610268666, -60659.30404177953, -0.01, 1.006, 0.23600000000000002, 192.0, 0.0, 0.0, 0.0, 0.0, 0.0, 0.0, 0.0, 0.0, 0.0, 1.6541616828921893E9, 0.0, 2022-06-02 11:21:22.892
73.0, 27143.243210702327, 5041.704182827972, -71353.16090025436, -66549.68160983105, -51719.969716068474, -51928.5561953254, -50276.203486466824, -60660.265166791105, -0.01, 1.006, 0.23600000000000002, 192.0, 0.0, 0.0, 0.0, 0.0, 0.0, 0.0, 0.0, 0.0, 0.0, 1.654161682892194E9, 0.0, 2022-06-02 11:21:22.892
74.0, 27151.5580596397, 5049.706107342971, -71337.15705122436, -66533.18602242303, -51711.18548049754, -51928.399733114216, -50255.70693680131, -60640.550928181525, -0.01, 1.006, 0.23600000000000002, 192.0, 0.0, 0.0, 0.0, 0.0, 0.0, 0.0, 0.0, 0.0, 0.0, 1.6541616828921988E9, 0.0, 2022-06-02 11:21:22.892
75.0, 27140.695111834422, 5049.9296247875245, -71328.99866449817, -66526.36874036417, -51698.28852394683, -51917.89441322022, -50242.00531745021, -60627.56456465299, -0.01, 1.006, 0.23600000000000002, 192.0, 0.0, 0.0, 0.0, 0.0, 0.0, 0.0, 0.0, 0.0, 0.0, 1.6541616828922036E9, 0.0, 2022-06-02 11:21:22.892
76.0, 27139.331655422648, 5047.202711963977, -71336.77707156862, -66535.04121721283, -51695.38279716764, -51910.27246836096, -50250.700146043324, -60633.063093788995, -0.01, 1.006, 0.23600000000000002, 192.0, 0.0, 0.0, 0.0, 0.0, 0.0, 0.0, 0.0, 0.0, 0.0, 1.6541616828922083E9, 0.0, 2022-06-02 11:21:22.892
77.0, 27129.072204717664, 5036.1385984586, -71357.83241484551, -66556.32007793427, -51711.63251538665, -51920.28604987694, -50273.45422189882, -60654.67723067728, -0.01, 1.006, 0.23600000000000002, 192.0, 0.0, 0.0, 0.0, 0.0, 0.0, 0.0, 0.0, 0.0, 0.0, 1.654161682892213E9, 0.0, 2022-06-02 11:21:22.892
78.0, 27123.08193720364, 5028.002563476868, -71372.29399350811, -66573.17329325358, -51733.7607423974, -51941.56491059839, -50284.5183354042, -60667.97651862819, -0.01, 1.004, 0.23, 192.0, 255.0, 176.0, 31.0, 96.0, 7.0, 48.0, 0.0, 0.0, 0.0, 1.654161682892218E9, 0.0, 2022-06-02 11:21:22.892
79.0, 27128.826335528654, 5038.172607204033, -71353.51852816564, -66559.58343262476, -51727.61401267219, -51946.79521880093, -50267.978044507276, -60651.57033819799, -0.01, 1.004, 0.23, 192.0, 0.0, 0.0, 0.0, 0.0, 0.0, 0.0, 0.0, 0.0, 0.0, 1.654161682892223E9, 0.0, 2022-06-02 11:21:22.892
80.0, 27141.253905445803, 5053.349441689186, -71325.71295806325, -66531.77786252236, -51698.26617220237, -51922.56592781138, -50243.81580875109, -60625.48585241865, -0.01, 1.004, 0.23, 192.0, 0.0, 0.0, 0.0, 0.0, 0.0, 0.0, 0.0, 0.0, 0.0, 1.6541616828922276E9, 0.0, 2022-06-02 11:21:22.892
81.0, 27133.386091397537, 5043.224101450933, -71341.26977220413, -66540.38328413764, -51700.27782920335, -51920.911898721686, -50251.884788499454, -60638.33810548045, -0.01, 1.004, 0.23, 192.0, 0.0, 0.0, 0.0, 0.0, 0.0, 0.0, 0.0, 0.0, 0.0, 1.6541616828922324E9, 0.0, 2022-06-02 11:21:22.892
82.0, 27133.073166975162, 5041.167740961045, -71358.48061543473, -66555.18013896706, -51712.66069563159, -51928.5561953254, -50265.47464912828, -60654.47606497718, -0.01, 1.004, 0.23, 192.0, 0.0, 0.0, 0.0, 0.0, 0.0, 0.0, 0.0, 0.0, 0.0, 1.6541616828922372E9, 0.0, 2022-06-02 11:21:22.892
83.0, 27152.116853251086, 5048.9908515204015, -71358.25709799016, -66555.06838024477, -51717.265154989385, -51934.97114598408, -50265.47464912828, -60652.97849809867, -0.01, 1.004, 0.23, 192.0, 0.0, 0.0, 0.0, 0.0, 0.0, 0.0, 0.0, 0.0, 0.0, 1.654161682892242E9, 0.0, 2022-06-02 11:21:22.892
84.0, 27148.85349856061, 5048.208540464466, -71340.95684778177, -66540.27152541537, -51713.7559311099, -51937.58630008534, -50255.05873621211, -60639.634506658855, -0.01, 1.004, 0.23, 192.0, 0.0, 0.0, 0.0, 0.0, 0.0, 0.0, 0.0, 0.0, 0.0, 1.6541616828922467E9, 0.0, 2022-06-02 11:21:22.892
85.0, 27135.397748398515, 5047.202711963977, -71326.67408307482, -66527.44162409802, -51699.67433210306, -51922.40946560019, -50237.71378251479, -60620.90374480531, -0.01, 1.004, 0.23, 192.0, 0.0, 0.0, 0.0, 0.0, 0.0, 0.0, 0.0, 0.0, 0.0, 1.6541616828922515E9, 0.0, 2022-06-02 11:21:22.892
86.0, 27140.918629278975, 5045.481627640918, -71330.85385928796, -66531.04025495533, -51697.84148905772, -51906.47267180356, -50242.385297105946, -60624.122396006875, -0.01, 1.004, 0.23, 192.0, 0.0, 0.0, 0.0, 0.0, 0.0, 0.0, 0.0, 0.0, 0.0, 1.654161682892258E9, 0.0, 2022-06-02 11:21:22.892
87.0, 27130.435661129435, 5039.737229315905, -71354.90433632188, -66552.18500521005, -51718.85212884571, -51915.36866609677, -50270.72730907528, -60652.03972483155, -0.01, 1.004, 0.23, 192.0, 0.0, 0.0, 0.0, 0.0, 0.0, 0.0, 0.0, 0.0, 0.0, 1.6541616828924255E9, 0.0, 2022-06-02 11:21:22.892
88.0, 27131.97793149685, 5037.122075214634, -71359.5982026575, -66556.34242967874, -51731.48086446296, -51926.32102087987, -50278.66217835691, -60657.873530134384, -0.01, 1.004, 0.234, 192.0, 255.0, 176.0, 31.0, 96.0, 7.0, 80.0, 0.0, 0.0, 0.0, 1.6541616828924308E9, 0.0, 2022-06-02 11:21:22.892
89.0, 27153.41325442949, 5056.344575446198, -71329.26688543164, -66527.91101073158, -51714.76175961039, -51914.98868644103, -50253.11413444449, -60627.56456465299, -0.01, 1.004, 0.234, 192.0, 0.0, 0.0, 0.0, 0.0, 0.0, 0.0, 0.0, 0.0, 0.0, 1.6541616828924356E9, 0.0, 2022-06-02 11:21:22.892
90.0, 27153.61442012959, 5060.233778981421, -71314.29121664658, -66517.38333909314, -51696.74625357941, -51905.15391888069, -50234.98686969124, -60613.03593075704, -0.01, 1.004, 0.234, 192.0, 0.0, 0.0, 0.0, 0.0, 0.0, 0.0, 0.0, 0.0, 0.0, 1.654161682892441E9, 0.0, 2022-06-02 11:21:22.892
91.0, 27158.37534169857, 5061.798401093292, -71313.46420210174, -66517.91978096006, -51688.0514249863, -51891.11702336276, -50235.76918074718, -60614.533497635544, -0.01, 1.004, 0.234, 192.0, 0.0, 0.0, 0.0, 0.0, 0.0, 0.0, 0.0, 0.0, 0.0, 1.654161682892446E9, 0.0, 2022-06-02 11:21:22.892
92.0, 27142.639713602035, 5046.420400908041, -71345.13662399491, -66550.2627551869, -51714.98527705494, -51909.288991604924, -50266.771050306685, -60649.11164630791, -0.01, 1.004, 0.234, 192.0, 0.0, 0.0, 0.0, 0.0, 0.0, 0.0, 0.0, 0.0, 0.0, 1.6541616828924508E9, 0.0, 2022-06-02 11:21:22.892
93.0, 27138.57169611117, 5043.715839828949, -71355.93251656683, -66559.78459832486, -51729.357448739705, -51929.74083778153, -50277.276370200685, -60660.19811155774, -0.01, 1.004, 0.234, 192.0, 0.0, 0.0, 0.0, 0.0, 0.0, 0.0, 0.0, 0.0, 0.0, 1.6541616828926277E9, 0.0, 2022-06-02 11:21:22.892
94.0, 27142.863231046587, 5048.09678174219, -71332.86551628895, -66541.38911263813, -51720.37204746867, -51930.545500581924, -50261.80896303761, -60641.310887493004, -0.01, 1.004, 0.234, 192.0, 0.0, 0.0, 0.0, 0.0, 0.0, 0.0, 0.0, 0.0, 0.0, 1.6541616828926327E9, 0.0, 2022-06-02 11:21:22.892
95.0, 27145.299571192216, 5058.445639424996, -71306.44575434277, -66519.1044234162, -51696.47803264595, -51910.2501166165, -50235.34449760253, -60616.34398893642, -0.01, 1.004, 0.234, 192.0, 0.0, 0.0, 0.0, 0.0, 0.0, 0.0, 0.0, 0.0, 0.0, 1.6541616828926399E9, 0.0, 2022-06-02 11:21:22.892
96.0, 27131.21797218537, 5046.442752652497, -71320.52735334961, -66530.77203402187, -51700.478994903446, -51906.6514857592, -50247.16857041938, -60630.31382922099, -0.01, 1.004, 0.234, 192.0, 0.0, 0.0, 0.0, 0.0, 0.0, 0.0, 0.0, 0.0, 0.0, 1.654161682892645E9, 0.0, 2022-06-02 11:21:22.892
97.0, 27120.355024380093, 5030.32714490022, -71348.91406880785, -66552.18500521005, -51723.72480913697, -51920.911898721686, -50275.82350681109, -60659.32639352398, -0.004, 1.0, 0.234, 192.0, 255.0, 224.0, 31.0, 64.0, 7.0, 80.0, 0.0, 0.0, 0.0, 1.6541616828926497E9, 0.0, 2022-06-02 11:21:22.892
98.0, 27122.7019575479, 5029.008391977357, -71358.68178113482, -66558.2646797019, -51738.34285001074, -51933.92061399468, -50286.93232380538, -60666.81422791651, -0.004, 1.0, 0.234, 192.0, 0.0, 0.0, 0.0, 0.0, 0.0, 0.0, 0.0, 0.0, 0.0, 1.6541616828926544E9, 0.0, 2022-06-02 11:21:22.892
99.0, 27138.526992622257, 5048.09678174219, -71330.20565869876, -66529.40857761008, -51719.209756756994, -51921.962430711086, -50257.31626240209, -60632.48194843316, -0.004, 1.0, 0.234, 192.0, 0.0, 0.0, 0.0, 0.0, 0.0, 0.0, 0.0, 0.0, 0.0, 1.6541616828926592E9, 0.0, 2022-06-02 11:21:22.892
100.0, 27156.18487074195, 5067.341633718209, -71298.7791059946, -66498.47376328394, -51685.36921565166, -51890.22295358455, -50218.31246832758, -60596.38388113784, -0.004, 1.0, 0.234, 192.0, 0.0, 0.0, 0.0, 0.0, 0.0, 0.0, 0.0, 0.0, 0.0, 1.654161682892664E9, 0.0, 2022-06-02 11:21:22.892
101.0, 27141.142146723527, 5056.769258590849, -71317.86749575943, -66516.6457315261, -51694.42167215606, -51888.30070356139, -50236.931471458855, -60612.63359935684, -0.004, 1.0, 0.234, 192.0, 0.0, 0.0, 0.0, 0.0, 0.0, 0.0, 0.0, 0.0, 0.0, 1.6541616828926692E9, 0.0, 2022-06-02 11:21:22.892
102.0, 27122.456088358893, 5041.793589805793, -71349.69637986379, -66548.206394697, -51722.58487016975, -51908.05964565989, -50271.867248042494, -60644.730704394664, -0.004, 1.0, 0.234, 192.0, 0.0, 0.0, 0.0, 0.0, 0.0, 0.0, 0.0, 0.0, 0.0, 1.654161682892674E9, 0.0, 2022-06-02 11:21:22.892
103.0, 27130.61447508508, 5047.850912553181, -71355.10550202198, -66551.29093543184, -51733.22430053047, -51922.49887257801, -50279.17626847938, -60653.269070776594, -0.004, 1.0, 0.234, 192.0, 0.0, 0.0, 0.0, 0.0, 0.0, 0.0, 0.0, 0.0, 0.0, 1.6541616828926787E9, 0.0, 2022-06-02 11:21:22.892
104.0, 27136.94001876593, 5056.56809289075, -71335.16774596785, -66531.28612414433, -51723.054256803305, -51922.14124466673, -50260.624320581475, -60635.43237870126, -0.004, 1.0, 0.234, 192.0, 0.0, 0.0, 0.0, 0.0, 0.0, 0.0, 0.0, 0.0, 0.0, 1.6541616828926837E9, 0.0, 2022-06-02 11:21:22.892
105.0, 27145.031350258752, 5059.607930136673, -71317.24164691468, -66513.80705998029, -51704.01057052739, -51903.67870374664, -50242.56411106159, -60615.20404996921, -0.004, 1.0, 0.234, 192.0, 0.0, 0.0, 0.0, 0.0, 0.0, 0.0, 0.0, 0.0, 0.0, 1.6541616828926885E9, 0.0, 2022-06-02 11:21:22.892
106.0, 27143.198507213416, 5058.33388070272, -71327.6352080864, -66522.56894380676, -51700.52369839236, -51895.36385480927, -50239.725439515765, -60620.0096750271, -0.004, 1.0, 0.234, 192.0, 0.0, 0.0, 0.0, 0.0, 0.0, 0.0, 0.0, 0.0, 0.0, 1.6541616828926933E9, 0.0, 2022-06-02 11:21:22.892
107.0, 27131.150916952007, 5045.548682874284, -71353.5408799101, -66544.58541209524, -51718.67331489007, -51906.31620959237, -50262.12188745998, -60642.07084680448, -0.006, 1.0, 0.23800000000000002, 192.0, 255.0, 208.0, 31.0, 64.0, 7.0, 112.0, 0.0, 0.0, 0.0, 1.654161683371027E9, 0.0, 2022-06-02 11:21:23.371
108.0, 27122.12081219206, 5033.881072268614, -71377.01021158817, -66566.69128736154, -51745.160132069606, -51933.42887561666, -50283.0207685257, -60663.50616973713, -0.006, 1.0, 0.23800000000000002, 192.0, 0.0, 0.0, 0.0, 0.0, 0.0, 0.0, 0.0, 0.0, 0.0, 1.654161683371273E9, 0.0, 2022-06-02 11:21:23.371
109.0, 27127.79815528371, 5053.975290533936, -71352.0880165205, -66546.82058654078, -51732.28552726335, -51932.914785494184, -50257.204503679815, -60641.176777026274, -0.006, 1.0, 0.23800000000000002, 192.0, 0.0, 0.0, 0.0, 0.0, 0.0, 0.0, 0.0, 0.0, 0.0, 1.6541616833712792E9, 0.0, 2022-06-02 11:21:23.371
110.0, 27125.60768432709, 5054.087049256212, -71333.42430990032, -66528.67097004307, -51713.37595145416, -51915.435721330134, -50236.46208482529, -60619.33912269344, -0.006, 1.0, 0.23800000000000002, 192.0, 0.0, 0.0, 0.0, 0.0, 0.0, 0.0, 0.0, 0.0, 0.0, 1.6541616833712845E9, 0.0, 2022-06-02 11:21:23.371
111.0, 27129.474536117857, 5057.104534757678, -71329.02101624264, -66522.3007228733, -51696.209811712484, -51892.27931407444, -50226.35909633149, -60610.26431444458, -0.006, 1.0, 0.23800000000000002, 192.0, 0.0, 0.0, 0.0, 0.0, 0.0, 0.0, 0.0, 0.0, 0.0, 1.6541616833712895E9, 0.0, 2022-06-02 11:21:23.371
112.0, 27126.546457594213, 5042.844121795192, -71353.85380433248, -66546.08297897375, -51715.96875381098, -51903.499889791005, -50254.812867023094, -60637.84636710243, -0.006, 1.0, 0.23800000000000002, 192.0, 0.0, 0.0, 0.0, 0.0, 0.0, 0.0, 0.0, 0.0, 0.0, 1.6541616833712952E9, 0.0, 2022-06-02 11:21:23.371
113.0, 27124.46774535987, 5037.434999637008, -71363.12977828142, -66556.43183665656, -51729.558614439804, -51918.542613809426, -50262.68068107137, -60645.96005033971, -0.006, 1.0, 0.23800000000000002, 192.0, 0.0, 0.0, 0.0, 0.0, 0.0, 0.0, 0.0, 0.0, 0.0, 1.6541616833713E9, 0.0, 2022-06-02 11:21:23.371
114.0, 27117.449297600902, 5041.346554916687, -71354.01026654366, -66548.22874644145, -51728.172806283575, -51928.06445694739, -50255.48341935676, -60637.9134223358, -0.006, 1.0, 0.23800000000000002, 192.0, 0.0, 0.0, 0.0, 0.0, 0.0, 0.0, 0.0, 0.0, 0.0, 1.6541616833713048E9, 0.0, 2022-06-02 11:21:23.371
115.0, 27136.917667021477, 5052.321261444243, -71329.71392032075, -66526.12287117516, -51705.508137405894, -51910.04895091641, -50235.523311558165, -60616.165174980786, -0.006, 1.0, 0.23800000000000002, 192.0, 0.0, 0.0, 0.0, 0.0, 0.0, 0.0, 0.0, 0.0, 0.0, 1.6541616833713098E9, 0.0, 2022-06-02 11:21:23.371
116.0, 27143.153803724505, 5054.154104489578, -71329.42334764282, -66526.03346419733, -51697.93089603554, -51895.6991309761, -50240.66421278289, -60620.61317212739, -0.006, 1.0, 0.23800000000000002, 192.0, 0.0, 0.0, 0.0, 0.0, 0.0, 0.0, 0.0, 0.0, 0.0, 1.654161683371316E9, 0.0, 2022-06-02 11:21:23.371
117.0, 27127.70874830589, 5039.6031188491725, -71355.73135086673, -66549.34633366422, -51716.482843933445, -51906.31620959237, -50263.53004736067, -60647.79289338504, -0.006, 1.002, 0.23600000000000002, 192.0, 255.0, 208.0, 31.0, 80.0, 7.0, 96.0, 0.0, 0.0, 0.0, 1.6541616833713212E9, 0.0, 2022-06-02 11:21:23.371
118.0, 27115.08001268864, 5031.444732122985, -71372.38340048592, -66564.99255478293, -51735.25830927591, -51927.505663336, -50278.63982661245, -60661.9191958808, -0.006, 1.002, 0.23600000000000002, 192.0, 0.0, 0.0, 0.0, 0.0, 0.0, 0.0, 0.0, 0.0, 0.0, 1.6541616833713272E9, 0.0, 2022-06-02 11:21:23.371
119.0, 27121.003224969296, 5047.403877664075, -71348.98112404122, -66540.204470182, -51721.91431783609, -51924.84580574582, -50252.22006466628, -60631.811396099496, -0.006, 1.002, 0.23600000000000002, 192.0, 0.0, 0.0, 0.0, 0.0, 0.0, 0.0, 0.0, 0.0, 0.0, 1.6541616833713324E9, 0.0, 2022-06-02 11:21:23.371
120.0, 27140.22572520086, 5053.6847178560165, -71323.52248710663, -66516.37751059265, -51697.32739893525, -51902.78463396843, -50227.23081436525, -60609.012616755084, -0.006, 1.002, 0.23600000000000002, 192.0, 0.0, 0.0, 0.0, 0.0, 0.0, 0.0, 0.0, 0.0, 0.0, 1.6541616833713377E9, 0.0, 2022-06-02 11:21:23.371
121.0, 27141.365664168083, 5054.735249845416, -71326.65173133036, -66520.66904552806, -51688.61021859768, -51890.55822975138, -50224.213328863785, -60609.14672722182, -0.006, 1.002, 0.23600000000000002, 192.0, 0.0, 0.0, 0.0, 0.0, 0.0, 0.0, 0.0, 0.0, 0.0, 1.6541616833713424E9, 0.0, 2022-06-02 11:21:23.371
122.0, 27127.70874830589, 5044.7663718183485, -71352.2891822206, -66545.63594408464, -51706.37985543965, -51903.25402060199, -50250.05194545412, -60636.147634523826, -0.006, 1.002, 0.23600000000000002, 192.0, 0.0, 0.0, 0.0, 0.0, 0.0, 0.0, 0.0, 0.0, 0.0, 1.6541616833713477E9, 0.0, 2022-06-02 11:21:23.371
123.0, 27122.74666103681, 5037.055019981268, -71368.02481031715, -66563.85261581572, -51727.05521906081, -51926.633945302245, -50270.88377128646, -60654.72193416619, -0.006, 1.002, 0.23600000000000002, 192.0, 0.0, 0.0, 0.0, 0.0, 0.0, 0.0, 0.0, 0.0, 0.0, 1.654161683371353E9, 0.0, 2022-06-02 11:21:23.371
124.0, 27145.74660608132, 5055.38345043462, -71337.7381965802, -66540.4056358821, -51711.78897759783, -51921.56009931089, -50244.128733173464, -60627.05047453052, -0.006, 1.002, 0.23600000000000002, 192.0, 0.0, 0.0, 0.0, 0.0, 0.0, 0.0, 0.0, 0.0, 0.0, 1.654161683371358E9, 0.0, 2022-06-02 11:21:23.371
125.0, 27146.059530503695, 5060.367889448153, -71316.45933585874, -66523.97710370745, -51693.23702969993, -51909.26663986047, -50221.77698871816, -60608.63263709935, -0.006, 1.002, 0.23600000000000002, 192.0, 0.0, 0.0, 0.0, 0.0, 0.0, 0.0, 0.0, 0.0, 0.0, 1.6541616833713627E9, 0.0, 2022-06-02 11:21:23.371
126.0, 27133.631960586546, 5054.578787634228, -71324.8859435184, -66533.23072591194, -51694.17580296705, -51901.91291593468, -50229.1530643884, -60617.30511394801, -0.006, 1.002, 0.23600000000000002, 192.0, 0.0, 0.0, 0.0, 0.0, 0.0, 0.0, 0.0, 0.0, 0.0, 1.654161683371368E9, 0.0, 2022-06-02 11:21:23.371
127.0, 27123.484268603836, 5042.866473539648, -71353.40676944338, -66559.3599151802, -51720.79673061332, -51916.86623297528, -50260.5125618592, -60647.63643117386, -0.01, 1.002, 0.24, 192.0, 255.0, 176.0, 31.0, 80.0, 7.0, 128.0, 0.0, 0.0, 0.0, 1.6541616833713734E9, 0.0, 2022-06-02 11:21:23.371
128.0, 27124.713614548877, 5038.709049070961, -71359.26292649066, -66562.84678731523, -51733.80544588631, -51927.349201124816, -50269.855591041516, -60652.933794609766, -0.01, 1.002, 0.24, 192.0, 0.0, 0.0, 0.0, 0.0, 0.0, 0.0, 0.0, 0.0, 0.0, 1.654161683371402E9, 0.0, 2022-06-02 11:21:23.371
129.0, 27139.510469378292, 5045.794552063293, -71339.25811520316, -66546.7535313074, -51722.026076558366, -51923.974087712064, -50244.978099462765, -60630.358532709906, -0.01, 1.002, 0.24, 192.0, 0.0, 0.0, 0.0, 0.0, 0.0, 0.0, 0.0, 0.0, 0.0, 1.654161683371422E9, 0.0, 2022-06-02 11:21:23.371
130.0, 27146.61832411508, 5051.8071713217705, -71323.29896966206, -66532.73898753393, -51704.5023089054, -51908.43962531562, -50226.00146842021, -60611.672474345265, -0.01, 1.002, 0.24, 192.0, 0.0, 0.0, 0.0, 0.0, 0.0, 0.0, 0.0, 0.0, 0.0, 1.65416168337143E9, 0.0, 2022-06-02 11:21:23.371
131.0, 27140.136318223038, 5047.560339875262, -71334.94422852328, -66534.86240325718, -51706.6033728842, -51902.449357801604, -50234.00339293521, -60621.93192505025, -0.01, 1.002, 0.24, 192.0, 0.0, 0.0, 0.0, 0.0, 0.0, 0.0, 0.0, 0.0, 0.0, 1.6541616833714392E9, 0.0, 2022-06-02 11:21:23.371
132.0, 27148.18294622695, 5050.510770143363, -71346.3883216844, -66542.9090312611, -51713.59946889871, -51903.432834557636, -50249.33668963155, -60635.722951379175, -0.01, 1.002, 0.24, 192.0, 0.0, 0.0, 0.0, 0.0, 0.0, 0.0, 0.0, 0.0, 0.0, 1.65416168337145E9, 0.0, 2022-06-02 11:21:23.371
133.0, 27142.639713602035, 5057.6186248801505, -71347.68472286282, -66545.21126093999, -51719.500329434915, -51909.288991604924, -50253.33765188905, -60641.19912877073, -0.01, 1.002, 0.24, 192.0, 0.0, 0.0, 0.0, 0.0, 0.0, 0.0, 0.0, 0.0, 0.0, 1.6541616833714583E9, 0.0, 2022-06-02 11:21:23.371
134.0, 27139.063434489184, 5065.531142417329, -71327.34463540849, -66528.33569387623, -51712.32541946476, -51912.865270717775, -50235.56801504708, -60624.18945124024, -0.01, 1.002, 0.24, 192.0, 0.0, 0.0, 0.0, 0.0, 0.0, 0.0, 0.0, 0.0, 0.0, 1.6541616833714736E9, 0.0, 2022-06-02 11:21:23.371
135.0, 27139.17519321146, 5074.1142122881665, -71304.38939385288, -66505.96159767648, -51691.02420699885, -51892.81575594137, -50211.4504827798, -60599.11079396139, -0.01, 1.002, 0.24, 192.0, 0.0, 0.0, 0.0, 0.0, 0.0, 0.0, 0.0, 0.0, 0.0, 1.6541616833714788E9, 0.0, 2022-06-02 11:21:23.371
136.0, 27146.75243458181, 5080.506811202385, -71303.94235896377, -66501.06656564077, -51685.07864297374, -51878.465936001056, -50209.595287990014, -60597.30030266051, -0.01, 1.002, 0.24, 192.0, 0.0, 0.0, 0.0, 0.0, 0.0, 0.0, 0.0, 0.0, 0.0, 1.6541616833714852E9, 0.0, 2022-06-02 11:21:23.371
137.0, 27150.52987939476, 5078.785726879326, -71319.14154519339, -66511.21425762348, -51692.588829110726, -51877.32599703384, -50223.4533695523, -60610.778404567056, -0.002, 1.004, 0.23600000000000002, 192.0, 255.0, 240.0, 31.0, 96.0, 7.0, 96.0, 0.0, 0.0, 0.0, 1.654161683371491E9, 0.0, 2022-06-02 11:21:23.371
138.0, 27143.5561351247, 5071.543761675806, -71335.77124306813, -66524.89352523012, -51712.303067720306, -51894.51448851997, -50243.10055292852, -60627.832785586455, -0.002, 1.004, 0.23600000000000002, 192.0, 0.0, 0.0, 0.0, 0.0, 0.0, 0.0, 0.0, 0.0, 0.0, 1.6541616833714976E9, 0.0, 2022-06-02 11:21:23.371
139.0, 27150.641638117035, 5066.38050870663, -71324.8859435184, -66517.42804258205, -51712.54893690931, -51903.41048281318, -50234.89746271342, -60613.840593557434, -0.002, 1.004, 0.23600000000000002, 192.0, 0.0, 0.0, 0.0, 0.0, 0.0, 0.0, 0.0, 0.0, 0.0, 1.654161683371504E9, 0.0, 2022-06-02 11:21:23.371
140.0, 27145.165460725482, 5063.877113327636, -71307.45158284326, -66503.16762961957, -51692.67823608855, -51889.39593903971, -50203.67207570936, -60585.45387809919, -0.002, 1.004, 0.23600000000000002, 192.0, 0.0, 0.0, 0.0, 0.0, 0.0, 0.0, 0.0, 0.0, 0.0, 1.6541616833715117E9, 0.0, 2022-06-02 11:21:23.371
141.0, 27129.51923960677, 5055.718726601449, -71316.16876318083, -66513.67294951355, -51691.47124188796, -51883.8974099037, -50209.528232756646, -60594.14870669231, -0.002, 1.004, 0.23600000000000002, 192.0, 0.0, 0.0, 0.0, 0.0, 0.0, 0.0, 0.0, 0.0, 0.0, 1.654161683371519E9, 0.0, 2022-06-02 11:21:23.371
142.0, 27126.255884916292, 5047.42622940853, -71336.41944365733, -66536.35997013569, -51707.16216649558, -51893.642770486214, -50232.81875047908, -60617.9086110483, -0.002, 1.004, 0.23600000000000002, 192.0, 0.0, 0.0, 0.0, 0.0, 0.0, 0.0, 0.0, 0.0, 0.0, 1.6541616833715267E9, 0.0, 2022-06-02 11:21:23.371
143.0, 27134.302512920203, 5050.980156776924, -71341.94032453779, -66543.46782487248, -51718.49450093442, -51905.42213981416, -50240.66421278289, -60625.731721607655, -0.002, 1.004, 0.23600000000000002, 192.0, 0.0, 0.0, 0.0, 0.0, 0.0, 0.0, 0.0, 0.0, 0.0, 1.6541616833715336E9, 0.0, 2022-06-02 11:21:23.371
144.0, 27145.99247527033, 5069.822677352748, -71312.14544917888, -66515.70695825899, -51701.5518786373, -51896.19086935412, -50219.89944218391, -60599.75899455059, -0.002, 1.004, 0.23600000000000002, 192.0, 0.0, 0.0, 0.0, 0.0, 0.0, 0.0, 0.0, 0.0, 0.0, 1.6541616833715413E9, 0.0, 2022-06-02 11:21:23.371
145.0, 27157.52597540927, 5081.736157147427, -71285.45746629924, -66489.42130677955, -51675.04270971331, -51872.45331674258, -50191.73624417022, -60574.300357616, -0.002, 1.004, 0.23600000000000002, 192.0, 0.0, 0.0, 0.0, 0.0, 0.0, 0.0, 0.0, 0.0, 0.0, 1.6541616833715472E9, 0.0, 2022-06-02 11:21:23.371
146.0, 27143.869059547076, 5068.1462965186, -71305.082297931, -66507.36975757715, -51684.34103540672, -51874.10734583227, -50205.90725015489, -60593.27698865855, -0.002, 1.004, 0.23600000000000002, 192.0, 0.0, 0.0, 0.0, 0.0, 0.0, 0.0, 0.0, 0.0, 0.0, 1.6541616833715544E9, 0.0, 2022-06-02 11:21:23.371
147.0, 27132.536725108235, 5048.9908515204015, -71335.12304247892, -66535.10827244619, -51707.18451824004, -51894.31332281987, -50235.6574220249, -60623.54125065103, -0.004, 0.996, 0.232, 192.0, 255.0, 224.0, 31.0, 32.0, 7.0, 64.0, 0.0, 0.0, 0.0, 1.6541616833715622E9, 0.0, 2022-06-02 11:21:23.371
148.0, 27142.483251390848, 5053.796476578293, -71343.05791176057, -66540.04800797082, -51716.773416611366, -51906.53972703692, -50245.42513435187, -60635.05239904552, -0.004, 0.996, 0.232, 192.0, 0.0, 0.0, 0.0, 0.0, 0.0, 0.0, 0.0, 0.0, 0.0, 1.654161683371568E9, 0.0, 2022-06-02 11:21:23.371
