%OpenBCI Raw EEG Data
%Number of channels = 8
%Sample Rate = 250 Hz
%Board = OpenBCI_GUI$BoardCytonSerial
Sample Index, EXG Channel 0, EXG Channel 1, EXG Channel 2, EXG Channel 3, EXG Channel 4, EXG Channel 5, EXG Channel 6, EXG Channel 7, Accel Channel 0, Accel Channel 1, Accel Channel 2, Other, Other, Other, Other, Other, Other, Other, Analog Channel 0, Analog Channel 1, Analog Channel 2, Timestamp, Other, Timestamp (Formatted)
0.0, 0.0, 0.0, 0.0, 0.0, 0.0, 0.0, 0.0, 0.0, 0.0, 0.0, 0.0, 192.0, 0.0, 0.0, 0.0, 0.0, 0.0, 0.0, 0.0, 0.0, 0.0, 1.6546749212296572E9, 0.0, 2022-06-08 09:55:21.229
1.0, 19930.245867996917, 35634.87209497358, -5063.76535460536, -8112.2974291202345, 3433.160893101799, 4503.362417621901, 14740.886061297186, -732.1090378891275, 0.056, 0.882, 0.524, 192.0, 1.0, 192.0, 27.0, 144.0, 16.0, 96.0, 0.0, 0.0, 0.0, 1.6546749212457297E9, 0.0, 2022-06-08 09:55:21.245
2.0, 19932.32458023126, 35672.57948786968, -5069.7109186304715, -8119.3382286236565, 3432.8256169349693, 4497.170984407781, 14750.698477113066, -730.253843099337, 0.056, 0.882, 0.524, 192.0, 0.0, 0.0, 0.0, 0.0, 0.0, 0.0, 0.0, 0.0, 0.0, 1.654674921724625E9, 0.0, 2022-06-08 09:55:21.724
3.0, 19951.077693829262, 35699.06630504922, -5062.871284827147, -8114.398493099034, 3439.9781751606674, 4493.438243083745, 14756.82285509382, -748.805790997242, 0.056, 0.882, 0.524, 192.0, 0.0, 0.0, 0.0, 0.0, 0.0, 0.0, 0.0, 0.0, 0.0, 1.6546749217248497E9, 0.0, 2022-06-08 09:55:21.724
4.0, 19930.33527497474, 35646.9643887239, -5044.922834029536, -8101.635647015053, 3460.3406143594525, 4509.1962229247365, 14769.652756411168, -716.0157818813065, 0.056, 0.882, 0.524, 192.0, 0.0, 0.0, 0.0, 0.0, 0.0, 0.0, 0.0, 0.0, 0.0, 1.654674921724856E9, 0.0, 2022-06-08 09:55:21.724
5.0, 19930.916420330577, 35640.4600310874, -5042.218272950444, -8110.598696541631, 3449.097686898433, 4507.0281037125715, 14774.905416358164, -684.7903948772425, 0.056, 0.882, 0.524, 192.0, 0.0, 0.0, 0.0, 0.0, 0.0, 0.0, 0.0, 0.0, 0.0, 1.654674921724861E9, 0.0, 2022-06-08 09:55:21.724
6.0, 19910.84455380971, 35633.73215600636, -5056.501037657385, -8119.628801301576, 3429.5175587555837, 4500.2778768870685, 14769.205721522061, -697.352075261125, 0.056, 0.882, 0.524, 192.0, 0.0, 0.0, 0.0, 0.0, 0.0, 0.0, 0.0, 0.0, 0.0, 1.6546749217248657E9, 0.0, 2022-06-08 09:55:21.724
7.0, 19928.971818562964, 35636.97315895238, -5059.76439234786, -8118.779435012274, 3431.6633262232936, 4514.582993338465, 14760.06385803984, -702.157700319016, 0.056, 0.882, 0.524, 192.0, 0.0, 0.0, 0.0, 0.0, 0.0, 0.0, 0.0, 0.0, 0.0, 1.6546749217248702E9, 0.0, 2022-06-08 09:55:21.724
8.0, 19952.977592107964, 35711.69504066647, -5057.596273135695, -8123.965039725905, 3431.1045326119106, 4518.338086406957, 14749.11150325674, -714.3617527916138, 0.054, 0.88, 0.516, 192.0, 1.0, 176.0, 27.0, 128.0, 16.0, 32.0, 0.0, 0.0, 0.0, 1.6546749217248747E9, 0.0, 2022-06-08 09:55:21.724
9.0, 19961.247737556427, 35687.84572933266, -5038.731400815416, -8109.838737230151, 3440.2463960941313, 4533.783141825574, 14751.905471313654, -710.5396044897562, 0.054, 0.88, 0.516, 192.0, 0.0, 0.0, 0.0, 0.0, 0.0, 0.0, 0.0, 0.0, 0.0, 1.6546749217248795E9, 0.0, 2022-06-08 09:55:21.724
10.0, 19972.200092339528, 35644.30453113372, -5040.184264205011, -8105.882478461562, 3440.805189705514, 4540.220444228702, 14755.414695193136, -728.9127384320186, 0.054, 0.88, 0.516, 192.0, 0.0, 0.0, 0.0, 0.0, 0.0, 0.0, 0.0, 0.0, 0.0, 1.6546749217248843E9, 0.0, 2022-06-08 09:55:21.724
11.0, 19927.921286573564, 35671.461900646915, -5051.38248817712, -8109.928144207972, 3424.510767997595, 4529.804531312529, 14734.96284901653, -741.2061978824376, 0.054, 0.88, 0.516, 192.0, 0.0, 0.0, 0.0, 0.0, 0.0, 0.0, 0.0, 0.0, 0.0, 1.6546749217248888E9, 0.0, 2022-06-08 09:55:21.724
12.0, 19935.02914131035, 35671.57365936919, -5054.243511467399, -8113.817347743196, 3429.338744799941, 4533.246699958647, 14727.653828579645, -742.9272822054961, 0.054, 0.88, 0.516, 192.0, 0.0, 0.0, 0.0, 0.0, 0.0, 0.0, 0.0, 0.0, 0.0, 1.6546749217248936E9, 0.0, 2022-06-08 09:55:21.724
13.0, 19921.573391148257, 35654.63103707207, -5041.547720616784, -8104.340208094145, 3436.893634425835, 4534.811322070518, 14729.15139545815, -742.4131920830241, 0.054, 0.88, 0.516, 192.0, 0.0, 0.0, 0.0, 0.0, 0.0, 0.0, 0.0, 0.0, 0.0, 1.654674921724898E9, 0.0, 2022-06-08 09:55:21.724
14.0, 19944.215708281485, 35671.05956924672, -5029.276612910821, -8091.577362010165, 3442.258053095109, 4543.617909385909, 14738.58383161829, -745.4306775844906, 0.054, 0.88, 0.516, 192.0, 0.0, 0.0, 0.0, 0.0, 0.0, 0.0, 0.0, 0.0, 0.0, 1.6546749217249029E9, 0.0, 2022-06-08 09:55:21.724
15.0, 20005.168915411105, 35687.35399095464, -5021.364095373642, -8098.416995813489, 3441.699259483726, 4545.562511153521, 14742.897718298163, -763.0215004708172, 0.054, 0.88, 0.516, 192.0, 0.0, 0.0, 0.0, 0.0, 0.0, 0.0, 0.0, 0.0, 0.0, 1.6546749217249076E9, 0.0, 2022-06-08 09:55:21.724
16.0, 19969.361420793703, 35699.33452598268, -5020.894708740081, -8097.008835912805, 3433.920852413279, 4545.9424908092615, 14731.587735603778, -763.96027373794, 0.054, 0.88, 0.516, 192.0, 0.0, 0.0, 0.0, 0.0, 0.0, 0.0, 0.0, 0.0, 0.0, 1.6546749217249122E9, 0.0, 2022-06-08 09:55:21.724
17.0, 19905.45778339598, 35643.47751658887, -5027.197900676478, -8094.348978322623, 3427.39414303233, 4541.159217495825, 14710.688854538066, -756.0254044563061, 0.054, 0.88, 0.516, 192.0, 0.0, 0.0, 0.0, 0.0, 0.0, 0.0, 0.0, 0.0, 0.0, 1.6546749217249167E9, 0.0, 2022-06-08 09:55:21.724
18.0, 19896.092402469207, 35668.15384246753, -5016.6478772935725, -8095.399510312022, 3430.5904424894384, 4540.488665162166, 14714.801575517844, -768.5870848401887, 0.054, 0.878, 0.514, 192.0, 1.0, 176.0, 27.0, 112.0, 16.0, 16.0, 0.0, 0.0, 0.0, 1.6546749217249217E9, 0.0, 2022-06-08 09:55:21.724
19.0, 19952.016467096386, 35755.10212839868, -5003.594458531673, -8083.195457839425, 3437.9888699041453, 4544.623737886398, 14741.601317119756, -769.0117679848395, 0.054, 0.878, 0.514, 192.0, 0.0, 0.0, 0.0, 0.0, 0.0, 0.0, 0.0, 0.0, 0.0, 1.6546749217249262E9, 0.0, 2022-06-08 09:55:21.724
20.0, 20002.844333987756, 35693.29955497975, -4985.534249011785, -8069.627948955053, 3443.8226752069804, 4561.56636018352, 14757.381648705203, -725.8729011860969, 0.054, 0.878, 0.514, 192.0, 0.0, 0.0, 0.0, 0.0, 0.0, 0.0, 0.0, 0.0, 0.0, 1.6546749217249308E9, 0.0, 2022-06-08 09:55:21.724
21.0, 19952.642315941135, 35668.82439480119, -4988.641141491073, -8085.542391007232, 3431.260994823098, 4560.739345638674, 14734.471110638513, -719.256784827326, 0.054, 0.878, 0.514, 192.0, 0.0, 0.0, 0.0, 0.0, 0.0, 0.0, 0.0, 0.0, 0.0, 1.6546749217249355E9, 0.0, 2022-06-08 09:55:21.724
22.0, 19935.073844799263, 35665.873964533086, -4998.699426495961, -8079.619178726576, 3418.67696269476, 4550.859874589429, 14714.421595862103, -742.4355438274794, 0.054, 0.878, 0.514, 192.0, 0.0, 0.0, 0.0, 0.0, 0.0, 0.0, 0.0, 0.0, 0.0, 1.654674921724946E9, 0.0, 2022-06-08 09:55:21.724
23.0, 19967.439170770547, 35706.420028975015, -4990.049301391757, -8072.2654548007795, 3428.332916299453, 4552.04451704556, 14735.074607738807, -751.7338695208871, 0.054, 0.878, 0.514, 192.0, 0.0, 0.0, 0.0, 0.0, 0.0, 0.0, 0.0, 0.0, 0.0, 1.6546749217249508E9, 0.0, 2022-06-08 09:55:21.724
24.0, 20004.43130784408, 35706.420028975015, -4970.938559882469, -8062.430687240445, 3442.68273623976, 4557.341880481467, 14756.353468460258, -728.0186686538063, 0.054, 0.878, 0.514, 192.0, 0.0, 0.0, 0.0, 0.0, 0.0, 0.0, 0.0, 0.0, 0.0, 1.6546749217249553E9, 0.0, 2022-06-08 09:55:21.724
25.0, 19962.834711412754, 35680.268487962305, -4963.227208045389, -8055.658108670486, 3440.2240443496758, 4554.99494731366, 14753.671259125622, -721.6037179951333, 0.054, 0.878, 0.514, 192.0, 0.0, 0.0, 0.0, 0.0, 0.0, 0.0, 0.0, 0.0, 0.0, 1.65467492172496E9, 0.0, 2022-06-08 09:55:21.724
26.0, 19961.51595848989, 35699.75920912733, -4970.379766271087, -8060.083754072637, 3424.48841625314, 4551.32926122299, 14726.804462290344, -746.0341746847838, 0.054, 0.878, 0.514, 192.0, 0.0, 0.0, 0.0, 0.0, 0.0, 0.0, 0.0, 0.0, 0.0, 1.6546749217249646E9, 0.0, 2022-06-08 09:55:21.724
27.0, 19971.82011268379, 35732.906846154554, -4980.952141398447, -8061.424858739956, 3415.7935876600254, 4547.976499554694, 14712.208773161028, -760.9427882364737, 0.048, 0.888, 0.514, 192.0, 1.0, 128.0, 27.0, 192.0, 16.0, 16.0, 0.0, 0.0, 0.0, 1.6546749217249691E9, 0.0, 2022-06-08 09:55:21.724
28.0, 19950.407141495605, 35709.32575575421, -4963.227208045389, -8047.231501010836, 3433.809093691003, 4562.1475055393585, 14729.48667162498, -730.0973808881499, 0.048, 0.888, 0.514, 192.0, 0.0, 0.0, 0.0, 0.0, 0.0, 0.0, 0.0, 0.0, 0.0, 1.654674921724974E9, 0.0, 2022-06-08 09:55:21.724
29.0, 19971.261319072404, 35723.42970650551, -4949.033850316268, -8039.229576495836, 3441.2075211057095, 4566.215523030224, 14727.899697768653, -714.2499940693372, 0.048, 0.888, 0.514, 192.0, 0.0, 0.0, 0.0, 0.0, 0.0, 0.0, 0.0, 0.0, 0.0, 1.6546749217249787E9, 0.0, 2022-06-08 09:55:21.724
30.0, 20027.185383699583, 35738.40537529056, -4955.8958358640475, -8040.347163718601, 3435.932509414257, 4558.794743871063, 14732.39239840417, -730.2091396104264, 0.048, 0.888, 0.514, 192.0, 0.0, 0.0, 0.0, 0.0, 0.0, 0.0, 0.0, 0.0, 0.0, 1.6546749217249832E9, 0.0, 2022-06-08 09:55:21.724
31.0, 19992.20490362703, 35705.16833128552, -4966.8705423916035, -8068.778582665752, 3421.4262272627625, 4538.119380249904, 14729.620782091712, -761.0321952142949, 0.048, 0.888, 0.514, 192.0, 0.0, 0.0, 0.0, 0.0, 0.0, 0.0, 0.0, 0.0, 0.0, 1.654674921724988E9, 0.0, 2022-06-08 09:55:21.724
32.0, 19939.90182160161, 35695.75824686983, -4973.061975605724, -8061.648376184509, 3420.286288295542, 4527.211728955714, 14727.407959390637, -789.7765385838197, 0.048, 0.888, 0.514, 192.0, 0.0, 0.0, 0.0, 0.0, 0.0, 0.0, 0.0, 0.0, 0.0, 1.6546749217249925E9, 0.0, 2022-06-08 09:55:21.724
33.0, 19946.495586215926, 35714.533712212295, -4966.490562735863, -8054.987556336828, 3426.835349420947, 4534.140769736859, 14734.024075749407, -804.1487102685822, 0.048, 0.888, 0.514, 192.0, 0.0, 0.0, 0.0, 0.0, 0.0, 0.0, 0.0, 0.0, 0.0, 1.6546749217249973E9, 0.0, 2022-06-08 09:55:21.724
34.0, 19956.57622296527, 35704.386020229584, -4958.041603331757, -8049.9584138343835, 3432.9150239127907, 4541.963880296216, 14742.607145620244, -796.8173380872415, 0.048, 0.888, 0.514, 192.0, 0.0, 0.0, 0.0, 0.0, 0.0, 0.0, 0.0, 0.0, 0.0, 1.6546749217250018E9, 0.0, 2022-06-08 09:55:21.725
35.0, 19994.395374583648, 35689.38799970007, -4949.257367760822, -8042.850559097596, 3438.9052914268127, 4550.0552117890375, 14749.469131168025, -759.4228696135127, 0.048, 0.888, 0.514, 192.0, 0.0, 0.0, 0.0, 0.0, 0.0, 0.0, 0.0, 0.0, 0.0, 1.6546749217250063E9, 0.0, 2022-06-08 09:55:21.725
36.0, 19981.92310117759, 35724.8825698951, -4957.862789376115, -8057.982690093839, 3422.834387163447, 4539.639298872865, 14725.619819834212, -749.9233782200073, 0.048, 0.888, 0.514, 192.0, 0.0, 0.0, 0.0, 0.0, 0.0, 0.0, 0.0, 0.0, 0.0, 1.654674921725011E9, 0.0, 2022-06-08 09:55:21.725
37.0, 19986.6169675132, 35720.52397972631, -4954.4876759633635, -8065.112896575081, 3416.575898715961, 4530.855063301929, 14712.320531883304, -758.1488201795603, 0.046, 0.884, 0.498, 192.0, 1.0, 112.0, 27.0, 160.0, 15.0, 144.0, 0.0, 0.0, 0.0, 1.6546749217250156E9, 0.0, 2022-06-08 09:55:21.725
38.0, 19980.47023778799, 35727.98946237439, -4942.797713613238, -8050.517207445766, 3430.4563320227066, 4541.89682506285, 14716.455604607536, -741.4967705603565, 0.046, 0.884, 0.498, 192.0, 0.0, 0.0, 0.0, 0.0, 0.0, 0.0, 0.0, 0.0, 0.0, 1.6546749217250204E9, 0.0, 2022-06-08 09:55:21.725
39.0, 19994.641243772658, 35715.04780233477, -4932.985297797358, -8029.68538161342, 3438.2347390931536, 4551.619833900909, 14723.272886666404, -720.5978894946444, 0.046, 0.884, 0.498, 192.0, 0.0, 0.0, 0.0, 0.0, 0.0, 0.0, 0.0, 0.0, 0.0, 1.6546749217250247E9, 0.0, 2022-06-08 09:55:21.725
40.0, 19980.067906387798, 35725.48606699539, -4927.106789005612, -8029.081884513126, 3445.543759530039, 4550.770467611607, 14769.719811644532, -705.9127933875077, 0.046, 0.884, 0.498, 192.0, 0.0, 0.0, 0.0, 0.0, 0.0, 0.0, 0.0, 0.0, 0.0, 1.65467492172503E9, 0.0, 2022-06-08 09:55:21.725
41.0, 19949.066036828284, 35719.8310756482, -4926.279774460766, -8028.992477535306, 3438.100628626422, 4537.538234894066, 14763.506026685958, -696.5697642051892, 0.046, 0.884, 0.498, 192.0, 0.0, 0.0, 0.0, 0.0, 0.0, 0.0, 0.0, 0.0, 0.0, 1.6546749217250347E9, 0.0, 2022-06-08 09:55:21.725
42.0, 19955.81626365379, 35699.49098819387, -4931.755951852316, -8036.97205030585, 3429.606965733405, 4534.0290110145825, 14750.54201490188, -700.7048369294212, 0.046, 0.884, 0.498, 192.0, 0.0, 0.0, 0.0, 0.0, 0.0, 0.0, 0.0, 0.0, 0.0, 1.6546749217250392E9, 0.0, 2022-06-08 09:55:21.725
43.0, 19985.298214590337, 35710.10806681014, -4926.637402372051, -8025.460901911367, 3438.2570908376088, 4546.076601275993, 14751.525491657912, -692.2782292697703, 0.046, 0.884, 0.498, 192.0, 0.0, 0.0, 0.0, 0.0, 0.0, 0.0, 0.0, 0.0, 0.0, 1.654674921725046E9, 0.0, 2022-06-08 09:55:21.725
44.0, 19983.979461667474, 35736.550180500766, -4908.890117274537, -8023.315134443657, 3450.5281985435727, 4561.879284605895, 14784.181390307116, -676.2743802397705, 0.046, 0.884, 0.498, 192.0, 0.0, 0.0, 0.0, 0.0, 0.0, 0.0, 0.0, 0.0, 0.0, 1.6546749217250507E9, 0.0, 2022-06-08 09:55:21.725
45.0, 19973.988231895954, 35771.95534371798, -4909.985352752848, -8027.450207167889, 3438.771180960081, 4549.541121666565, 14773.296090757382, -709.0196858667954, 0.046, 0.884, 0.498, 192.0, 0.0, 0.0, 0.0, 0.0, 0.0, 0.0, 0.0, 0.0, 0.0, 1.6546749217250557E9, 0.0, 2022-06-08 09:55:21.725
46.0, 19998.888075219165, 35737.62306423463, -4912.376989409565, -8035.5191869162545, 3426.544776743028, 4536.778275582585, 14766.881140098709, -724.0177063963064, 0.046, 0.884, 0.498, 192.0, 0.0, 0.0, 0.0, 0.0, 0.0, 0.0, 0.0, 0.0, 0.0, 1.6546749217250602E9, 0.0, 2022-06-08 09:55:21.725
47.0, 20006.733537522978, 35700.20624401644, -4914.410998154998, -8035.742704360808, 3425.762465687092, 4530.855063301929, 14760.555596417857, -732.1313896335828, 0.052000000000000005, 0.886, 0.5, 192.0, 1.0, 160.0, 27.0, 176.0, 15.0, 160.0, 0.0, 0.0, 0.0, 1.6546749217250648E9, 0.0, 2022-06-08 09:55:21.725
48.0, 19999.312758363816, 35724.83786640619, -4910.678256830962, -8030.06536126916, 3437.0724483814774, 4535.459522659722, 14760.130913273206, -728.1304273760828, 0.052000000000000005, 0.886, 0.5, 192.0, 0.0, 0.0, 0.0, 0.0, 0.0, 0.0, 0.0, 0.0, 0.0, 1.6546749217250695E9, 0.0, 2022-06-08 09:55:21.725
49.0, 19963.32644979077, 35746.54141027229, -4899.5470880922185, -8028.523090901744, 3449.2765008540755, 4544.154351252836, 14761.941404574085, -730.4997122883454, 0.052000000000000005, 0.886, 0.5, 192.0, 0.0, 0.0, 0.0, 0.0, 0.0, 0.0, 0.0, 0.0, 0.0, 1.654674921725074E9, 0.0, 2022-06-08 09:55:21.725
50.0, 19966.388638781147, 35727.96711062993, -4898.071872958169, -8030.847672325096, 3440.000526905123, 4540.332202950979, 14754.67708762611, -761.2780644033032, 0.052000000000000005, 0.886, 0.5, 192.0, 0.0, 0.0, 0.0, 0.0, 0.0, 0.0, 0.0, 0.0, 0.0, 1.6546749217250788E9, 0.0, 2022-06-08 09:55:21.725
51.0, 19989.008604169918, 35739.32179681323, -4899.3682741365765, -8034.267489226758, 3428.288212810542, 4529.379848167879, 14741.780131075398, -773.6162273426328, 0.052000000000000005, 0.886, 0.5, 192.0, 0.0, 0.0, 0.0, 0.0, 0.0, 0.0, 0.0, 0.0, 0.0, 1.6546749217250834E9, 0.0, 2022-06-08 09:55:21.725
52.0, 19962.588842223748, 35754.31981734274, -4903.928030005459, -8032.881681070528, 3425.96363138719, 4538.2534907166355, 14735.454587394546, -754.9748724669066, 0.052000000000000005, 0.886, 0.5, 192.0, 0.0, 0.0, 0.0, 0.0, 0.0, 0.0, 0.0, 0.0, 0.0, 1.654674921725088E9, 0.0, 2022-06-08 09:55:21.725
53.0, 19970.411952783103, 35720.56868321523, -4892.863916500082, -8022.801044321185, 3433.4067622908074, 4545.2942902200575, 14736.236898450483, -745.0283461842951, 0.052000000000000005, 0.886, 0.5, 192.0, 0.0, 0.0, 0.0, 0.0, 0.0, 0.0, 0.0, 0.0, 0.0, 1.654674921725093E9, 0.0, 2022-06-08 09:55:21.725
54.0, 20009.348691624247, 35743.054538137265, -4882.984445450837, -8022.935154787917, 3440.358154816408, 4550.189322255769, 14735.722808328012, -726.4540465419349, 0.052000000000000005, 0.886, 0.5, 192.0, 0.0, 0.0, 0.0, 0.0, 0.0, 0.0, 0.0, 0.0, 0.0, 1.6546749217250972E9, 0.0, 2022-06-08 09:55:21.725
55.0, 20017.976464983996, 35751.190573119, -4881.44217508342, -8021.30347744268, 3437.832407692958, 4548.647051888353, 14743.76943633192, -734.3889158235688, 0.052000000000000005, 0.886, 0.5, 192.0, 0.0, 0.0, 0.0, 0.0, 0.0, 0.0, 0.0, 0.0, 0.0, 1.654674921725102E9, 0.0, 2022-06-08 09:55:21.725
56.0, 19995.937644951064, 35742.85337243717, -4878.402337837499, -8022.890451299007, 3435.150198358321, 4544.221406486203, 14760.488541184492, -750.2810061312922, 0.052000000000000005, 0.886, 0.5, 192.0, 0.0, 0.0, 0.0, 0.0, 0.0, 0.0, 0.0, 0.0, 0.0, 1.6546749217251067E9, 0.0, 2022-06-08 09:55:21.725
57.0, 20001.659691531622, 35734.3373577997, -4890.159355420989, -8033.373419448545, 3427.5059017546064, 4524.842444043451, 14738.337962429281, -774.5997040986663, 0.05, 0.896, 0.502, 192.0, 1.0, 144.0, 28.0, 0.0, 15.0, 176.0, 0.0, 0.0, 0.0, 1.6546749217251112E9, 0.0, 2022-06-08 09:55:21.725
58.0, 20011.874438747698, 35764.087529669705, -4882.000968694802, -8020.007076264272, 3429.1822825887543, 4529.536310379066, 14723.406997133137, -775.8737535326187, 0.05, 0.896, 0.502, 192.0, 0.0, 0.0, 0.0, 0.0, 0.0, 0.0, 0.0, 0.0, 0.0, 1.6546749217251158E9, 0.0, 2022-06-08 09:55:21.725
59.0, 19971.104856861217, 35765.9427244595, -4863.426669052443, -8001.991570233295, 3442.3027565840193, 4543.684964619275, 14753.358334703247, -730.0079739103287, 0.05, 0.896, 0.502, 192.0, 0.0, 0.0, 0.0, 0.0, 0.0, 0.0, 0.0, 0.0, 0.0, 1.6546749217251208E9, 0.0, 2022-06-08 09:55:21.725
60.0, 19989.925025692588, 35747.12255562813, -4856.967014904859, -8005.970180746339, 3442.481570539662, 4536.890034304862, 14763.863654597242, -714.384104536069, 0.05, 0.896, 0.502, 192.0, 0.0, 0.0, 0.0, 0.0, 0.0, 0.0, 0.0, 0.0, 0.0, 1.6546749217251256E9, 0.0, 2022-06-08 09:55:21.725
61.0, 19999.692738019556, 35731.655148465055, -4864.991291164314, -8019.783558819719, 3427.282384310053, 4529.223385956691, 14740.550785130357, -735.2382821128705, 0.05, 0.896, 0.502, 192.0, 0.0, 0.0, 0.0, 0.0, 0.0, 0.0, 0.0, 0.0, 0.0, 1.65467492172513E9, 0.0, 2022-06-08 09:55:21.725
62.0, 19998.083412418775, 35738.517134012836, -4866.131230131535, -8019.783558819719, 3427.77412268807, 4527.301135933535, 14756.644041138177, -746.8611892296302, 0.05, 0.896, 0.502, 192.0, 0.0, 0.0, 0.0, 0.0, 0.0, 0.0, 0.0, 0.0, 0.0, 1.6546749217251348E9, 0.0, 2022-06-08 09:55:21.725
63.0, 19989.925025692588, 35772.87176524064, -4858.911616672471, -8014.73206457282, 3439.3299745714635, 4529.424551656789, 14768.177541277117, -727.996316909351, 0.05, 0.896, 0.502, 192.0, 0.0, 0.0, 0.0, 0.0, 0.0, 0.0, 0.0, 0.0, 0.0, 1.6546749217251394E9, 0.0, 2022-06-08 09:55:21.725
64.0, 20017.52943009489, 35764.109881414166, -4849.188607834412, -8006.663084824453, 3445.610814763405, 4544.310813464023, 14766.992898820985, -688.9478193459296, 0.05, 0.896, 0.502, 192.0, 0.0, 0.0, 0.0, 0.0, 0.0, 0.0, 0.0, 0.0, 0.0, 1.654674921725146E9, 0.0, 2022-06-08 09:55:21.725
65.0, 20046.899622309164, 35771.06127393976, -4837.476293739831, -7999.421119620934, 3446.7731054750807, 4546.23306348718, 14762.544901674379, -702.8506043971306, 0.05, 0.896, 0.502, 192.0, 0.0, 0.0, 0.0, 0.0, 0.0, 0.0, 0.0, 0.0, 0.0, 1.6546749217251503E9, 0.0, 2022-06-08 09:55:21.725
66.0, 19992.696642005045, 35775.88925074211, -4840.583186219119, -8000.605762077065, 3437.8547594374136, 4548.669403632808, 14749.603241634757, -724.2859273297701, 0.05, 0.896, 0.502, 192.0, 0.0, 0.0, 0.0, 0.0, 0.0, 0.0, 0.0, 0.0, 0.0, 1.654674921725156E9, 0.0, 2022-06-08 09:55:21.725
67.0, 20001.413822342616, 35765.3392273592, -4843.913596142959, -8009.814680792651, 3434.770218702581, 4547.752982110141, 14746.317535199827, -718.6979912159433, 0.05, 0.89, 0.504, 192.0, 1.0, 144.0, 27.0, 208.0, 15.0, 192.0, 0.0, 0.0, 0.0, 1.6546749217251613E9, 0.0, 2022-06-08 09:55:21.725
68.0, 20032.929782024596, 35770.07779718373, -4837.565700717652, -8016.073169240138, 3445.1414281298435, 4548.04355478806, 14768.11048604375, -697.3297235166698, 0.05, 0.89, 0.504, 192.0, 0.0, 0.0, 0.0, 0.0, 0.0, 0.0, 0.0, 0.0, 0.0, 1.6546749217251656E9, 0.0, 2022-06-08 09:55:21.725
69.0, 20007.314682878816, 35803.91833828906, -4822.880604610516, -8003.802061534174, 3457.8819224693684, 4564.3156247515235, 14780.336890260804, -682.2199442648822, 0.05, 0.89, 0.504, 192.0, 0.0, 0.0, 0.0, 0.0, 0.0, 0.0, 0.0, 0.0, 0.0, 1.6546749217251704E9, 0.0, 2022-06-08 09:55:21.725
70.0, 20001.19030489806, 35793.524777117345, -4823.752322644273, -8005.903125512973, 3455.44558232374, 4562.639243917375, 14779.219303038039, -701.1965753074379, 0.05, 0.89, 0.504, 192.0, 0.0, 0.0, 0.0, 0.0, 0.0, 0.0, 0.0, 0.0, 0.0, 1.654674921725175E9, 0.0, 2022-06-08 09:55:21.725
71.0, 19981.699583733032, 35743.99331140439, -4832.380096004021, -8014.1509192169815, 3441.006355405612, 4543.975537297194, 14764.467151697536, -725.6046802526332, 0.05, 0.89, 0.504, 192.0, 0.0, 0.0, 0.0, 0.0, 0.0, 0.0, 0.0, 0.0, 0.0, 1.6546749217251797E9, 0.0, 2022-06-08 09:55:21.725
72.0, 19999.603331041733, 35742.629854992614, -4840.9631658748585, -8016.341390173601, 3432.0209541345785, 4531.927947035783, 14741.713075842034, -741.0050321823397, 0.05, 0.89, 0.504, 192.0, 0.0, 0.0, 0.0, 0.0, 0.0, 0.0, 0.0, 0.0, 0.0, 1.6546749217251844E9, 0.0, 2022-06-08 09:55:21.725
73.0, 20056.91320382514, 35786.5957363362, -4836.135189072513, -8012.139262216004, 3445.1637798742986, 4544.2437582306575, 14765.093000542283, -744.0225176838062, 0.05, 0.89, 0.504, 192.0, 0.0, 0.0, 0.0, 0.0, 0.0, 0.0, 0.0, 0.0, 0.0, 1.654674921725189E9, 0.0, 2022-06-08 09:55:21.725
74.0, 20060.914166082643, 35785.38874213561, -4823.327639499622, -7998.102366698071, 3458.7759922475807, 4559.800572371551, 14769.898625600175, -724.7776657077868, 0.05, 0.89, 0.504, 192.0, 0.0, 0.0, 0.0, 0.0, 0.0, 0.0, 0.0, 0.0, 0.0, 1.6546749217251935E9, 0.0, 2022-06-08 09:55:21.725
75.0, 20030.359331412237, 35792.72011431696, -4820.779540631716, -8000.628113821521, 3450.8858264548576, 4550.725764122697, 14755.571157404323, -735.7523722353426, 0.05, 0.89, 0.504, 192.0, 0.0, 0.0, 0.0, 0.0, 0.0, 0.0, 0.0, 0.0, 0.0, 1.6546749217251985E9, 0.0, 2022-06-08 09:55:21.725
76.0, 20012.76850852591, 35756.957323188464, -4829.004982591269, -8016.050817495682, 3433.7196867131815, 4535.012487770616, 14740.796654319365, -759.9593114804401, 0.05, 0.89, 0.504, 192.0, 0.0, 0.0, 0.0, 0.0, 0.0, 0.0, 0.0, 0.0, 0.0, 1.6546749217252035E9, 0.0, 2022-06-08 09:55:21.725
77.0, 19980.62669999918, 35774.21286990796, -4834.078828582625, -8029.305401957679, 3427.282384310053, 4517.868699773396, 14724.748101800455, -788.3236751942248, 0.056, 0.89, 0.504, 192.0, 1.0, 192.0, 27.0, 208.0, 15.0, 192.0, 0.0, 0.0, 0.0, 1.6546749217252083E9, 0.0, 2022-06-08 09:55:21.725
78.0, 20007.784069512378, 35850.87935338967, -4828.6920581688955, -8012.005151749272, 3437.608890248405, 4526.898804533339, 14756.308764971349, -793.576335141222, 0.056, 0.89, 0.504, 192.0, 0.0, 0.0, 0.0, 0.0, 0.0, 0.0, 0.0, 0.0, 0.0, 1.6546749217252133E9, 0.0, 2022-06-08 09:55:21.725
79.0, 20047.01138103144, 35807.33815519073, -4804.373360201521, -7995.688378296898, 3454.775029990081, 4558.95120608225, 14789.366995020748, -720.6202412390998, 0.056, 0.89, 0.504, 192.0, 0.0, 0.0, 0.0, 0.0, 0.0, 0.0, 0.0, 0.0, 0.0, 1.654674921725218E9, 0.0, 2022-06-08 09:55:21.725
80.0, 20029.800537800853, 35732.906846154554, -4804.3957119459765, -7989.4969450827775, 3449.2765008540755, 4550.457543189233, 14766.657622654157, -733.3830873230801, 0.056, 0.89, 0.504, 192.0, 0.0, 0.0, 0.0, 0.0, 0.0, 0.0, 0.0, 0.0, 0.0, 1.6546749217252228E9, 0.0, 2022-06-08 09:55:21.725
81.0, 20014.288427148873, 35750.743538229886, -4803.814566590138, -7997.342407386591, 3445.342593829941, 4542.813246585518, 14752.39720969167, -749.2975293752587, 0.056, 0.89, 0.504, 192.0, 0.0, 0.0, 0.0, 0.0, 0.0, 0.0, 0.0, 0.0, 0.0, 1.6546749217252283E9, 0.0, 2022-06-08 09:55:21.725
82.0, 20005.213618900016, 35774.928125730534, -4806.317961969133, -7996.157764930459, 3443.420343806785, 4545.204883242236, 14778.615805937745, -710.6066597231221, 0.056, 0.89, 0.504, 192.0, 0.0, 0.0, 0.0, 0.0, 0.0, 0.0, 0.0, 0.0, 0.0, 1.6546749217252333E9, 0.0, 2022-06-08 09:55:21.725
83.0, 20014.064909704317, 35777.27505889834, -4804.529822412708, -7989.653407293965, 3449.25414910962, 4549.831694344484, 14793.747936933987, -703.319991030692, 0.056, 0.89, 0.504, 192.0, 0.0, 0.0, 0.0, 0.0, 0.0, 0.0, 0.0, 0.0, 0.0, 1.654674921725238E9, 0.0, 2022-06-08 09:55:21.725
84.0, 20049.71594211053, 35811.24971047041, -4795.94675254187, -7992.000340461772, 3456.026727679578, 4556.246645003158, 14788.271759542438, -691.9876565918513, 0.056, 0.89, 0.504, 192.0, 0.0, 0.0, 0.0, 0.0, 0.0, 0.0, 0.0, 0.0, 0.0, 1.6546749217252429E9, 0.0, 2022-06-08 09:55:21.725
85.0, 20054.45451193506, 35808.61220462468, -4790.112947239036, -7975.705918753853, 3460.027689937078, 4563.399203228856, 14785.88012288572, -675.223848250371, 0.056, 0.89, 0.504, 192.0, 0.0, 0.0, 0.0, 0.0, 0.0, 0.0, 0.0, 0.0, 0.0, 1.6546749217252476E9, 0.0, 2022-06-08 09:55:21.725
86.0, 20042.11634899573, 35795.827006796244, -4800.528860155208, -7990.033386949705, 3448.605948520416, 4549.2281972441915, 14776.313576258848, -711.9030609015299, 0.056, 0.89, 0.504, 192.0, 0.0, 0.0, 0.0, 0.0, 0.0, 0.0, 0.0, 0.0, 0.0, 1.6546749217252543E9, 0.0, 2022-06-08 09:55:21.725
87.0, 20035.433177403593, 35804.87946330064, -4804.66393287944, -7992.805003262163, 3442.5039222841174, 4550.1669705113145, 14765.294166242382, -690.1771652909715, 0.066, 0.88, 0.5, 192.0, 2.0, 16.0, 27.0, 128.0, 15.0, 160.0, 0.0, 0.0, 0.0, 1.654674921725259E9, 0.0, 2022-06-08 09:55:21.725
88.0, 20015.33895913827, 35816.94940530651, -4792.795156573672, -7977.739927499286, 3454.8197334789916, 4559.733517138186, 14781.789753650399, -675.1791447614604, 0.066, 0.88, 0.5, 192.0, 0.0, 0.0, 0.0, 0.0, 0.0, 0.0, 0.0, 0.0, 0.0, 1.6546749217252638E9, 0.0, 2022-06-08 09:55:21.725
89.0, 20057.516700925436, 35805.70647784549, -4783.541534369175, -7975.035366420194, 3464.0510039390333, 4562.482781706189, 14791.401003766181, -683.5610489322006, 0.066, 0.88, 0.5, 192.0, 0.0, 0.0, 0.0, 0.0, 0.0, 0.0, 0.0, 0.0, 0.0, 1.6546749217252688E9, 0.0, 2022-06-08 09:55:21.725
90.0, 20096.252274066483, 35813.57429189376, -4786.6037233595525, -7983.350215357568, 3458.8206957364914, 4561.3204909945125, 14782.393250750692, -687.5620111897006, 0.066, 0.88, 0.5, 192.0, 0.0, 0.0, 0.0, 0.0, 0.0, 0.0, 0.0, 0.0, 0.0, 1.6546749217252736E9, 0.0, 2022-06-08 09:55:21.725
91.0, 20006.8229445008, 35818.58108265175, -4787.095461737569, -7993.29674164018, 3450.058811910011, 4559.420592715811, 14774.413677980147, -704.3258195311809, 0.066, 0.88, 0.5, 192.0, 0.0, 0.0, 0.0, 0.0, 0.0, 0.0, 0.0, 0.0, 0.0, 1.6546749217252784E9, 0.0, 2022-06-08 09:55:21.725
92.0, 19994.23891237246, 35794.999992251396, -4794.717406596828, -8001.656294066464, 3446.057849652511, 4552.357441467934, 14770.457419211558, -721.0002208948399, 0.066, 0.88, 0.5, 192.0, 0.0, 0.0, 0.0, 0.0, 0.0, 0.0, 0.0, 0.0, 0.0, 1.654674921725283E9, 0.0, 2022-06-08 09:55:21.725
93.0, 20020.323398151802, 35796.184634707526, -4799.2324589768, -8001.321017899635, 3446.840160708447, 4547.216540243214, 14765.361221475749, -736.4005728245464, 0.066, 0.88, 0.5, 192.0, 0.0, 0.0, 0.0, 0.0, 0.0, 0.0, 0.0, 0.0, 0.0, 1.654674921725288E9, 0.0, 2022-06-08 09:55:21.725
94.0, 20045.893793808675, 35788.24976542589, -4790.157650727946, -7994.682549796409, 3456.362003846408, 4559.66646190482, 14774.011346579951, -728.9127384320186, 0.066, 0.88, 0.5, 192.0, 0.0, 0.0, 0.0, 0.0, 0.0, 0.0, 0.0, 0.0, 0.0, 1.6546749217252924E9, 0.0, 2022-06-08 09:55:21.725
95.0, 20052.532261911903, 35804.83475981173, -4778.1547639554465, -7977.315244354635, 3453.9033119563237, 4560.024089816105, 14770.6362331672, -707.0974358436389, 0.066, 0.88, 0.5, 192.0, 0.0, 0.0, 0.0, 0.0, 0.0, 0.0, 0.0, 0.0, 0.0, 1.6546749217252991E9, 0.0, 2022-06-08 09:55:21.725
96.0, 20026.939514510574, 35842.542152707836, -4776.724252310307, -7981.584427545599, 3445.58846301895, 4558.437115959778, 14764.869483097731, -709.2879068002591, 0.066, 0.88, 0.5, 192.0, 0.0, 0.0, 0.0, 0.0, 0.0, 0.0, 0.0, 0.0, 0.0, 1.654674921725304E9, 0.0, 2022-06-08 09:55:21.725
97.0, 20029.912296523133, 35828.86288510119, -4782.222781446312, -7991.687416039398, 3439.44173329374, 4552.111572278925, 14755.504102170957, -733.2489768563482, 0.07, 0.886, 0.502, 192.0, 2.0, 48.0, 27.0, 176.0, 15.0, 176.0, 0.0, 0.0, 0.0, 1.6546749217253087E9, 0.0, 2022-06-08 09:55:21.725
98.0, 20067.64204116369, 35807.8522453132, -4771.829220274594, -7970.989700673784, 3447.801285720025, 4549.13879026637, 14747.859805567243, -768.1400499510825, 0.07, 0.886, 0.502, 192.0, 0.0, 0.0, 0.0, 0.0, 0.0, 0.0, 0.0, 0.0, 0.0, 1.6546749217253132E9, 0.0, 2022-06-08 09:55:21.725
99.0, 20062.50113993897, 35821.352698964205, -4769.035252217681, -7968.151029127959, 3444.5379310295502, 4549.474066433199, 14721.507098854436, -786.3567216821577, 0.07, 0.886, 0.502, 192.0, 0.0, 0.0, 0.0, 0.0, 0.0, 0.0, 0.0, 0.0, 0.0, 1.654674921725318E9, 0.0, 2022-06-08 09:55:21.725
100.0, 20047.793692087376, 35822.93967282053, -4759.222836401801, -7968.19573261687, 3446.8848641973573, 4562.348671239456, 14725.955096001042, -741.7649914938202, 0.07, 0.886, 0.502, 192.0, 0.0, 0.0, 0.0, 0.0, 0.0, 0.0, 0.0, 0.0, 0.0, 1.6546749217253227E9, 0.0, 2022-06-08 09:55:21.725
101.0, 20065.92095684063, 35822.42558269806, -4765.213103915823, -7978.946921699873, 3439.151160615821, 4559.4429444602665, 14759.773285361922, -717.6474592265439, 0.07, 0.886, 0.502, 192.0, 0.0, 0.0, 0.0, 0.0, 0.0, 0.0, 0.0, 0.0, 0.0, 1.6546749217253273E9, 0.0, 2022-06-08 09:55:21.725
102.0, 20067.574985930325, 35806.77936157934, -4777.3948046439655, -8001.00809347726, 3428.936413399746, 4540.75688609563, 14761.472017940525, -738.8145612257197, 0.07, 0.886, 0.502, 192.0, 0.0, 0.0, 0.0, 0.0, 0.0, 0.0, 0.0, 0.0, 0.0, 1.654674921725332E9, 0.0, 2022-06-08 09:55:21.725
103.0, 20025.53135460989, 35825.01838505488, -4768.208237672834, -7983.730195013309, 3439.1735123602766, 4544.3555169529345, 14766.21058776505, -745.4753810734012, 0.07, 0.886, 0.502, 192.0, 0.0, 0.0, 0.0, 0.0, 0.0, 0.0, 0.0, 0.0, 0.0, 1.6546749217253368E9, 0.0, 2022-06-08 09:55:21.725
104.0, 20034.025017502907, 35841.33515850725, -4758.820505001606, -7979.2821978667025, 3441.0734106389777, 4556.201941514247, 14764.601262164268, -732.9807559228846, 0.07, 0.886, 0.502, 192.0, 0.0, 0.0, 0.0, 0.0, 0.0, 0.0, 0.0, 0.0, 0.0, 1.6546749217253416E9, 0.0, 2022-06-08 09:55:21.725
105.0, 20038.115386738227, 35810.936786048034, -4749.969214197304, -7979.4833635668, 3444.2026548627205, 4565.321453252012, 14780.538055960902, -701.3083340297144, 0.07, 0.886, 0.502, 192.0, 0.0, 0.0, 0.0, 0.0, 0.0, 0.0, 0.0, 0.0, 0.0, 1.6546749217253463E9, 0.0, 2022-06-08 09:55:21.725
106.0, 20036.01432275943, 35810.8026755813, -4749.65628977493, -7995.10723294106, 3447.264843853098, 4564.360328240434, 14803.40389053868, -687.0032175783178, 0.07, 0.886, 0.502, 192.0, 0.0, 0.0, 0.0, 0.0, 0.0, 0.0, 0.0, 0.0, 0.0, 1.654674921725351E9, 0.0, 2022-06-08 09:55:21.725
107.0, 20059.997744559972, 35835.94838809352, -4760.206313157834, -7989.631055549509, 3437.4300762927624, 4558.347708981956, 14778.280529770915, -709.2655550558037, 0.074, 0.89, 0.506, 192.0, 2.0, 80.0, 27.0, 208.0, 15.0, 208.0, 0.0, 0.0, 0.0, 1.654674921725358E9, 0.0, 2022-06-08 09:55:21.725
108.0, 20105.483544526523, 35880.562470026314, -4761.525066080698, -7988.647578793476, 3439.352326315919, 4562.4380782172775, 14765.16005577565, -720.4190755390019, 0.074, 0.89, 0.506, 192.0, 0.0, 0.0, 0.0, 0.0, 0.0, 0.0, 0.0, 0.0, 0.0, 1.6546749217253628E9, 0.0, 2022-06-08 09:55:21.725
109.0, 20091.044317608397, 35864.93860065205, -4753.70195552134, -7981.696186267875, 3446.6613467528045, 4568.651863175853, 14781.186256550105, -701.8894793855524, 0.074, 0.89, 0.506, 192.0, 0.0, 0.0, 0.0, 0.0, 0.0, 0.0, 0.0, 0.0, 0.0, 1.6546749217253673E9, 0.0, 2022-06-08 09:55:21.725
110.0, 20043.435101918592, 35796.117579474165, -4748.292833363156, -7989.273427638224, 3446.5048845416172, 4570.060023076538, 14787.578855464322, -704.8175579091976, 0.074, 0.89, 0.506, 192.0, 0.0, 0.0, 0.0, 0.0, 0.0, 0.0, 0.0, 0.0, 0.0, 1.654674921725372E9, 0.0, 2022-06-08 09:55:21.725
111.0, 20012.455584103536, 35781.96892523395, -4749.7456967527505, -8004.4055586344675, 3440.2240443496758, 4566.148467796858, 14789.881085143219, -713.802959180231, 0.074, 0.89, 0.506, 192.0, 0.0, 0.0, 0.0, 0.0, 0.0, 0.0, 0.0, 0.0, 0.0, 1.6546749217253768E9, 0.0, 2022-06-08 09:55:21.725
112.0, 20033.957962269542, 35814.33425120524, -4757.389993356466, -8014.665009339454, 3431.350401800919, 4561.454601461244, 14773.743125646488, -722.2295668398818, 0.074, 0.89, 0.506, 192.0, 0.0, 0.0, 0.0, 0.0, 0.0, 0.0, 0.0, 0.0, 0.0, 1.6546749217253816E9, 0.0, 2022-06-08 09:55:21.725
113.0, 20053.06870377883, 35830.85219035771, -4754.238397388268, -8012.318076171646, 3440.1346373718548, 4568.383642242389, 14770.569177933834, -720.8214069391975, 0.074, 0.89, 0.506, 192.0, 0.0, 0.0, 0.0, 0.0, 0.0, 0.0, 0.0, 0.0, 0.0, 1.6546749217253861E9, 0.0, 2022-06-08 09:55:21.725
114.0, 20060.981221316008, 35853.919190635585, -4738.055734402626, -8001.812756277652, 3453.2551113671198, 4576.989063857683, 14771.01621282294, -715.3452295476473, 0.074, 0.89, 0.506, 192.0, 0.0, 0.0, 0.0, 0.0, 0.0, 0.0, 0.0, 0.0, 0.0, 1.654674921725391E9, 0.0, 2022-06-08 09:55:21.725
115.0, 20062.232919005506, 35838.3623764947, -4732.065466888603, -8007.646561580487, 3449.164742131799, 4570.015319587626, 14761.851997596264, -720.9555174059293, 0.074, 0.89, 0.506, 192.0, 0.0, 0.0, 0.0, 0.0, 0.0, 0.0, 0.0, 0.0, 0.0, 1.6546749217253957E9, 0.0, 2022-06-08 09:55:21.725
116.0, 20035.455529148046, 35848.59947545522, -4741.944937937848, -8017.548384374188, 3437.9441664152346, 4561.074621805504, 14761.695535385077, -744.2460351283593, 0.066, 0.888, 0.508, 192.0, 2.0, 16.0, 27.0, 192.0, 15.0, 224.0, 0.0, 0.0, 0.0, 1.6546749217254007E9, 0.0, 2022-06-08 09:55:21.725
117.0, 20037.847165804764, 35825.64423389962, -4744.850664717039, -8020.834090809119, 3438.5700152599834, 4560.292310749568, 14771.217378523039, -765.0108057273395, 0.066, 0.888, 0.508, 192.0, 0.0, 0.0, 0.0, 0.0, 0.0, 0.0, 0.0, 0.0, 0.0, 1.6546749217254057E9, 0.0, 2022-06-08 09:55:21.725
118.0, 20046.094959508773, 35855.30499879181, -4741.028516415181, -8019.515337886255, 3441.006355405612, 4568.607159686942, 14769.272776755426, -761.836858014686, 0.066, 0.888, 0.508, 192.0, 0.0, 0.0, 0.0, 0.0, 0.0, 0.0, 0.0, 0.0, 0.0, 1.6546749217254107E9, 0.0, 2022-06-08 09:55:21.725
119.0, 20078.92967211362, 35891.78304574288, -4732.959536666815, -8009.747625559286, 3445.8790356968684, 4576.676139435308, 14769.384535477702, -746.2800438737922, 0.066, 0.888, 0.508, 192.0, 0.0, 0.0, 0.0, 0.0, 0.0, 0.0, 0.0, 0.0, 0.0, 1.6546749217254152E9, 0.0, 2022-06-08 09:55:21.725
120.0, 20064.021058561928, 35853.785080168855, -4725.114074363002, -7995.9565992303615, 3452.964538689201, 4578.129002824903, 14773.094925057285, -745.2518636288481, 0.066, 0.888, 0.508, 192.0, 0.0, 0.0, 0.0, 0.0, 0.0, 0.0, 0.0, 0.0, 0.0, 1.6546749217254202E9, 0.0, 2022-06-08 09:55:21.725
121.0, 20043.904488552154, 35830.919245591074, -4729.763237209706, -8007.4900993693, 3439.1735123602766, 4577.547857469065, 14748.128026500706, -758.9758347244066, 0.066, 0.888, 0.508, 192.0, 0.0, 0.0, 0.0, 0.0, 0.0, 0.0, 0.0, 0.0, 0.0, 1.6546749217254252E9, 0.0, 2022-06-08 09:55:21.725
122.0, 20029.420558145113, 35819.02811754085, -4741.475551304287, -8009.546459859188, 3424.6672302087823, 4570.998796343661, 14742.16011073114, -754.9748724669066, 0.066, 0.888, 0.508, 192.0, 0.0, 0.0, 0.0, 0.0, 0.0, 0.0, 0.0, 0.0, 0.0, 1.65467492220404E9, 0.0, 2022-06-08 09:55:22.204
123.0, 20055.661506135646, 35856.40023427013, -4728.757408709217, -8000.382244632512, 3444.448524051729, 4585.862706406439, 14776.760611147954, -715.9487266479405, 0.066, 0.888, 0.508, 192.0, 0.0, 0.0, 0.0, 0.0, 0.0, 0.0, 0.0, 0.0, 0.0, 1.654674922204178E9, 0.0, 2022-06-08 09:55:22.204
124.0, 20090.194951319096, 35850.6111324562, -4717.246260314734, -7997.610628320054, 3453.2104078782095, 4590.780090186607, 14776.827666381321, -733.1819216229823, 0.066, 0.888, 0.508, 192.0, 0.0, 0.0, 0.0, 0.0, 0.0, 0.0, 0.0, 0.0, 0.0, 1.654674922204186E9, 0.0, 2022-06-08 09:55:22.204
125.0, 20106.802297449387, 35861.541135494845, -4722.476568517276, -8003.735006300808, 3442.34746007293, 4587.315569796035, 14755.817026593331, -745.7883054957755, 0.066, 0.888, 0.508, 192.0, 0.0, 0.0, 0.0, 0.0, 0.0, 0.0, 0.0, 0.0, 0.0, 1.6546749222041936E9, 0.0, 2022-06-08 09:55:22.204
126.0, 20067.463227208045, 35873.83459494526, -4718.877937659971, -7999.666988809942, 3436.15602685881, 4595.049273377571, 14764.981241820007, -719.5920609941555, 0.068, 0.888, 0.512, 192.0, 2.0, 32.0, 27.0, 192.0, 16.0, 0.0, 0.0, 0.0, 0.0, 1.6546749222041993E9, 0.0, 2022-06-08 09:55:22.204
127.0, 20028.682950578088, 35848.822992899775, -4712.55239397912, -7993.497907340277, 3436.6030617479164, 4601.464224036244, 14778.660509426656, -675.7602901172984, 0.068, 0.888, 0.512, 192.0, 0.0, 0.0, 0.0, 0.0, 0.0, 0.0, 0.0, 0.0, 0.0, 1.6546749222042048E9, 0.0, 2022-06-08 09:55:22.204
128.0, 20031.163994212628, 35840.48579221795, -4706.316257276089, -7991.262732894747, 3441.7886664615476, 4598.267924579135, 14799.738204448011, -676.7214151288766, 0.068, 0.888, 0.512, 192.0, 0.0, 0.0, 0.0, 0.0, 0.0, 0.0, 0.0, 0.0, 0.0, 1.654674922204245E9, 0.0, 2022-06-08 09:55:22.204
129.0, 20052.39815144517, 35861.67524596158, -4697.129690304958, -7984.3336921136015, 3451.802247977525, 4598.5361455125985, 14800.83343992632, -698.0896828281502, 0.068, 0.888, 0.512, 192.0, 0.0, 0.0, 0.0, 0.0, 0.0, 0.0, 0.0, 0.0, 0.0, 1.6546749222042506E9, 0.0, 2022-06-08 09:55:22.204
130.0, 20081.656584937165, 35880.38365607067, -4690.938257090838, -7979.617474033532, 3453.188056133754, 4604.079378137515, 14792.362128777759, -692.8146711366977, 0.068, 0.888, 0.512, 192.0, 0.0, 0.0, 0.0, 0.0, 0.0, 0.0, 0.0, 0.0, 0.0, 1.6546749222042563E9, 0.0, 2022-06-08 09:55:22.204
131.0, 20083.02004134894, 35892.520653309904, -4691.541754191131, -7993.207334662358, 3446.0354979080557, 4602.023017647626, 14769.093962799785, -705.1975375649379, 0.068, 0.888, 0.512, 192.0, 0.0, 0.0, 0.0, 0.0, 0.0, 0.0, 0.0, 0.0, 0.0, 1.6546749222042623E9, 0.0, 2022-06-08 09:55:22.204
132.0, 20068.26789000844, 35903.92004298211, -4702.114129318492, -8004.785538290208, 3439.4640850381957, 4587.159107584847, 14755.973488804519, -733.7630669788202, 0.068, 0.888, 0.512, 192.0, 0.0, 0.0, 0.0, 0.0, 0.0, 0.0, 0.0, 0.0, 0.0, 1.6546749222042675E9, 0.0, 2022-06-08 09:55:22.204
133.0, 20098.375689789736, 35885.882185206676, -4702.449405485321, -7993.967293973839, 3446.6613467528045, 4587.404976773855, 14775.598320436278, -729.0468488987505, 0.068, 0.888, 0.512, 192.0, 0.0, 0.0, 0.0, 0.0, 0.0, 0.0, 0.0, 0.0, 0.0, 1.6546749222042737E9, 0.0, 2022-06-08 09:55:22.204
134.0, 20085.657547194667, 35891.894804465155, -4685.395024465922, -7972.91195069694, 3461.7934777490473, 4600.05606413556, 14798.26298931396, -708.6173544665999, 0.068, 0.888, 0.512, 192.0, 0.0, 0.0, 0.0, 0.0, 0.0, 0.0, 0.0, 0.0, 0.0, 1.6546749222042787E9, 0.0, 2022-06-08 09:55:22.204
135.0, 20072.425314477125, 35873.70048447853, -4673.705062115796, -7955.768162699719, 3464.2745213835865, 4603.677046737319, 14793.367957278248, -718.7426947048539, 0.068, 0.888, 0.512, 192.0, 0.0, 0.0, 0.0, 0.0, 0.0, 0.0, 0.0, 0.0, 0.0, 1.6546749222042856E9, 0.0, 2022-06-08 09:55:22.204
136.0, 20058.991916059484, 35864.7150832075, -4695.922696104371, -7983.886657224496, 3438.2347390931536, 4584.2757325501125, 14760.376782462214, -745.3412706066694, 0.08, 0.882, 0.504, 192.0, 2.0, 128.0, 27.0, 144.0, 15.0, 192.0, 0.0, 0.0, 0.0, 1.654674922204292E9, 0.0, 2022-06-08 09:55:22.204
137.0, 20071.955927843563, 35883.80347297233, -4711.323048034078, -7994.749605029775, 3426.7235906986703, 4586.823831418018, 14744.194119476571, -729.4268285544907, 0.08, 0.882, 0.504, 192.0, 0.0, 0.0, 0.0, 0.0, 0.0, 0.0, 0.0, 0.0, 0.0, 1.6546749222043264E9, 0.0, 2022-06-08 09:55:22.204
138.0, 20081.41071574816, 35893.74999925494, -4708.707893932807, -7984.646616535976, 3430.903366911813, 4595.3845495444, 14721.037712220874, -723.995354651851, 0.08, 0.882, 0.504, 192.0, 0.0, 0.0, 0.0, 0.0, 0.0, 0.0, 0.0, 0.0, 0.0, 1.654674922204332E9, 0.0, 2022-06-08 09:55:22.204
139.0, 20098.800372934387, 35891.44776957605, -4696.436786226844, -7972.979005930306, 3438.2794425820643, 4606.605125260964, 14714.108671439728, -713.288869057759, 0.08, 0.882, 0.504, 192.0, 0.0, 0.0, 0.0, 0.0, 0.0, 0.0, 0.0, 0.0, 0.0, 1.6546749222043376E9, 0.0, 2022-06-08 09:55:22.204
140.0, 20113.21724810806, 35890.10666490873, -4694.246315270223, -7972.129639641004, 3445.230835107665, 4610.181404373813, 14742.093055497773, -707.544470732745, 0.08, 0.882, 0.504, 192.0, 0.0, 0.0, 0.0, 0.0, 0.0, 0.0, 0.0, 0.0, 0.0, 1.6546749222043436E9, 0.0, 2022-06-08 09:55:22.204
141.0, 20086.797486161886, 35866.14559485264, -4698.426091483366, -7969.469782050823, 3450.192922376743, 4605.442834549289, 14787.645910697689, -708.4608922554127, 0.08, 0.882, 0.504, 192.0, 0.0, 0.0, 0.0, 0.0, 0.0, 0.0, 0.0, 0.0, 0.0, 1.6546749222043493E9, 0.0, 2022-06-08 09:55:22.204
142.0, 20063.574023672823, 35876.04741764634, -4720.822539427583, -7987.284122381702, 3439.5758437604723, 4587.784956429596, 14802.241599827004, -724.8447209411528, 0.08, 0.882, 0.504, 192.0, 0.0, 0.0, 0.0, 0.0, 0.0, 0.0, 0.0, 0.0, 0.0, 1.6546749222043543E9, 0.0, 2022-06-08 09:55:22.204
143.0, 20060.78005561591, 35895.42638008909, -4718.140330092947, -7979.058680422149, 3445.7672769745923, 4593.261133821146, 14817.194916867606, -721.0225726392953, 0.08, 0.882, 0.504, 192.0, 0.0, 0.0, 0.0, 0.0, 0.0, 0.0, 0.0, 0.0, 0.0, 1.654674922204359E9, 0.0, 2022-06-08 09:55:22.204
144.0, 20079.577872702823, 35900.544929569354, -4709.333742777556, -7966.407593060446, 3460.7876492485584, 4604.9957996601825, 14820.525326791445, -701.8671276410971, 0.08, 0.882, 0.504, 192.0, 0.0, 0.0, 0.0, 0.0, 0.0, 0.0, 0.0, 0.0, 0.0, 1.654674922204364E9, 0.0, 2022-06-08 09:55:22.204
145.0, 20096.632253722222, 35894.398199844145, -4712.5300422346645, -7971.10145939606, 3449.25414910962, 4598.402035045867, 14797.614788724755, -717.9156801600076, 0.08, 0.882, 0.504, 192.0, 0.0, 0.0, 0.0, 0.0, 0.0, 0.0, 0.0, 0.0, 0.0, 1.6546749222043693E9, 0.0, 2022-06-08 09:55:22.204
146.0, 20081.097791325785, 35893.28061262138, -4718.766178937695, -7975.124773398015, 3434.546701258028, 4594.6022384884645, 14782.21443679505, -728.3315930761806, 0.10400000000000001, 0.876, 0.506, 192.0, 3.0, 64.0, 27.0, 96.0, 15.0, 208.0, 0.0, 0.0, 0.0, 1.654674922204374E9, 0.0, 2022-06-08 09:55:22.204
147.0, 20065.071590551328, 35902.13190342568, -4721.984830139259, -7969.872113451018, 3431.2386430786423, 4589.729558197208, 14775.821837880832, -730.9690989219068, 0.10400000000000001, 0.876, 0.506, 192.0, 0.0, 0.0, 0.0, 0.0, 0.0, 0.0, 0.0, 0.0, 0.0, 1.654674922204379E9, 0.0, 2022-06-08 09:55:22.204
148.0, 20081.500122725978, 35904.09885693775, -4721.560146994609, -7973.806020475152, 3430.5233872560725, 4588.835488418995, 14776.581797192312, -730.253843099337, 0.10400000000000001, 0.876, 0.506, 192.0, 0.0, 0.0, 0.0, 0.0, 0.0, 0.0, 0.0, 0.0, 0.0, 1.6546749222043848E9, 0.0, 2022-06-08 09:55:22.204
149.0, 20104.142439859206, 35900.03083944689, -4710.339571278045, -7953.62239523201, 3437.8547594374136, 4598.0667588790375, 14785.88012288572, -726.3422878196583, 0.10400000000000001, 0.876, 0.506, 192.0, 0.0, 0.0, 0.0, 0.0, 0.0, 0.0, 0.0, 0.0, 0.0, 1.6546749222043896E9, 0.0, 2022-06-08 09:55:22.204
150.0, 20097.436916522613, 35902.71304878152, -4702.516460718687, -7959.85853193504, 3437.2065588482096, 4592.81409893204, 14787.824724653332, -729.9185669325075, 0.10400000000000001, 0.876, 0.506, 192.0, 0.0, 0.0, 0.0, 0.0, 0.0, 0.0, 0.0, 0.0, 0.0, 1.6546749222045465E9, 0.0, 2022-06-08 09:55:22.204
151.0, 20115.765346975964, 35925.377717659205, -4704.058731086103, -7966.474648293812, 3430.188111089243, 4579.984197614694, 14784.293149029392, -742.5249508053006, 0.10400000000000001, 0.876, 0.506, 192.0, 0.0, 0.0, 0.0, 0.0, 0.0, 0.0, 0.0, 0.0, 0.0, 1.6546749222045586E9, 0.0, 2022-06-08 09:55:22.204
152.0, 20076.87331162373, 35918.00164198895, -4709.356094522011, -7978.365776344035, 3420.062770850989, 4576.452621990755, 14772.893759357186, -760.7192707919206, 0.10400000000000001, 0.876, 0.506, 192.0, 0.0, 0.0, 0.0, 0.0, 0.0, 0.0, 0.0, 0.0, 0.0, 1.6546749222045655E9, 0.0, 2022-06-08 09:55:22.204
153.0, 20065.473921951525, 35870.638295488156, -4708.529079977165, -7970.788534973685, 3419.9733638731677, 4587.650845962864, 14763.260157496949, -776.5666576107333, 0.10400000000000001, 0.876, 0.506, 192.0, 0.0, 0.0, 0.0, 0.0, 0.0, 0.0, 0.0, 0.0, 0.0, 1.6546749222045732E9, 0.0, 2022-06-08 09:55:22.204
154.0, 20071.665355165645, 35887.75973174092, -4693.419300725377, -7961.043174391172, 3427.5059017546064, 4599.296104824079, 14766.635270909701, -782.6239803581215, 0.10400000000000001, 0.876, 0.506, 192.0, 0.0, 0.0, 0.0, 0.0, 0.0, 0.0, 0.0, 0.0, 0.0, 1.6546749222045808E9, 0.0, 2022-06-08 09:55:22.204
155.0, 20071.151265043172, 35911.63139481919, -4683.740995376229, -7953.309470809636, 3433.1385413573435, 4610.404921818366, 14790.126954332229, -754.9748724669066, 0.10400000000000001, 0.876, 0.506, 192.0, 0.0, 0.0, 0.0, 0.0, 0.0, 0.0, 0.0, 0.0, 0.0, 1.654674922204589E9, 0.0, 2022-06-08 09:55:22.204
156.0, 20072.49236971049, 35929.89277003917, -4681.058786041593, -7965.088840137582, 3427.1929773322317, 4607.566250272543, 14788.07059384234, -736.1323518910827, 0.09, 0.896, 0.508, 192.0, 2.0, 208.0, 28.0, 0.0, 15.0, 224.0, 0.0, 0.0, 0.0, 1.6546749222046006E9, 0.0, 2022-06-08 09:55:22.204
157.0, 20054.856843335252, 35902.86951099271, -4683.517477931676, -7968.709822739342, 3426.701238954215, 4606.5157182831435, 14773.944291346586, -751.9350352209849, 0.09, 0.896, 0.508, 192.0, 0.0, 0.0, 0.0, 0.0, 0.0, 0.0, 0.0, 0.0, 0.0, 1.6546749222046063E9, 0.0, 2022-06-08 09:55:22.204
158.0, 20067.753799885966, 35909.9773657295, -4685.462079699288, -7960.797305202163, 3418.587555716939, 4605.018151404637, 14754.945308559574, -728.1304273760828, 0.09, 0.896, 0.508, 192.0, 0.0, 0.0, 0.0, 0.0, 0.0, 0.0, 0.0, 0.0, 0.0, 1.6546749222046115E9, 0.0, 2022-06-08 09:55:22.204
159.0, 20092.161904831162, 35951.730424372014, -4669.659396369386, -7956.14814235546, 3429.7634279445924, 4611.634267763408, 14783.063803084351, -695.7203979158876, 0.09, 0.896, 0.508, 192.0, 0.0, 0.0, 0.0, 0.0, 0.0, 0.0, 0.0, 0.0, 0.0, 1.654674922204618E9, 0.0, 2022-06-08 09:55:22.204
160.0, 20105.21532359306, 35913.64305182017, -4660.428125909344, -7948.302680051646, 3436.379544303363, 4620.530262056621, 14792.809163666865, -669.680615625455, 0.09, 0.896, 0.508, 192.0, 0.0, 0.0, 0.0, 0.0, 0.0, 0.0, 0.0, 0.0, 0.0, 1.6546749222046232E9, 0.0, 2022-06-08 09:55:22.204
161.0, 20106.08704162682, 35891.6712870206, -4666.440745167822, -7967.972215172317, 3427.930584899257, 4603.297067081579, 14814.6468179997, -698.0896828281502, 0.09, 0.896, 0.508, 192.0, 0.0, 0.0, 0.0, 0.0, 0.0, 0.0, 0.0, 0.0, 0.0, 1.654674922204628E9, 0.0, 2022-06-08 09:55:22.204
162.0, 20064.78101787341, 35899.18147315759, -4668.295939957612, -7974.431869319901, 3431.6856779677487, 4594.803404188562, 14843.592327069322, -717.5357005042673, 0.09, 0.896, 0.508, 192.0, 0.0, 0.0, 0.0, 0.0, 0.0, 0.0, 0.0, 0.0, 0.0, 1.6546749222046332E9, 0.0, 2022-06-08 09:55:22.204
163.0, 20051.079398522306, 35939.839296321785, -4666.35133819, -7974.655386764453, 3436.6924687257374, 4598.714959468241, 14845.112245692284, -720.4637790279126, 0.09, 0.896, 0.508, 192.0, 0.0, 0.0, 0.0, 0.0, 0.0, 0.0, 0.0, 0.0, 0.0, 1.654674922204638E9, 0.0, 2022-06-08 09:55:22.204
164.0, 20082.729468671023, 35942.25328472296, -4662.484486399232, -7973.336633841591, 3436.513654770095, 4603.297067081579, 14821.084120402827, -730.3656018216136, 0.09, 0.896, 0.508, 192.0, 0.0, 0.0, 0.0, 0.0, 0.0, 0.0, 0.0, 0.0, 0.0, 1.654674922204643E9, 0.0, 2022-06-08 09:55:22.204
165.0, 20088.58562571831, 35937.402956176156, -4654.817838051062, -7951.0519446196495, 3444.381468818363, 4602.67121823683, 14826.560297794378, -743.9778141948956, 0.09, 0.896, 0.508, 192.0, 0.0, 0.0, 0.0, 0.0, 0.0, 0.0, 0.0, 0.0, 0.0, 1.654674922204648E9, 0.0, 2022-06-08 09:55:22.204
166.0, 20075.666317423143, 35932.48557239599, -4657.768268319162, -7955.119962110515, 3441.2969280835305, 4594.222258832724, 14834.875146731752, -758.931131235496, 0.074, 0.892, 0.504, 192.0, 2.0, 80.0, 27.0, 224.0, 15.0, 192.0, 0.0, 0.0, 0.0, 1.6546749222046528E9, 0.0, 2022-06-08 09:55:22.204
167.0, 20057.024962547417, 35894.93464171108, -4667.960663790782, -7969.648596006465, 3427.684715710249, 4585.996816873171, 14822.514632047967, -737.2499391138482, 0.074, 0.892, 0.504, 192.0, 0.0, 0.0, 0.0, 0.0, 0.0, 0.0, 0.0, 0.0, 0.0, 1.6546749222046576E9, 0.0, 2022-06-08 09:55:22.204
168.0, 20070.480712709512, 35919.11922921172, -4662.238617210223, -7958.137447611982, 3432.602099490416, 4598.580849001509, 14828.88487921773, -702.3812177635691, 0.074, 0.892, 0.504, 192.0, 0.0, 0.0, 0.0, 0.0, 0.0, 0.0, 0.0, 0.0, 0.0, 1.6546749222046623E9, 0.0, 2022-06-08 09:55:22.204
169.0, 20087.93742512911, 35963.10746229976, -4647.799390292095, -7944.748752683253, 3440.7828379610587, 4612.81891021954, 14829.778948995943, -704.1693573199937, 0.074, 0.892, 0.504, 192.0, 0.0, 0.0, 0.0, 0.0, 0.0, 0.0, 0.0, 0.0, 0.0, 1.654674922204667E9, 0.0, 2022-06-08 09:55:22.204
170.0, 20086.05987859486, 35920.5273891124, -4653.834361295028, -7957.086915622583, 3431.640974478838, 4606.046331649582, 14810.31057957537, -728.9574419209292, 0.074, 0.892, 0.504, 192.0, 0.0, 0.0, 0.0, 0.0, 0.0, 0.0, 0.0, 0.0, 0.0, 1.654674922204672E9, 0.0, 2022-06-08 09:55:22.204
171.0, 20081.947157615086, 35914.961804743034, -4664.607902122486, -7970.296796595669, 3418.185224316743, 4587.606142473954, 14777.989957092996, -779.3159221787361, 0.074, 0.892, 0.504, 192.0, 0.0, 0.0, 0.0, 0.0, 0.0, 0.0, 0.0, 0.0, 0.0, 1.6546749222046804E9, 0.0, 2022-06-08 09:55:22.204
172.0, 20062.50113993897, 35928.953996772056, -4671.291073714623, -7973.850723964063, 3411.9043841248017, 4577.324340024512, 14749.022096278919, -798.7172363659425, 0.074, 0.892, 0.504, 192.0, 0.0, 0.0, 0.0, 0.0, 0.0, 0.0, 0.0, 0.0, 0.0, 1.6546749222046852E9, 0.0, 2022-06-08 09:55:22.204
173.0, 20078.92967211362, 35925.1318484702, -4653.789657806117, -7953.689450465376, 3418.162872572288, 4601.173651358325, 14717.126156941194, -751.2644828873257, 0.074, 0.892, 0.504, 192.0, 0.0, 0.0, 0.0, 0.0, 0.0, 0.0, 0.0, 0.0, 0.0, 1.6546749222046902E9, 0.0, 2022-06-08 09:55:22.204
174.0, 20098.196875834095, 35934.474877652516, -4633.181349418324, -7936.992697357261, 3435.77604720307, 4619.502081811676, 14756.621689393723, -702.001238107829, 0.074, 0.892, 0.504, 192.0, 0.0, 0.0, 0.0, 0.0, 0.0, 0.0, 0.0, 0.0, 0.0, 1.6546749222046952E9, 0.0, 2022-06-08 09:55:22.204
175.0, 20092.743050187, 35936.64299686468, -4623.1901196468025, -7921.033551816172, 3447.957747931212, 4632.846073251495, 14834.137539164727, -666.7301853573543, 0.074, 0.892, 0.504, 192.0, 0.0, 0.0, 0.0, 0.0, 0.0, 0.0, 0.0, 0.0, 0.0, 1.6546749222047002E9, 0.0, 2022-06-08 09:55:22.204
176.0, 20057.986087558995, 35907.25045290595, -4638.791637276607, -7942.178302070893, 3431.6633262232936, 4614.2717736091345, 14842.608850313289, -689.9983513353291, 0.056, 0.896, 0.502, 192.0, 1.0, 192.0, 28.0, 0.0, 15.0, 176.0, 0.0, 0.0, 0.0, 1.6546749222047052E9, 0.0, 2022-06-08 09:55:22.204
177.0, 20066.30093649637, 35914.403011131646, -4644.893663512906, -7952.236587075781, 3422.6332214633494, 4596.748005956174, 14832.237640886027, -701.6659619409993, 0.056, 0.896, 0.502, 192.0, 0.0, 0.0, 0.0, 0.0, 0.0, 0.0, 0.0, 0.0, 0.0, 1.65467492220471E9, 0.0, 2022-06-08 09:55:22.204
178.0, 20089.725564685534, 35928.14933397166, -4654.01317525067, -7955.298776066158, 3416.710009182693, 4583.71693893873, 14828.214326884072, -721.5366627617673, 0.056, 0.896, 0.502, 192.0, 0.0, 0.0, 0.0, 0.0, 0.0, 0.0, 0.0, 0.0, 0.0, 1.6546749222047153E9, 0.0, 2022-06-08 09:55:22.204
179.0, 20117.17350687665, 35970.50588971447, -4636.578814575531, -7934.3775432559905, 3437.161855359299, 4602.224183347725, 14845.64868755921, -711.1878050789601, 0.056, 0.896, 0.502, 192.0, 0.0, 0.0, 0.0, 0.0, 0.0, 0.0, 0.0, 0.0, 0.0, 1.6546749222047217E9, 0.0, 2022-06-08 09:55:22.204
180.0, 20116.435899309625, 35972.74106416, -4624.017134191648, -7924.90040360694, 3443.018012406589, 4612.349523585978, 14851.750713795509, -708.8408719111529, 0.056, 0.896, 0.502, 192.0, 0.0, 0.0, 0.0, 0.0, 0.0, 0.0, 0.0, 0.0, 0.0, 1.6546749222047272E9, 0.0, 2022-06-08 09:55:22.204
181.0, 20073.96758484454, 35930.78683981739, -4630.074456939037, -7927.627316430488, 3431.5962709899272, 4602.112424625448, 14831.902364719197, -723.19069185146, 0.056, 0.896, 0.502, 192.0, 0.0, 0.0, 0.0, 0.0, 0.0, 0.0, 0.0, 0.0, 0.0, 1.6546749222047322E9, 0.0, 2022-06-08 09:55:22.204
182.0, 20053.7839596014, 35915.96763324352, -4639.81981752155, -7937.1938630573595, 3422.0744278519664, 4593.752872199163, 14804.543829505901, -728.4433517984572, 0.056, 0.896, 0.502, 192.0, 0.0, 0.0, 0.0, 0.0, 0.0, 0.0, 0.0, 0.0, 0.0, 1.6546749222047372E9, 0.0, 2022-06-08 09:55:22.204
183.0, 20057.650811392166, 35910.15617968514, -4642.166750689358, -7935.740999667764, 3425.6507069648155, 4600.860726935951, 14796.161925335162, -724.4647412854125, 0.056, 0.896, 0.502, 192.0, 0.0, 0.0, 0.0, 0.0, 0.0, 0.0, 0.0, 0.0, 0.0, 1.6546749222047424E9, 0.0, 2022-06-08 09:55:22.204
184.0, 20087.53509372891, 35923.16489495813, -4627.638116793409, -7921.5252901941885, 3442.5262740285725, 4617.155148643869, 14828.348437350804, -709.1090928446166, 0.056, 0.896, 0.502, 192.0, 0.0, 0.0, 0.0, 0.0, 0.0, 0.0, 0.0, 0.0, 0.0, 1.6546749222047484E9, 0.0, 2022-06-08 09:55:22.204
185.0, 20072.626480177223, 35929.60219736126, -4622.653677779875, -7918.418397714901, 3443.263881595598, 4618.0268666776265, 14840.776007267954, -718.2062528379265, 0.056, 0.896, 0.502, 192.0, 0.0, 0.0, 0.0, 0.0, 0.0, 0.0, 0.0, 0.0, 0.0, 1.6546749222047539E9, 0.0, 2022-06-08 09:55:22.204
186.0, 20032.706264580043, 35899.33793536877, -4632.935480229316, -7934.109322322527, 3429.2716895665753, 4606.091035138493, 14821.665265758666, -740.8932734600633, 0.056, 0.888, 0.502, 192.0, 1.0, 192.0, 27.0, 192.0, 15.0, 176.0, 0.0, 0.0, 0.0, 1.6546749222047603E9, 0.0, 2022-06-08 09:55:22.204
187.0, 20004.67717703309, 35864.53626925186, -4641.920881500349, -7931.337706010068, 3421.5603377294947, 4602.738273470196, 14801.526344004435, -730.4550087994348, 0.056, 0.888, 0.502, 192.0, 0.0, 0.0, 0.0, 0.0, 0.0, 0.0, 0.0, 0.0, 0.0, 1.6546749222047653E9, 0.0, 2022-06-08 09:55:22.204
188.0, 19989.634453014667, 35849.7617661669, -4645.564215846564, -7910.148252266437, 3423.348477285919, 4611.05312240757, 14786.327157774826, -721.6707732284991, 0.056, 0.888, 0.502, 192.0, 0.0, 0.0, 0.0, 0.0, 0.0, 0.0, 0.0, 0.0, 0.0, 1.6546749222047708E9, 0.0, 2022-06-08 09:55:22.204
189.0, 20009.303988135336, 35865.69855996354, -4639.551596588087, -7897.318350949091, 3425.96363138719, 4624.710038269763, 14780.292186771892, -703.2305840528708, 0.056, 0.888, 0.502, 192.0, 0.0, 0.0, 0.0, 0.0, 0.0, 0.0, 0.0, 0.0, 0.0, 1.6546749222047765E9, 0.0, 2022-06-08 09:55:22.204
190.0, 20008.700491035044, 35857.02608311488, -4638.009326220671, -7892.222153213282, 3428.5564337440055, 4625.939384214805, 14772.35731749026, -714.1158836026053, 0.056, 0.888, 0.502, 192.0, 0.0, 0.0, 0.0, 0.0, 0.0, 0.0, 0.0, 0.0, 0.0, 1.6546749222047825E9, 0.0, 2022-06-08 09:55:22.204
191.0, 19958.8113974108, 35831.2545217579, -4640.937404744316, -7904.225039985781, 3433.0044308906117, 4609.332038084512, 14821.240582614015, -778.2430384448813, 0.056, 0.888, 0.502, 192.0, 0.0, 0.0, 0.0, 0.0, 0.0, 0.0, 0.0, 0.0, 0.0, 1.6546749222047875E9, 0.0, 2022-06-08 09:55:22.204
192.0, 19915.493716656412, 35828.70642289, -4650.436896137821, -7924.453368717835, 3421.0238958625673, 4592.344712298478, 14830.673018774156, -789.5977246281773, 0.056, 0.888, 0.502, 192.0, 0.0, 0.0, 0.0, 0.0, 0.0, 0.0, 0.0, 0.0, 0.0, 1.6546749222047954E9, 0.0, 2022-06-08 09:55:22.204
193.0, 19910.97866427644, 35823.27494898736, -4644.781904790629, -7899.486470161256, 3424.734285442148, 4609.063817151048, 14816.949047678596, -732.8019419672421, 0.056, 0.888, 0.502, 192.0, 0.0, 0.0, 0.0, 0.0, 0.0, 0.0, 0.0, 0.0, 0.0, 1.6546749222048006E9, 0.0, 2022-06-08 09:55:22.204
194.0, 19944.774501892865, 35824.43723969904, -4623.100712668981, -7866.830571512052, 3452.428096822274, 4632.130817428925, 14850.409609128192, -659.0858887536393, 0.056, 0.888, 0.502, 192.0, 0.0, 0.0, 0.0, 0.0, 0.0, 0.0, 0.0, 0.0, 0.0, 1.6546749222048063E9, 0.0, 2022-06-08 09:55:22.204
195.0, 19950.585955451246, 35829.44403045702, -4614.718808498241, -7863.589568566033, 3456.8090387355137, 4649.2522536816905, 14865.429981402158, -629.8945104950084, 0.056, 0.888, 0.502, 192.0, 0.0, 0.0, 0.0, 0.0, 0.0, 0.0, 0.0, 0.0, 0.0, 1.654674922204814E9, 0.0, 2022-06-08 09:55:22.204
196.0, 19922.959199304485, 35821.196236753014, -4625.626459792431, -7874.318405904581, 3436.088971625444, 4637.674050053841, 14874.683603606654, -672.0722522821727, 0.05, 0.884, 0.51, 192.0, 1.0, 144.0, 27.0, 160.0, 15.0, 240.0, 0.0, 0.0, 0.0, 1.65467492220482E9, 0.0, 2022-06-08 09:55:22.204
197.0, 19919.27116146936, 35816.390611695126, -4636.288241897612, -7882.342682164036, 3424.2648988085866, 4623.3689336024445, 14867.888673292242, -682.7340343873542, 0.05, 0.884, 0.51, 192.0, 0.0, 0.0, 0.0, 0.0, 0.0, 0.0, 0.0, 0.0, 0.0, 1.6546749222048256E9, 0.0, 2022-06-08 09:55:22.204
198.0, 19929.999998807907, 35833.1097165477, -4633.024887207137, -7875.994786738728, 3425.9859831316453, 4626.319363870545, 14857.696277820622, -677.1684500179828, 0.05, 0.884, 0.51, 192.0, 0.0, 0.0, 0.0, 0.0, 0.0, 0.0, 0.0, 0.0, 0.0, 1.6546749222048316E9, 0.0, 2022-06-08 09:55:22.204
199.0, 19946.719103660478, 35858.21072557101, -4611.2766398521235, -7854.425353339358, 3441.8780734393686, 4640.959756488772, 14857.450408631614, -674.128612772061, 0.05, 0.884, 0.51, 192.0, 0.0, 0.0, 0.0, 0.0, 0.0, 0.0, 0.0, 0.0, 0.0, 1.654674922204838E9, 0.0, 2022-06-08 09:55:22.204
200.0, 19975.262281329906, 35885.39044682866, -4596.233915833702, -7836.8792339419415, 3450.639957265849, 4655.376631662444, 14855.751676053009, -678.8448308521308, 0.05, 0.884, 0.51, 192.0, 0.0, 0.0, 0.0, 0.0, 0.0, 0.0, 0.0, 0.0, 0.0, 1.6546749222048452E9, 0.0, 2022-06-08 09:55:22.204
201.0, 19980.269072087893, 35883.42349331659, -4606.471014794232, -7850.513798059678, 3434.613756491394, 4649.811047293073, 14838.049094444406, -700.0789880846725, 0.05, 0.884, 0.51, 192.0, 0.0, 0.0, 0.0, 0.0, 0.0, 0.0, 0.0, 0.0, 0.0, 1.654674922204851E9, 0.0, 2022-06-08 09:55:22.204
202.0, 19963.259394557404, 35874.281629834375, -4615.791692232096, -7855.78880975113, 3428.6905442107377, 4645.564215846564, 14824.638047771223, -711.612488223611, 0.05, 0.884, 0.51, 192.0, 0.0, 0.0, 0.0, 0.0, 0.0, 0.0, 0.0, 0.0, 0.0, 1.6546749222048573E9, 0.0, 2022-06-08 09:55:22.204
203.0, 19976.826903441775, 35898.37681035719, -4609.332038084512, -7832.319478073058, 3439.9111199273016, 4661.322195687556, 14831.768254252465, -712.0818748571724, 0.05, 0.884, 0.51, 192.0, 0.0, 0.0, 0.0, 0.0, 0.0, 0.0, 0.0, 0.0, 0.0, 1.6546749222048645E9, 0.0, 2022-06-08 09:55:22.204
204.0, 20002.643168287657, 35927.65759559364, -4602.157128114358, -7821.791806434609, 3445.3649455743966, 4676.364919705978, 14841.915946235174, -696.4580054829128, 0.05, 0.884, 0.51, 192.0, 0.0, 0.0, 0.0, 0.0, 0.0, 0.0, 0.0, 0.0, 0.0, 1.6546749222048702E9, 0.0, 2022-06-08 09:55:22.204
205.0, 20008.38756661267, 35942.074470767315, -4594.177555343814, -7817.030884865629, 3446.951919430723, 4683.785698865139, 14833.087007175329, -684.4998221993235, 0.04, 0.88, 0.51, 192.0, 1.0, 64.0, 27.0, 128.0, 15.0, 240.0, 0.0, 0.0, 0.0, 1.6546749222048762E9, 0.0, 2022-06-08 09:55:22.204
206.0, 19995.28944436186, 35927.09880198226, -4602.760625214652, -7830.397228049902, 3432.579747745961, 4668.318291702067, 14806.086099873317, -734.7465437348537, 0.04, 0.88, 0.51, 192.0, 0.0, 0.0, 0.0, 0.0, 0.0, 0.0, 0.0, 0.0, 0.0, 1.654674922204882E9, 0.0, 2022-06-08 09:55:22.204
207.0, 19990.260301859416, 35918.739249555976, -4610.270811351635, -7843.249481111704, 3427.39414303233, 4653.722602572751, 14808.41068129667, -760.2051806694485, 0.04, 0.88, 0.51, 192.0, 0.0, 0.0, 0.0, 0.0, 0.0, 0.0, 0.0, 0.0, 0.0, 1.6546749222048893E9, 0.0, 2022-06-08 09:55:22.204
208.0, 20015.24955216045, 35943.70614811256, -4600.570154258032, -7828.2514605821925, 3435.77604720307, 4673.772117349162, 14817.619600012256, -686.6679414114883, 0.04, 0.88, 0.51, 192.0, 0.0, 0.0, 0.0, 0.0, 0.0, 0.0, 0.0, 0.0, 0.0, 1.6546749222048972E9, 0.0, 2022-06-08 09:55:22.204
209.0, 20033.73444482499, 35967.91308735765, -4584.543953483576, -7801.8987538693855, 3444.1355996293546, 4699.722492661774, 14824.638047771223, -651.709813083388, 0.04, 0.88, 0.51, 192.0, 0.0, 0.0, 0.0, 0.0, 0.0, 0.0, 0.0, 0.0, 0.0, 1.6546749222049043E9, 0.0, 2022-06-08 09:55:22.204
210.0, 20047.190194987084, 35985.92859338863, -4571.2446655326685, -7774.651977378367, 3450.9081781993127, 4703.946972363827, 14844.307582891892, -651.0616124941841, 0.04, 0.88, 0.51, 192.0, 0.0, 0.0, 0.0, 0.0, 0.0, 0.0, 0.0, 0.0, 0.0, 1.654674922204909E9, 0.0, 2022-06-08 09:55:22.204
211.0, 20047.34665719827, 35982.93345963162, -4581.727633682208, -7785.470221694734, 3436.223082092176, 4689.083062301047, 14841.848891001808, -679.5377349302453, 0.04, 0.88, 0.51, 192.0, 0.0, 0.0, 0.0, 0.0, 0.0, 0.0, 0.0, 0.0, 0.0, 1.6546749222049148E9, 0.0, 2022-06-08 09:55:22.204
212.0, 20035.947267526062, 35982.911107887165, -4591.2047733312575, -7802.345788758492, 3423.3037737970085, 4677.884838328939, 14818.848945957297, -699.0061043508177, 0.04, 0.88, 0.51, 192.0, 0.0, 0.0, 0.0, 0.0, 0.0, 0.0, 0.0, 0.0, 0.0, 1.6546749222049203E9, 0.0, 2022-06-08 09:55:22.204
213.0, 20040.01528501693, 35996.59037549381, -4583.493421494177, -7798.121309056439, 3431.1268843563657, 4680.991730808226, 14828.191975139616, -709.9137556450077, 0.04, 0.88, 0.51, 192.0, 0.0, 0.0, 0.0, 0.0, 0.0, 0.0, 0.0, 0.0, 0.0, 1.6546749222049255E9, 0.0, 2022-06-08 09:55:22.204
214.0, 20043.72567459651, 36010.42610531165, -4565.56732244102, -7784.844372849986, 3445.610814763405, 4687.07140530007, 14855.304641163904, -699.7884154067535, 0.04, 0.88, 0.51, 192.0, 0.0, 0.0, 0.0, 0.0, 0.0, 0.0, 0.0, 0.0, 0.0, 1.6546749222049344E9, 0.0, 2022-06-08 09:55:22.204
215.0, 20048.955982799052, 36017.89158795972, -4558.23595025968, -7781.335148970503, 3449.7235357431814, 4688.121937289469, 14876.203522229616, -704.6834474424658, 0.032, 0.874, 0.512, 192.0, 1.0, 0.0, 27.0, 80.0, 16.0, 0.0, 0.0, 0.0, 0.0, 1.6546749222049415E9, 0.0, 2022-06-08 09:55:22.204
216.0, 20029.040578489374, 36018.6515472712, -4562.683947406286, -7774.20494248926, 3438.793532704536, 4684.1209750319695, 14841.580670068344, -721.0449243837505, 0.032, 0.874, 0.512, 192.0, 0.0, 0.0, 0.0, 0.0, 0.0, 0.0, 0.0, 0.0, 0.0, 1.6546749222049468E9, 0.0, 2022-06-08 09:55:22.204
217.0, 20020.859840018733, 36007.855654699284, -4571.825810888507, -7782.1174600264385, 3427.9529366437123, 4673.548599904609, 14822.581687281334, -730.1420843770605, 0.032, 0.874, 0.512, 192.0, 0.0, 0.0, 0.0, 0.0, 0.0, 0.0, 0.0, 0.0, 0.0, 1.654674922204952E9, 0.0, 2022-06-08 09:55:22.204
218.0, 20036.01432275943, 36014.73999199152, -4569.881209120895, -7783.033881549107, 3431.193939589732, 4682.265780242179, 14843.502920091501, -697.0167990942955, 0.032, 0.874, 0.512, 192.0, 0.0, 0.0, 0.0, 0.0, 0.0, 0.0, 0.0, 0.0, 0.0, 1.6546749222049572E9, 0.0, 2022-06-08 09:55:22.204
219.0, 20044.731503097, 36033.82838175636, -4558.191246770769, -7778.138849513394, 3436.826579192469, 4690.290056501634, 14856.288117919938, -693.999313592829, 0.032, 0.874, 0.512, 192.0, 0.0, 0.0, 0.0, 0.0, 0.0, 0.0, 0.0, 0.0, 0.0, 1.6546749222049637E9, 0.0, 2022-06-08 09:55:22.204
220.0, 20053.359276456747, 36048.08879471884, -4538.94639479475, -7773.601445388967, 3441.7216112281817, 4699.588382195042, 14845.201652670105, -690.8477176246307, 0.032, 0.874, 0.512, 192.0, 0.0, 0.0, 0.0, 0.0, 0.0, 0.0, 0.0, 0.0, 0.0, 1.654674922204969E9, 0.0, 2022-06-08 09:55:22.204
221.0, 20041.49050015098, 36037.67288180267, -4542.94735705225, -7785.202000761271, 3425.449541264718, 4688.479565200754, 14803.31448356086, -693.2840577702592, 0.032, 0.874, 0.512, 192.0, 0.0, 0.0, 0.0, 0.0, 0.0, 0.0, 0.0, 0.0, 0.0, 1.6546749222049737E9, 0.0, 2022-06-08 09:55:22.204
222.0, 20034.047369247364, 36041.338567893334, -4543.930833808284, -7783.078585038017, 3424.9801546311564, 4683.83040235405, 14828.035512928429, -681.9070198425079, 0.032, 0.874, 0.512, 192.0, 0.0, 0.0, 0.0, 0.0, 0.0, 0.0, 0.0, 0.0, 0.0, 1.6546749222049797E9, 0.0, 2022-06-08 09:55:22.204
223.0, 20044.619744374722, 36055.33075992236, -4531.436208657767, -7773.668500622332, 3442.9509571732233, 4687.809012867095, 14892.252074748527, -664.5173626562789, 0.032, 0.874, 0.512, 192.0, 0.0, 0.0, 0.0, 0.0, 0.0, 0.0, 0.0, 0.0, 0.0, 1.6546749222049875E9, 0.0, 2022-06-08 09:55:22.204
224.0, 20053.180462501106, 36067.646571117235, -4518.56160385151, -7764.504285395657, 3450.3046810990195, 4689.530097190153, 14899.963426585608, -675.5591244172007, 0.032, 0.874, 0.512, 192.0, 0.0, 0.0, 0.0, 0.0, 0.0, 0.0, 0.0, 0.0, 0.0, 1.6546749222049932E9, 0.0, 2022-06-08 09:55:22.204
225.0, 20069.474884209023, 36078.73303636706, -4505.932868234261, -7755.049497491062, 3451.2434543661425, 4694.000446081215, 14906.937170855663, -705.6669241984993, 0.034, 0.866, 0.514, 192.0, 1.0, 16.0, 27.0, 16.0, 16.0, 16.0, 0.0, 0.0, 0.0, 1.654674922204998E9, 0.0, 2022-06-08 09:55:22.204
226.0, 20089.099715840784, 36086.08676029286, -4506.312847890002, -7757.418782403324, 3441.319279827986, 4684.076271543058, 14888.429926446668, -719.2344330828706, 0.034, 0.866, 0.514, 192.0, 0.0, 0.0, 0.0, 0.0, 0.0, 0.0, 0.0, 0.0, 0.0, 1.6546749222050035E9, 0.0, 2022-06-08 09:55:22.205
227.0, 20056.175596258116, 36094.40160923023, -4505.195260667237, -7759.385735915392, 3429.986945389145, 4678.68950112933, 14869.363888426291, -695.4074734935133, 0.034, 0.866, 0.514, 192.0, 0.0, 0.0, 0.0, 0.0, 0.0, 0.0, 0.0, 0.0, 0.0, 1.6546749222050087E9, 0.0, 2022-06-08 09:55:22.205
228.0, 20055.01330554644, 36095.65330691973, -4491.806565738508, -7747.092276464972, 3437.7877042040473, 4680.522344174665, 14871.08497274935, -689.3054472572145, 0.034, 0.866, 0.514, 192.0, 0.0, 0.0, 0.0, 0.0, 0.0, 0.0, 0.0, 0.0, 0.0, 1.654674922205014E9, 0.0, 2022-06-08 09:55:22.205
229.0, 20071.955927843563, 36097.083818564875, -4480.764803977586, -7737.145750182361, 3446.8848641973573, 4687.764309378184, 14871.867283805286, -685.3938919775358, 0.034, 0.866, 0.514, 192.0, 0.0, 0.0, 0.0, 0.0, 0.0, 0.0, 0.0, 0.0, 0.0, 1.6546749222050188E9, 0.0, 2022-06-08 09:55:22.205
230.0, 20063.64107890619, 36105.28690877997, -4470.214780594681, -7728.830901244986, 3456.5855212909605, 4698.2696292721785, 14883.289025221948, -682.2199442648822, 0.034, 0.866, 0.514, 192.0, 0.0, 0.0, 0.0, 0.0, 0.0, 0.0, 0.0, 0.0, 0.0, 1.6546749222050252E9, 0.0, 2022-06-08 09:55:22.205
231.0, 20047.033732775897, 36103.45406573464, -4477.926132431761, -7746.667593320321, 3437.2289105926648, 4682.936332575838, 14851.683658562144, -716.7533894483316, 0.034, 0.866, 0.514, 192.0, 0.0, 0.0, 0.0, 0.0, 0.0, 0.0, 0.0, 0.0, 0.0, 1.6546749222050302E9, 0.0, 2022-06-08 09:55:22.205
232.0, 20042.36221818474, 36098.38021974328, -4483.871696456873, -7754.423648646313, 3422.186186574243, 4663.020928266159, 14846.542757337424, -733.964232678918, 0.034, 0.866, 0.514, 192.0, 0.0, 0.0, 0.0, 0.0, 0.0, 0.0, 0.0, 0.0, 0.0, 1.6546749222050357E9, 0.0, 2022-06-08 09:55:22.205
233.0, 20054.00747704595, 36097.352039498335, -4472.114678873382, -7742.398410129358, 3430.1657593447876, 4668.944140546816, 14876.94112979664, -669.1218220140722, 0.034, 0.866, 0.514, 192.0, 0.0, 0.0, 0.0, 0.0, 0.0, 0.0, 0.0, 0.0, 0.0, 1.6546749222050424E9, 0.0, 2022-06-08 09:55:22.205
234.0, 20068.580814430814, 36116.88746415228, -4453.383917019834, -7732.1613111688275, 3444.739096729648, 4685.3056174881, 14897.772955628987, -638.8799117660418, 0.034, 0.866, 0.514, 192.0, 0.0, 0.0, 0.0, 0.0, 0.0, 0.0, 0.0, 0.0, 0.0, 1.6546749222050471E9, 0.0, 2022-06-08 09:55:22.205
235.0, 20076.538035456902, 36137.60753126234, -4442.6327279368315, -7723.287668620071, 3445.8790356968684, 4684.16567852088, 14900.701034152633, -659.9129032984857, 0.038, 0.88, 0.518, 192.0, 1.0, 48.0, 27.0, 128.0, 16.0, 48.0, 0.0, 0.0, 0.0, 1.6546749222050557E9, 0.0, 2022-06-08 09:55:22.205
236.0, 20069.83251212031, 36123.90591191124, -4440.866940124863, -7733.010677458129, 3435.6866402252485, 4671.335777203533, 14893.190848015649, -682.4434617094353, 0.038, 0.88, 0.518, 192.0, 0.0, 0.0, 0.0, 0.0, 0.0, 0.0, 0.0, 0.0, 0.0, 1.6546749222050612E9, 0.0, 2022-06-08 09:55:22.205
237.0, 20057.40494220316, 36112.61828096131, -4444.286757026524, -7745.8405787754755, 3420.7556749291034, 4655.77896306264, 14870.503827393512, -700.0119328513066, 0.038, 0.88, 0.518, 192.0, 0.0, 0.0, 0.0, 0.0, 0.0, 0.0, 0.0, 0.0, 0.0, 1.6546749222050667E9, 0.0, 2022-06-08 09:55:22.205
238.0, 20082.662413437654, 36136.13231612829, -4430.428675464234, -7728.182700655783, 3430.9480704007233, 4662.328024188045, 14870.995565771529, -687.5843629341558, 0.038, 0.88, 0.518, 192.0, 0.0, 0.0, 0.0, 0.0, 0.0, 0.0, 0.0, 0.0, 0.0, 1.6546749222050724E9, 0.0, 2022-06-08 09:55:22.205
239.0, 20094.397079276692, 36148.604589534356, -4420.191576503704, -7725.567546554512, 3438.458256537707, 4663.311500944078, 14872.023746016474, -685.8409268666419, 0.038, 0.88, 0.518, 192.0, 0.0, 0.0, 0.0, 0.0, 0.0, 0.0, 0.0, 0.0, 0.0, 1.654674922205078E9, 0.0, 2022-06-08 09:55:22.205
240.0, 20093.592416476302, 36163.7367205306, -4407.339323441902, -7722.997095942152, 3442.1462943728325, 4662.596245121508, 14885.770068856487, -700.190746806949, 0.038, 0.88, 0.518, 192.0, 0.0, 0.0, 0.0, 0.0, 0.0, 0.0, 0.0, 0.0, 0.0, 1.6546749222050831E9, 0.0, 2022-06-08 09:55:22.205
241.0, 20099.35916654577, 36176.32075265894, -4407.138157741804, -7733.614174558423, 3434.546701258028, 4651.174503704847, 14894.286083493958, -733.673660000999, 0.038, 0.88, 0.518, 192.0, 0.0, 0.0, 0.0, 0.0, 0.0, 0.0, 0.0, 0.0, 0.0, 1.6546749222050889E9, 0.0, 2022-06-08 09:55:22.205
242.0, 20092.608939720267, 36161.2333251516, -4415.967096801651, -7749.10393346595, 3422.521462741073, 4636.2211866642465, 14890.016900302995, -734.8583024571303, 0.038, 0.88, 0.518, 192.0, 0.0, 0.0, 0.0, 0.0, 0.0, 0.0, 0.0, 0.0, 0.0, 1.6546749226858797E9, 0.0, 2022-06-08 09:55:22.685
243.0, 20082.46124773756, 36144.469516810124, -4404.791224573997, -7740.654974061844, 3432.356230301408, 4644.737201301718, 14908.099461567339, -672.8098598491979, 0.038, 0.88, 0.518, 192.0, 0.0, 0.0, 0.0, 0.0, 0.0, 0.0, 0.0, 0.0, 0.0, 1.654674922686034E9, 0.0, 2022-06-08 09:55:22.686
244.0, 20101.706099713578, 36149.38690059029, -4387.960360999151, -7737.548081582557, 3447.555416531017, 4659.645814853408, 14920.974066373596, -631.83911226262, 0.038, 0.88, 0.518, 192.0, 0.0, 0.0, 0.0, 0.0, 0.0, 0.0, 0.0, 0.0, 0.0, 1.654674922686041E9, 0.0, 2022-06-08 09:55:22.686
245.0, 20088.83149490732, 36146.145897644274, -4387.423919132223, -7747.159331698339, 3439.732305971659, 4651.688593827319, 14914.179136059181, -637.0917722096173, 0.04, 0.882, 0.52, 192.0, 1.0, 64.0, 27.0, 144.0, 16.0, 64.0, 0.0, 0.0, 0.0, 1.654674922686046E9, 0.0, 2022-06-08 09:55:22.686
246.0, 20064.15516902866, 36145.49769705507, -4383.087680707894, -7756.502360880657, 3432.4232855347736, 4640.758590788673, 14907.227743533582, -652.2686066947707, 0.04, 0.882, 0.52, 192.0, 0.0, 0.0, 0.0, 0.0, 0.0, 0.0, 0.0, 0.0, 0.0, 1.6546749226860514E9, 0.0, 2022-06-08 09:55:22.686
247.0, 20055.817968346833, 36140.40149931926, -4383.445308619179, -7764.906616795853, 3432.311526812497, 4636.020020964149, 14908.770013900998, -656.6048451191002, 0.04, 0.882, 0.52, 192.0, 0.0, 0.0, 0.0, 0.0, 0.0, 0.0, 0.0, 0.0, 0.0, 1.6546749226860561E9, 0.0, 2022-06-08 09:55:22.686
248.0, 20058.455474192557, 36142.59197027588, -4389.927314511217, -7779.323491969525, 3425.360134286897, 4627.816930749051, 14899.002301574028, -664.8302870786533, 0.04, 0.882, 0.52, 192.0, 0.0, 0.0, 0.0, 0.0, 0.0, 0.0, 0.0, 0.0, 0.0, 1.654674922686061E9, 0.0, 2022-06-08 09:55:22.686
249.0, 20073.721715655534, 36158.931095472704, -4379.399642872768, -7773.86966632243, 3429.7187244556817, 4632.086113940014, 14900.52222019699, -664.5397144007343, 0.04, 0.882, 0.52, 192.0, 0.0, 0.0, 0.0, 0.0, 0.0, 0.0, 0.0, 0.0, 0.0, 1.654674922686066E9, 0.0, 2022-06-08 09:55:22.686
250.0, 20083.489427982502, 36171.604534578866, -4372.0235672025165, -7779.077622780517, 3431.417457034285, 4636.310593642067, 14893.70493813812, -670.7982028482203, 0.04, 0.882, 0.52, 192.0, 0.0, 0.0, 0.0, 0.0, 0.0, 0.0, 0.0, 0.0, 0.0, 1.654674922686071E9, 0.0, 2022-06-08 09:55:22.686
251.0, 20079.644927936188, 36171.381017134314, -4375.778660271008, -7782.475087937723, 3420.576860973461, 4628.889814482905, 14873.36485068379, -686.355016989114, 0.04, 0.882, 0.52, 192.0, 0.0, 0.0, 0.0, 0.0, 0.0, 0.0, 0.0, 0.0, 0.0, 1.6546749226860757E9, 0.0, 2022-06-08 09:55:22.686
252.0, 20075.420448234137, 36169.16819443324, -4385.72518655362, -7792.891000853897, 3407.165814300277, 4615.3893608319, 14871.934339038651, -708.9749823778848, 0.04, 0.882, 0.52, 192.0, 0.0, 0.0, 0.0, 0.0, 0.0, 0.0, 0.0, 0.0, 0.0, 1.6546749226860805E9, 0.0, 2022-06-08 09:55:22.686
253.0, 20084.11527682725, 36174.0855782134, -4386.127517953815, -7797.428404978324, 3415.4359597487405, 4609.6896659957965, 14899.874019607785, -713.7135522024098, 0.04, 0.882, 0.52, 192.0, 0.0, 0.0, 0.0, 0.0, 0.0, 0.0, 0.0, 0.0, 0.0, 1.6546749226860855E9, 0.0, 2022-06-08 09:55:22.686
254.0, 20103.471887525546, 36189.575337120936, -4373.029395703005, -7794.2097537767595, 3431.216291334187, 4616.328134099023, 14927.679589710187, -722.7883604512645, 0.04, 0.882, 0.52, 192.0, 0.0, 0.0, 0.0, 0.0, 0.0, 0.0, 0.0, 0.0, 0.0, 1.6546749226860905E9, 0.0, 2022-06-08 09:55:22.686
255.0, 20106.802297449387, 36201.377058193335, -4361.808819986441, -7797.003721833673, 3437.3406693149414, 4619.524433556132, 14930.965296145117, -737.6075670251331, 0.038, 0.882, 0.512, 192.0, 1.0, 48.0, 27.0, 144.0, 16.0, 0.0, 0.0, 0.0, 0.0, 1.6546749226860957E9, 0.0, 2022-06-08 09:55:22.686
0.0, 20092.83245716482, 36201.868796571354, -4359.774811241008, -7790.566419430545, 3423.706105197204, 4623.145416157891, 14910.491098224056, -705.3316480316697, 0.038, 0.882, 0.512, 192.0, 0.0, 0.0, 0.0, 0.0, 0.0, 0.0, 0.0, 0.0, 0.0, 1.6546749226861255E9, 0.0, 2022-06-08 09:55:22.686
1.0, 20084.11527682725, 36197.77842733603, -4369.9672067126285, -7797.651922422877, 3405.8247096329583, 4614.137663142403, 14883.669004877687, -663.8468103226197, 0.038, 0.882, 0.512, 192.0, 0.0, 0.0, 0.0, 0.0, 0.0, 0.0, 0.0, 0.0, 0.0, 1.6546749226861315E9, 0.0, 2022-06-08 09:55:22.686
2.0, 20101.75080320249, 36213.35759322138, -4363.708718265142, -7795.4390997218015, 3414.899517881813, 4618.384494588911, 14885.837124089852, -649.6981560824104, 0.038, 0.882, 0.512, 192.0, 0.0, 0.0, 0.0, 0.0, 0.0, 0.0, 0.0, 0.0, 0.0, 1.6546749226861365E9, 0.0, 2022-06-08 09:55:22.686
3.0, 20120.436861567123, 36233.09418357541, -4343.234520344081, -7777.401241946369, 3437.117151870388, 4630.454436594777, 14924.550345486445, -649.4075834044914, 0.038, 0.882, 0.512, 192.0, 0.0, 0.0, 0.0, 0.0, 0.0, 0.0, 0.0, 0.0, 0.0, 1.6546749226861417E9, 0.0, 2022-06-08 09:55:22.686
4.0, 20121.50974530098, 36244.0018348696, -4329.488197504067, -7774.227294233716, 3440.2240443496758, 4637.3387738870115, 14947.773807975509, -635.8177227756647, 0.038, 0.882, 0.512, 192.0, 0.0, 0.0, 0.0, 0.0, 0.0, 0.0, 0.0, 0.0, 0.0, 1.6546749226861472E9, 0.0, 2022-06-08 09:55:22.686
5.0, 20121.979131934542, 36243.59950346941, -4332.036296371973, -7788.241838007193, 3428.1541023438103, 4628.509834827165, 14950.187796376682, -645.8536560360976, 0.038, 0.882, 0.512, 192.0, 0.0, 0.0, 0.0, 0.0, 0.0, 0.0, 0.0, 0.0, 0.0, 1.6546749226861525E9, 0.0, 2022-06-08 09:55:22.686
6.0, 20105.3941375487, 36227.662709672775, -4338.8535784308415, -7807.5313934721225, 3414.988924859634, 4611.030770663116, 14935.547403758455, -670.7758511037649, 0.038, 0.882, 0.512, 192.0, 0.0, 0.0, 0.0, 0.0, 0.0, 0.0, 0.0, 0.0, 0.0, 1.6546749226861582E9, 0.0, 2022-06-08 09:55:22.686
7.0, 20089.21147456306, 36225.27107301606, -4333.533863250478, -7812.582887719022, 3416.665305693782, 4607.230974105713, 14951.551252788455, -692.479394969868, 0.038, 0.882, 0.512, 192.0, 0.0, 0.0, 0.0, 0.0, 0.0, 0.0, 0.0, 0.0, 0.0, 1.6546749226861637E9, 0.0, 2022-06-08 09:55:22.686
8.0, 20107.83047769433, 36248.44983201621, -4310.399807739235, -7794.522678199134, 3432.8479686794244, 4623.994782447193, 14964.895244228273, -681.1470605310275, 0.038, 0.882, 0.512, 192.0, 0.0, 0.0, 0.0, 0.0, 0.0, 0.0, 0.0, 0.0, 0.0, 1.6546749226861684E9, 0.0, 2022-06-08 09:55:22.686
9.0, 20115.899457442698, 36255.17770709726, -4298.598086666833, -7788.2194862627375, 3437.027744892567, 4628.129855171425, 14961.989517449085, -662.7068713553991, 0.04, 0.888, 0.512, 192.0, 1.0, 64.0, 27.0, 192.0, 16.0, 0.0, 0.0, 0.0, 0.0, 1.6546749226861732E9, 0.0, 2022-06-08 09:55:22.686
10.0, 20110.266817839958, 36250.43913727273, -4303.113139046805, -7803.463375981257, 3424.9578028867013, 4616.574003288031, 14949.71840974312, -657.6106736195891, 0.04, 0.888, 0.512, 192.0, 0.0, 0.0, 0.0, 0.0, 0.0, 0.0, 0.0, 0.0, 0.0, 1.6546749226861808E9, 0.0, 2022-06-08 09:55:22.686
11.0, 20108.9480649171, 36249.76858493908, -4306.264735015004, -7816.092111598506, 3411.993791102623, 4602.045369392082, 14926.584354231878, -683.4716419543794, 0.04, 0.888, 0.512, 192.0, 0.0, 0.0, 0.0, 0.0, 0.0, 0.0, 0.0, 0.0, 0.0, 1.6546749226861856E9, 0.0, 2022-06-08 09:55:22.686
12.0, 20110.043300395406, 36251.46731751768, -4303.202546024626, -7808.2913527836035, 3412.9102126252906, 4596.837412933995, 14914.849688392842, -701.934182874463, 0.04, 0.888, 0.512, 192.0, 0.0, 0.0, 0.0, 0.0, 0.0, 0.0, 0.0, 0.0, 0.0, 1.654674922686191E9, 0.0, 2022-06-08 09:55:22.686
13.0, 20119.498088300003, 36268.85697470391, -4291.378473207769, -7798.389529989902, 3422.6779249522597, 4601.084244380503, 14927.366665287813, -706.7845114212646, 0.04, 0.888, 0.512, 192.0, 0.0, 0.0, 0.0, 0.0, 0.0, 0.0, 0.0, 0.0, 0.0, 1.654674922686196E9, 0.0, 2022-06-08 09:55:22.686
14.0, 20124.12489940225, 36279.22818413117, -4280.560228891401, -7795.841431121998, 3429.1599308442987, 4610.6284392629195, 14943.035238150984, -683.8069181212089, 0.04, 0.888, 0.512, 192.0, 0.0, 0.0, 0.0, 0.0, 0.0, 0.0, 0.0, 0.0, 0.0, 1.6546749226862009E9, 0.0, 2022-06-08 09:55:22.686
15.0, 20118.134631888228, 36274.82489047347, -4288.919781317685, -7810.906506884874, 3414.2289655481536, 4599.117290868437, 14917.017807605007, -699.3637322621026, 0.04, 0.888, 0.512, 192.0, 0.0, 0.0, 0.0, 0.0, 0.0, 0.0, 0.0, 0.0, 0.0, 1.6546749226862056E9, 0.0, 2022-06-08 09:55:22.686
16.0, 20109.395099806203, 36269.6616375043, -4302.9343250911625, -7831.470111783757, 3400.7285118971486, 4579.805383659052, 14895.783650372465, -755.2654451448257, 0.04, 0.888, 0.512, 192.0, 0.0, 0.0, 0.0, 0.0, 0.0, 0.0, 0.0, 0.0, 0.0, 1.6546749226862104E9, 0.0, 2022-06-08 09:55:22.686
17.0, 20123.633161024234, 36282.78211149956, -4293.032502297461, -7819.26605931116, 3412.932564369746, 4590.221296575224, 14924.23742106407, -721.8719389285969, 0.04, 0.888, 0.512, 192.0, 0.0, 0.0, 0.0, 0.0, 0.0, 0.0, 0.0, 0.0, 0.0, 1.6546749226862154E9, 0.0, 2022-06-08 09:55:22.686
18.0, 20138.49707108701, 36299.85884426342, -4277.140411989738, -7791.527544442123, 3420.6662679512824, 4605.19696536028, 14936.396770047757, -632.129684940539, 0.04, 0.888, 0.512, 192.0, 0.0, 0.0, 0.0, 0.0, 0.0, 0.0, 0.0, 0.0, 0.0, 1.6546749226862204E9, 0.0, 2022-06-08 09:55:22.686
19.0, 20145.403760123703, 36308.553672856535, -4265.808077550898, -7786.900733339875, 3428.064695365989, 4612.885965452906, 14954.702848756653, -611.9013562084862, 0.032, 0.886, 0.52, 192.0, 1.0, 0.0, 27.0, 176.0, 16.0, 64.0, 0.0, 0.0, 0.0, 1.6546749226862254E9, 0.0, 2022-06-08 09:55:22.686
20.0, 20137.334780375335, 36300.88702450836, -4273.698243343621, -7804.580963204023, 3421.9850208741454, 4602.402997303367, 14953.898185956263, -636.063591964673, 0.032, 0.886, 0.52, 192.0, 0.0, 0.0, 0.0, 0.0, 0.0, 0.0, 0.0, 0.0, 0.0, 1.65467492268623E9, 0.0, 2022-06-08 09:55:22.686
21.0, 20132.953838462097, 36298.42833261828, -4288.428042939669, -7809.565402217556, 3412.060846335989, 4593.819927432529, 14940.062456138428, -655.1072782405947, 0.032, 0.886, 0.52, 192.0, 0.0, 0.0, 0.0, 0.0, 0.0, 0.0, 0.0, 0.0, 0.0, 1.6546749226862347E9, 0.0, 2022-06-08 09:55:22.686
22.0, 20125.93539070313, 36299.43416111877, -4291.266714485492, -7811.912335385363, 3412.9102126252906, 4589.4389855192885, 14927.09844435435, -675.1791447614604, 0.032, 0.886, 0.52, 192.0, 0.0, 0.0, 0.0, 0.0, 0.0, 0.0, 0.0, 0.0, 0.0, 1.654674922686246E9, 0.0, 2022-06-08 09:55:22.686
23.0, 20132.149175661707, 36307.81606528951, -4280.694339358132, -7809.811271406565, 3421.8509104074137, 4595.362197799945, 14938.251964837547, -666.774888846265, 0.032, 0.886, 0.52, 192.0, 0.0, 0.0, 0.0, 0.0, 0.0, 0.0, 0.0, 0.0, 0.0, 1.6546749226862507E9, 0.0, 2022-06-08 09:55:22.686
24.0, 20135.390178607726, 36320.31069044003, -4269.339653174836, -7800.244724779693, 3432.4679890236844, 4607.3427328279895, 14971.600767564865, -653.229731706349, 0.032, 0.886, 0.52, 192.0, 0.0, 0.0, 0.0, 0.0, 0.0, 0.0, 0.0, 0.0, 0.0, 1.654674922686256E9, 0.0, 2022-06-08 09:55:22.686
25.0, 20127.27649537045, 36323.95402478624, -4271.887752042741, -7798.702454412277, 3427.4611982656957, 4611.678971252319, 14963.218863394126, -647.3735746590585, 0.032, 0.886, 0.52, 192.0, 0.0, 0.0, 0.0, 0.0, 0.0, 0.0, 0.0, 0.0, 0.0, 1.6546749226862612E9, 0.0, 2022-06-08 09:55:22.686
26.0, 20126.42712908115, 36327.75382134364, -4286.975179550073, -7809.45364349528, 3414.988924859634, 4597.95500015676, 14947.371476575314, -663.8915138115303, 0.032, 0.886, 0.52, 192.0, 0.0, 0.0, 0.0, 0.0, 0.0, 0.0, 0.0, 0.0, 0.0, 1.6546749226862662E9, 0.0, 2022-06-08 09:55:22.686
27.0, 20128.03645468193, 36330.65954812283, -4292.138432519249, -7811.755873174176, 3412.641991691827, 4591.115366353437, 14946.522110286012, -676.9002290845191, 0.032, 0.886, 0.52, 192.0, 0.0, 0.0, 0.0, 0.0, 0.0, 0.0, 0.0, 0.0, 0.0, 1.654674922686271E9, 0.0, 2022-06-08 09:55:22.686
28.0, 20140.50872808799, 36339.376728460404, -4270.926627031163, -7789.717053141243, 3435.3066605695085, 4610.315514840546, 14963.91176747224, -696.9497438609295, 0.034, 0.884, 0.526, 192.0, 1.0, 16.0, 27.0, 160.0, 16.0, 112.0, 0.0, 0.0, 0.0, 1.654674922686278E9, 0.0, 2022-06-08 09:55:22.686
29.0, 20148.331838647347, 36336.56040865903, -4270.70310958661, -7794.880306110419, 3437.161855359299, 4607.119215383436, 14968.605633807854, -697.1732613054826, 0.034, 0.884, 0.526, 192.0, 0.0, 0.0, 0.0, 0.0, 0.0, 0.0, 0.0, 0.0, 0.0, 1.654674922686283E9, 0.0, 2022-06-08 09:55:22.686
30.0, 20130.56220180538, 36331.48656266768, -4277.788612578942, -7813.3428470305025, 3428.735247699648, 4603.364122314945, 14979.736802546598, -650.7263363273545, 0.034, 0.884, 0.526, 192.0, 0.0, 0.0, 0.0, 0.0, 0.0, 0.0, 0.0, 0.0, 0.0, 1.654674922686288E9, 0.0, 2022-06-08 09:55:22.686
31.0, 20122.806146479386, 36331.33010045649, -4287.779842350465, -7819.824852922542, 3419.7945499175253, 4598.938476912794, 14967.041011695983, -631.1238564400502, 0.034, 0.884, 0.526, 192.0, 0.0, 0.0, 0.0, 0.0, 0.0, 0.0, 0.0, 0.0, 0.0, 1.654674922686293E9, 0.0, 2022-06-08 09:55:22.686
32.0, 20124.191954635615, 36342.43891745078, -4284.762356848998, -7801.921105613841, 3421.2027098182098, 4600.3019333245675, 14956.848616224363, -641.8750455230529, 0.034, 0.884, 0.526, 192.0, 0.0, 0.0, 0.0, 0.0, 0.0, 0.0, 0.0, 0.0, 0.0, 1.654674922686298E9, 0.0, 2022-06-08 09:55:22.686
33.0, 20130.182222149637, 36353.2795135116, -4275.911066044697, -7790.812288619553, 3430.5680907449832, 4606.247497349679, 14952.601784777855, -655.353147429603, 0.034, 0.884, 0.526, 192.0, 0.0, 0.0, 0.0, 0.0, 0.0, 0.0, 0.0, 0.0, 0.0, 1.654674922686303E9, 0.0, 2022-06-08 09:55:22.686
34.0, 20127.83528898183, 36360.25325778166, -4273.452374154613, -7788.308893240559, 3432.4232855347736, 4606.2251456052245, 14944.085770140384, -685.6174094220888, 0.034, 0.884, 0.526, 192.0, 0.0, 0.0, 0.0, 0.0, 0.0, 0.0, 0.0, 0.0, 0.0, 1.6546749226863077E9, 0.0, 2022-06-08 09:55:22.686
35.0, 20117.88876269922, 36355.55939144604, -4278.146240490227, -7796.0873003110055, 3425.1366168423438, 4597.686779223297, 14958.212072636137, -712.1042266016277, 0.034, 0.884, 0.526, 192.0, 0.0, 0.0, 0.0, 0.0, 0.0, 0.0, 0.0, 0.0, 0.0, 1.6546749226863124E9, 0.0, 2022-06-08 09:55:22.686
36.0, 20114.06661439736, 36349.61382742093, -4288.5621534064, -7806.883192882919, 3410.5632794574835, 4588.81313667454, 14975.042936210983, -717.3345348041696, 0.034, 0.884, 0.526, 192.0, 0.0, 0.0, 0.0, 0.0, 0.0, 0.0, 0.0, 0.0, 0.0, 1.6546749226863174E9, 0.0, 2022-06-08 09:55:22.686
37.0, 20127.27649537045, 36360.208554292745, -4284.8517638268195, -7801.027035835628, 3420.7333231846483, 4593.819927432529, 14961.386020348791, -699.0731595841837, 0.034, 0.884, 0.526, 192.0, 0.0, 0.0, 0.0, 0.0, 0.0, 0.0, 0.0, 0.0, 0.0, 1.6546749226863225E9, 0.0, 2022-06-08 09:55:22.686
38.0, 20147.61658282478, 36383.7896446931, -4267.260940940492, -7781.022224548129, 3437.452428037218, 4613.1541863863695, 14962.213034893637, -644.7807723022428, 0.022, 0.876, 0.526, 192.0, 0.0, 176.0, 27.0, 96.0, 16.0, 112.0, 0.0, 0.0, 0.0, 1.6546749226863284E9, 0.0, 2022-06-08 09:55:22.686
39.0, 20144.196765923116, 36391.813920952554, -4257.694394313621, -7778.027090791117, 3437.2736140815755, 4612.595392774987, 14978.663918812743, -634.6330803195334, 0.022, 0.876, 0.526, 192.0, 0.0, 0.0, 0.0, 0.0, 0.0, 0.0, 0.0, 0.0, 0.0, 1.6546749226863332E9, 0.0, 2022-06-08 09:55:22.686
40.0, 20129.422262838158, 36381.24154582519, -4258.432001880647, -7791.460489208757, 3430.9480704007233, 4612.193061374791, 14988.498686373077, -593.908201921964, 0.022, 0.876, 0.526, 192.0, 0.0, 0.0, 0.0, 0.0, 0.0, 0.0, 0.0, 0.0, 0.0, 1.65467492268634E9, 0.0, 2022-06-08 09:55:22.686
41.0, 20120.995655178507, 36372.725531187716, -4268.199714207615, -7791.505192697668, 3421.8509104074137, 4602.559459514554, 14973.970052477129, -602.9830101708186, 0.022, 0.876, 0.526, 192.0, 0.0, 0.0, 0.0, 0.0, 0.0, 0.0, 0.0, 0.0, 0.0, 1.654674922686345E9, 0.0, 2022-06-08 09:55:22.686
42.0, 20124.013140679974, 36371.63029570941, -4276.961598034096, -7792.645131664888, 3420.6662679512824, 4590.891848908884, 14969.857331497353, -630.9226907399525, 0.022, 0.876, 0.526, 192.0, 0.0, 0.0, 0.0, 0.0, 0.0, 0.0, 0.0, 0.0, 0.0, 1.6546749226863503E9, 0.0, 2022-06-08 09:55:22.686
43.0, 20152.601021838313, 36397.67007799984, -4254.74396404552, -7774.741384356187, 3443.4873990401506, 4606.381607816411, 14979.401526379768, -623.7701325142542, 0.022, 0.876, 0.526, 192.0, 0.0, 0.0, 0.0, 0.0, 0.0, 0.0, 0.0, 0.0, 0.0, 1.6546749226863575E9, 0.0, 2022-06-08 09:55:22.686
44.0, 20152.981001494052, 36405.6943542593, -4244.50686508499, -7768.214674975237, 3449.7905909765473, 4608.147395628381, 14988.364575906346, -635.3930396310138, 0.022, 0.876, 0.526, 192.0, 0.0, 0.0, 0.0, 0.0, 0.0, 0.0, 0.0, 0.0, 0.0, 1.6546749226863627E9, 0.0, 2022-06-08 09:55:22.686
45.0, 20129.51166981598, 36395.233737854214, -4260.89069377073, -7790.298198497081, 3431.909195412302, 4587.650845962864, 14971.62311930932, -679.0236448077733, 0.022, 0.876, 0.526, 192.0, 0.0, 0.0, 0.0, 0.0, 0.0, 0.0, 0.0, 0.0, 0.0, 1.6546749226863678E9, 0.0, 2022-06-08 09:55:22.686
46.0, 20126.27066686996, 36393.64676399789, -4270.993682264529, -7801.7199399137435, 3417.58172721645, 4577.324340024512, 14954.255813867549, -696.1897845494491, 0.022, 0.876, 0.526, 192.0, 0.0, 0.0, 0.0, 0.0, 0.0, 0.0, 0.0, 0.0, 0.0, 1.654674922686373E9, 0.0, 2022-06-08 09:55:22.686
47.0, 20138.832347253843, 36399.54762453409, -4262.052984482406, -7785.716090883743, 3428.6011372329162, 4591.00360763116, 14963.352973860858, -664.1820864894494, 0.022, 0.876, 0.526, 192.0, 0.0, 0.0, 0.0, 0.0, 0.0, 0.0, 0.0, 0.0, 0.0, 1.6546749226863787E9, 0.0, 2022-06-08 09:55:22.686
48.0, 20152.84689102732, 36412.981022951724, -4248.641937809221, -7768.706413353255, 3444.604986262916, 4603.72175022623, 14979.557988590956, -637.6058623320893, 0.014, 0.86, 0.532, 192.0, 0.0, 112.0, 26.0, 224.0, 16.0, 160.0, 0.0, 0.0, 0.0, 1.6546749226863835E9, 0.0, 2022-06-08 09:55:22.686
49.0, 20154.009181738995, 36426.772049280655, -4235.588519047323, -7764.481933651202, 3453.5233323005837, 4606.426311305322, 14992.499648630579, -646.4571531363908, 0.014, 0.86, 0.532, 192.0, 0.0, 0.0, 0.0, 0.0, 0.0, 0.0, 0.0, 0.0, 0.0, 1.6546749226863885E9, 0.0, 2022-06-08 09:55:22.686
50.0, 20136.41835885267, 36420.2453398997, -4245.2891761409255, -7774.875494822919, 3437.3406693149414, 4590.109537852948, 14977.814552523441, -669.9711883033739, 0.014, 0.86, 0.532, 192.0, 0.0, 0.0, 0.0, 0.0, 0.0, 0.0, 0.0, 0.0, 0.0, 1.6546749226863935E9, 0.0, 2022-06-08 09:55:22.686
51.0, 20131.433919839135, 36419.37362186595, -4251.547664588412, -7787.146602528883, 3429.2716895665753, 4577.369043513423, 14966.39281110678, -703.6552671975217, 0.014, 0.86, 0.532, 192.0, 0.0, 0.0, 0.0, 0.0, 0.0, 0.0, 0.0, 0.0, 0.0, 1.654674922686401E9, 0.0, 2022-06-08 09:55:22.686
52.0, 20134.429053596148, 36421.60879631148, -4252.240568666526, -7798.344826500992, 3428.087047110444, 4574.463316734233, 14954.971069690118, -692.3452845031362, 0.014, 0.86, 0.532, 192.0, 0.0, 0.0, 0.0, 0.0, 0.0, 0.0, 0.0, 0.0, 0.0, 1.6546749226864066E9, 0.0, 2022-06-08 09:55:22.686
53.0, 20143.593268822824, 36429.34249989301, -4253.022879722462, -7783.3468059714805, 3429.003468633112, 4570.507057965643, 14944.733970729587, -682.4658134538905, 0.014, 0.86, 0.532, 192.0, 0.0, 0.0, 0.0, 0.0, 0.0, 0.0, 0.0, 0.0, 0.0, 1.6546749226864116E9, 0.0, 2022-06-08 09:55:22.686
54.0, 20147.460120613592, 36441.81477329908, -4238.181321404138, -7759.542198126579, 3446.1696083747875, 4583.76164242764, 14971.891340242784, -647.7312025703434, 0.014, 0.86, 0.532, 192.0, 0.0, 0.0, 0.0, 0.0, 0.0, 0.0, 0.0, 0.0, 0.0, 1.6546749226864164E9, 0.0, 2022-06-08 09:55:22.686
55.0, 20137.69240828662, 36435.31041566258, -4238.851873737797, -7770.829829076509, 3442.0121839061003, 4580.364177270434, 14967.309232629446, -639.9080920109859, 0.014, 0.86, 0.532, 192.0, 0.0, 0.0, 0.0, 0.0, 0.0, 0.0, 0.0, 0.0, 0.0, 1.6546749226864219E9, 0.0, 2022-06-08 09:55:22.686
56.0, 20132.216230895072, 36427.77787778114, -4249.960690732085, -7781.603369903966, 3427.371791287874, 4570.484706221188, 14943.392866062268, -650.7486880718099, 0.014, 0.86, 0.532, 192.0, 0.0, 0.0, 0.0, 0.0, 0.0, 0.0, 0.0, 0.0, 0.0, 1.6546749226864266E9, 0.0, 2022-06-08 09:55:22.686
57.0, 20145.023780467964, 36439.758412809184, -4247.971385475563, -7769.801648831564, 3433.898500668824, 4571.468182977222, 14952.221805122115, -706.5833457211669, 0.014, 0.86, 0.532, 192.0, 0.0, 0.0, 0.0, 0.0, 0.0, 0.0, 0.0, 0.0, 0.0, 1.6546749226864314E9, 0.0, 2022-06-08 09:55:22.686
58.0, 20157.317239918382, 36456.87984906195, -4233.21923413506, -7765.219541218226, 3454.395050334341, 4575.066813834526, 14989.549218362477, -710.5619562342115, 0.01, 0.866, 0.542, 192.0, 0.0, 80.0, 27.0, 16.0, 16.0, 240.0, 0.0, 0.0, 0.0, 1.6546749226864362E9, 0.0, 2022-06-08 09:55:22.686
59.0, 20157.384295151747, 36461.95369505331, -4225.194957875605, -7759.206921959749, 3460.7205940151925, 4589.215468074735, 15012.616218640354, -645.741897313821, 0.01, 0.866, 0.542, 192.0, 0.0, 0.0, 0.0, 0.0, 0.0, 0.0, 0.0, 0.0, 0.0, 1.6546749226864407E9, 0.0, 2022-06-08 09:55:22.686
60.0, 20155.216175939582, 36464.34533171002, -4226.871338709752, -7760.190398715783, 3452.763372989103, 4592.2553053206575, 14985.972939249628, -623.8818912365307, 0.01, 0.866, 0.542, 192.0, 0.0, 0.0, 0.0, 0.0, 0.0, 0.0, 0.0, 0.0, 0.0, 1.6546749226864467E9, 0.0, 2022-06-08 09:55:22.686
61.0, 20144.174414178662, 36455.583447883546, -4241.623490050255, -7774.137887255894, 3438.3241460709746, 4577.167877813325, 14960.938985459685, -642.8585222790864, 0.01, 0.866, 0.542, 192.0, 0.0, 0.0, 0.0, 0.0, 0.0, 0.0, 0.0, 0.0, 0.0, 1.654674922686452E9, 0.0, 2022-06-08 09:55:22.686
62.0, 20145.359056634792, 36457.77391884016, -4249.446600609613, -7783.860896093953, 3435.7536954586144, 4572.116383566426, 14967.48804658509, -639.3940018885138, 0.01, 0.866, 0.542, 192.0, 0.0, 0.0, 0.0, 0.0, 0.0, 0.0, 0.0, 0.0, 0.0, 1.6546749226864572E9, 0.0, 2022-06-08 09:55:22.686
63.0, 20161.586423109344, 36469.82150910157, -4235.610870791777, -7766.806515074553, 3452.6516142668265, 4582.018206360127, 15010.44809942819, -620.0373911902179, 0.01, 0.866, 0.542, 192.0, 0.0, 0.0, 0.0, 0.0, 0.0, 0.0, 0.0, 0.0, 0.0, 1.6546749226864624E9, 0.0, 2022-06-08 09:55:22.686
64.0, 20169.23071971306, 36472.88369809195, -4226.357248587281, -7766.381831929903, 3460.92175971529, 4588.567267485531, 15011.16335525076, -618.1598446559722, 0.01, 0.866, 0.542, 192.0, 0.0, 0.0, 0.0, 0.0, 0.0, 0.0, 0.0, 0.0, 0.0, 1.6546749226864717E9, 0.0, 2022-06-08 09:55:22.686
65.0, 20153.070408471875, 36466.625209644466, -4234.336821357825, -7778.787050102598, 3447.3095473420085, 4580.1630115703365, 14987.58226485041, -637.8964350100083, 0.01, 0.866, 0.542, 192.0, 0.0, 0.0, 0.0, 0.0, 0.0, 0.0, 0.0, 0.0, 0.0, 1.6546749226864765E9, 0.0, 2022-06-08 09:55:22.686
66.0, 20138.11709143127, 36459.11502350748, -4247.725516286554, -7793.472146209735, 3432.7362099571483, 4569.501229465154, 14969.320889630424, -657.8341910641421, 0.01, 0.866, 0.542, 192.0, 0.0, 0.0, 0.0, 0.0, 0.0, 0.0, 0.0, 0.0, 0.0, 1.654674922686483E9, 0.0, 2022-06-08 09:55:22.686
67.0, 20148.309486902894, 36469.17330851237, -4247.010260463984, -7790.052329308073, 3435.6866402252485, 4574.485668478688, 14972.047802453972, -632.2637954072709, 0.01, 0.866, 0.542, 192.0, 0.0, 0.0, 0.0, 0.0, 0.0, 0.0, 0.0, 0.0, 0.0, 1.654674922686488E9, 0.0, 2022-06-08 09:55:22.686
68.0, 20171.868225558785, 36493.20143380183, -4233.107475412783, -7757.687003336788, 3449.2765008540755, 4587.360273284945, 14978.462753112646, -619.8585772345755, 0.018000000000000002, 0.866, 0.54, 192.0, 0.0, 144.0, 27.0, 16.0, 16.0, 224.0, 0.0, 0.0, 0.0, 1.6546749226864934E9, 0.0, 2022-06-08 09:55:22.686
69.0, 20175.444504671636, 36500.733971683265, -4225.865510209263, -7753.3507649124585, 3454.1938846342427, 4590.176593086314, 14972.941872232184, -632.4649611073686, 0.018000000000000002, 0.866, 0.54, 192.0, 0.0, 0.0, 0.0, 0.0, 0.0, 0.0, 0.0, 0.0, 0.0, 1.6546749226864989E9, 0.0, 2022-06-08 09:55:22.686
70.0, 20163.531024876957, 36496.28597453666, -4227.072504409851, -7761.330337683004, 3445.1414281298435, 4583.71693893873, 14970.930215231207, -649.9216735269634, 0.018000000000000002, 0.866, 0.54, 192.0, 0.0, 0.0, 0.0, 0.0, 0.0, 0.0, 0.0, 0.0, 0.0, 1.654674922686504E9, 0.0, 2022-06-08 09:55:22.686
71.0, 20147.12484444676, 36486.78648314315, -4241.690545283621, -7775.523695412123, 3431.2386430786423, 4571.579941699498, 14970.147904175272, -646.4348013919356, 0.018000000000000002, 0.866, 0.54, 192.0, 0.0, 0.0, 0.0, 0.0, 0.0, 0.0, 0.0, 0.0, 0.0, 1.6546749226865091E9, 0.0, 2022-06-08 09:55:22.686
72.0, 20150.678771815154, 36492.70969542381, -4245.132713929738, -7773.087355266494, 3436.6701169812823, 4568.115421308926, 14974.4841425996, -636.6223855760558, 0.018000000000000002, 0.866, 0.54, 192.0, 0.0, 0.0, 0.0, 0.0, 0.0, 0.0, 0.0, 0.0, 0.0, 1.654674922686514E9, 0.0, 2022-06-08 09:55:22.686
73.0, 20164.80507431091, 36505.472541507785, -4237.823693492853, -7769.041689520084, 3449.7905909765473, 4574.61977894542, 14982.217846181136, -640.1986646889048, 0.018000000000000002, 0.866, 0.54, 192.0, 0.0, 0.0, 0.0, 0.0, 0.0, 0.0, 0.0, 0.0, 0.0, 1.65467492268652E9, 0.0, 2022-06-08 09:55:22.686
74.0, 20171.309431947404, 36518.70477422533, -4226.178434631638, -7762.380869672403, 3457.189018391254, 4587.449680262766, 14990.01860499604, -605.8887369500086, 0.018000000000000002, 0.866, 0.54, 192.0, 0.0, 0.0, 0.0, 0.0, 0.0, 0.0, 0.0, 0.0, 0.0, 1.6546749226865268E9, 0.0, 2022-06-08 09:55:22.686
75.0, 20151.528138104455, 36504.35495428502, -4238.874225482253, -7766.806515074553, 3440.4699135386845, 4570.551761454554, 14968.382116363302, -612.2589841197711, 0.018000000000000002, 0.866, 0.54, 192.0, 0.0, 0.0, 0.0, 0.0, 0.0, 0.0, 0.0, 0.0, 0.0, 1.6546749226865337E9, 0.0, 2022-06-08 09:55:22.686
76.0, 20145.359056634792, 36489.80396864462, -4258.7896297919315, -7776.417765190336, 3423.2367185636426, 4550.032860044582, 14962.213034893637, -638.4328768769357, 0.018000000000000002, 0.866, 0.54, 192.0, 0.0, 0.0, 0.0, 0.0, 0.0, 0.0, 0.0, 0.0, 0.0, 1.6546749226865396E9, 0.0, 2022-06-08 09:55:22.686
77.0, 20147.437768869135, 36494.81075940261, -4263.215275194082, -7780.910465825852, 3423.706105197204, 4551.217502500714, 14966.951604718162, -648.8040863041981, 0.018000000000000002, 0.866, 0.54, 192.0, 0.0, 0.0, 0.0, 0.0, 0.0, 0.0, 0.0, 0.0, 0.0, 1.6546749226865456E9, 0.0, 2022-06-08 09:55:22.686
78.0, 20153.048056727417, 36514.88262592347, -4251.771182032965, -7768.415840675336, 3437.0724483814774, 4561.678118905797, 14972.67365129872, -651.9780340168517, 0.028, 0.862, 0.534, 192.0, 0.0, 224.0, 26.0, 240.0, 16.0, 176.0, 0.0, 0.0, 0.0, 1.6546749226865513E9, 0.0, 2022-06-08 09:55:22.686
79.0, 20148.153024691706, 36524.56093127262, -4244.50686508499, -7768.549951142068, 3441.475742039173, 4560.895807849862, 14964.559968061445, -669.2559324808041, 0.028, 0.862, 0.534, 192.0, 0.0, 0.0, 0.0, 0.0, 0.0, 0.0, 0.0, 0.0, 0.0, 1.6546749226865575E9, 0.0, 2022-06-08 09:55:22.686
80.0, 20138.27355364246, 36521.9681289158, -4253.469914611568, -7777.8929803243855, 3429.4952070111285, 4546.188359998269, 14936.687342725676, -693.2840577702592, 0.028, 0.862, 0.534, 192.0, 0.0, 0.0, 0.0, 0.0, 0.0, 0.0, 0.0, 0.0, 0.0, 1.6546749226865635E9, 0.0, 2022-06-08 09:55:22.686
81.0, 20132.730321017545, 36515.77669570169, -4263.751717061009, -7785.336111228003, 3419.548680728517, 4546.858912331929, 14928.730121699587, -645.227807191349, 0.028, 0.862, 0.534, 192.0, 0.0, 0.0, 0.0, 0.0, 0.0, 0.0, 0.0, 0.0, 0.0, 1.6546749226865692E9, 0.0, 2022-06-08 09:55:22.686
82.0, 20146.051960712906, 36524.60563476153, -4261.203618193104, -7782.25157049317, 3427.8411779214357, 4549.004679799638, 14951.171273132715, -623.7477807697989, 0.028, 0.862, 0.534, 192.0, 0.0, 0.0, 0.0, 0.0, 0.0, 0.0, 0.0, 0.0, 0.0, 1.6546749226865747E9, 0.0, 2022-06-08 09:55:22.686
83.0, 20167.88961504574, 36540.14009715797, -4251.324147143859, -7772.662672121844, 3439.4640850381957, 4548.669403632808, 14976.361689133846, -628.3969436165028, 0.028, 0.862, 0.534, 192.0, 0.0, 0.0, 0.0, 0.0, 0.0, 0.0, 0.0, 0.0, 0.0, 1.6546749226865811E9, 0.0, 2022-06-08 09:55:22.686
84.0, 20164.536853377445, 36549.259608895736, -4241.154103416694, -7766.359480185447, 3451.422268321785, 4555.576092669498, 14980.049726968971, -645.5854351026339, 0.028, 0.862, 0.534, 192.0, 0.0, 0.0, 0.0, 0.0, 0.0, 0.0, 0.0, 0.0, 0.0, 1.654674922686587E9, 0.0, 2022-06-08 09:55:22.686
85.0, 20138.60882980929, 36541.548257058654, -4249.737173287532, -7782.855067593464, 3439.2405675936425, 4543.506150663633, 14968.404468107758, -667.3783859465583, 0.028, 0.862, 0.534, 192.0, 0.0, 0.0, 0.0, 0.0, 0.0, 0.0, 0.0, 0.0, 0.0, 1.654674922686592E9, 0.0, 2022-06-08 09:55:22.686
86.0, 20129.55637330489, 36537.68140526788, -4261.27067342647, -7797.696625911788, 3427.036515121045, 4531.5032638911325, 14968.851502996864, -668.6077318916001, 0.028, 0.862, 0.534, 192.0, 0.0, 0.0, 0.0, 0.0, 0.0, 0.0, 0.0, 0.0, 0.0, 1.6546749226866012E9, 0.0, 2022-06-08 09:55:22.686
87.0, 20137.446539097615, 36540.54242855816, -4259.214312936582, -7793.762718887654, 3431.842140178936, 4532.352630180434, 14987.671671828231, -642.7691153012652, 0.028, 0.862, 0.534, 192.0, 0.0, 0.0, 0.0, 0.0, 0.0, 0.0, 0.0, 0.0, 0.0, 1.654674922686606E9, 0.0, 2022-06-08 09:55:22.686
88.0, 20156.37846665126, 36555.92042874342, -4245.803266263398, -7779.435250691802, 3442.034535650556, 4540.399258184345, 14985.414145638246, -624.7536092702877, 0.032, 0.862, 0.528, 192.0, 1.0, 0.0, 26.0, 240.0, 16.0, 128.0, 0.0, 0.0, 0.0, 1.6546749226866107E9, 0.0, 2022-06-08 09:55:22.686
89.0, 20165.140350477737, 36570.71728357283, -4237.533120814935, -7773.936721555797, 3444.023840907078, 4551.508075178633, 14964.448209339167, -593.1258908660283, 0.032, 0.862, 0.528, 192.0, 0.0, 0.0, 0.0, 0.0, 0.0, 0.0, 0.0, 0.0, 0.0, 1.654674922686617E9, 0.0, 2022-06-08 09:55:22.686
90.0, 20164.04511499943, 36573.9806382633, -4234.582690546834, -7779.725823369721, 3441.699259483726, 4560.3817177273895, 14959.374363347813, -583.7828616837098, 0.032, 0.862, 0.528, 192.0, 0.0, 0.0, 0.0, 0.0, 0.0, 0.0, 0.0, 0.0, 0.0, 1.654674922686622E9, 0.0, 2022-06-08 09:55:22.686
91.0, 20156.020838739973, 36562.96122824684, -4246.36205987478, -7799.775338146132, 3431.708029712204, 4537.202958727236, 14968.069191940927, -619.970335956852, 0.032, 0.862, 0.528, 192.0, 0.0, 0.0, 0.0, 0.0, 0.0, 0.0, 0.0, 0.0, 0.0, 1.654674922686628E9, 0.0, 2022-06-08 09:55:22.686
92.0, 20168.224891212572, 36563.05063522466, -4245.177417418649, -7785.090242038995, 3435.8878059253466, 4530.3856766683675, 14993.34901491988, -634.0295832192402, 0.032, 0.862, 0.528, 192.0, 0.0, 0.0, 0.0, 0.0, 0.0, 0.0, 0.0, 0.0, 0.0, 1.654674922686634E9, 0.0, 2022-06-08 09:55:22.686
93.0, 20170.527120891467, 36570.784338806196, -4236.057905680884, -7778.138849513394, 3444.2026548627205, 4539.32637445049, 15012.325645962435, -632.2637954072709, 0.032, 0.862, 0.528, 192.0, 0.0, 0.0, 0.0, 0.0, 0.0, 0.0, 0.0, 0.0, 0.0, 1.6546749226866395E9, 0.0, 2022-06-08 09:55:22.686
94.0, 20163.151045221217, 36580.03796101069, -4231.118170156261, -7779.234084991705, 3446.1025531414216, 4543.081467518981, 15004.68134935872, -630.520359339757, 0.032, 0.862, 0.528, 192.0, 0.0, 0.0, 0.0, 0.0, 0.0, 0.0, 0.0, 0.0, 0.0, 1.6546749226866453E9, 0.0, 2022-06-08 09:55:22.686
95.0, 20159.46300738609, 36578.65215285446, -4235.990850447518, -7783.860896093953, 3438.033573393056, 4541.338031451468, 14992.611407352855, -619.0092109452738, 0.032, 0.862, 0.528, 192.0, 0.0, 0.0, 0.0, 0.0, 0.0, 0.0, 0.0, 0.0, 0.0, 1.6546749226866524E9, 0.0, 2022-06-08 09:55:22.686
96.0, 20151.438731126636, 36574.02534175222, -4248.463123853579, -7790.946399086285, 3427.2153290766873, 4528.776351067585, 14976.026412967018, -625.0441819482068, 0.032, 0.862, 0.528, 192.0, 0.0, 0.0, 0.0, 0.0, 0.0, 0.0, 0.0, 0.0, 0.0, 1.6546749226866577E9, 0.0, 2022-06-08 09:55:22.686
97.0, 20154.32210616137, 36581.04378951118, -4246.250301152504, -7789.44883220778, 3433.920852413279, 4528.552833623032, 14980.764982791541, -629.5145308392681, 0.032, 0.862, 0.528, 192.0, 0.0, 0.0, 0.0, 0.0, 0.0, 0.0, 0.0, 0.0, 0.0, 1.6546749226866624E9, 0.0, 2022-06-08 09:55:22.686
98.0, 20167.93431853465, 36599.998068809284, -4228.927699199641, -7776.551875657067, 3453.3668700893963, 4543.170874496803, 14998.981654522617, -618.7856935007208, 0.04, 0.87, 0.522, 192.0, 1.0, 64.0, 27.0, 48.0, 16.0, 80.0, 0.0, 0.0, 0.0, 1.6546749226866672E9, 0.0, 2022-06-08 09:55:22.686
99.0, 20169.74480983553, 36606.703592145874, -4221.663382251666, -7769.86870406493, 3458.4407160807514, 4547.104781520937, 15004.92721854773, -618.2716033782486, 0.04, 0.87, 0.522, 192.0, 0.0, 0.0, 0.0, 0.0, 0.0, 0.0, 0.0, 0.0, 0.0, 1.6546749226866727E9, 0.0, 2022-06-08 09:55:22.686
100.0, 20155.75261780651, 36593.67252512843, -4235.990850447518, -7783.615026904944, 3443.085067639955, 4531.905595291329, 14973.075982698916, -645.9430630139188, 0.04, 0.87, 0.522, 192.0, 0.0, 0.0, 0.0, 0.0, 0.0, 0.0, 0.0, 0.0, 0.0, 1.654674922686678E9, 0.0, 2022-06-08 09:55:22.686
101.0, 20149.85175727031, 36582.27313545622, -4250.541836087923, -7793.941532843296, 3430.411628533796, 4522.56256610901, 14945.248060852058, -649.8769700380528, 0.04, 0.87, 0.522, 192.0, 0.0, 0.0, 0.0, 0.0, 0.0, 0.0, 0.0, 0.0, 0.0, 1.654674922686684E9, 0.0, 2022-06-08 09:55:22.686
102.0, 20153.852719527807, 36584.73182734631, -4248.977213976052, -7794.477974710224, 3437.899462926324, 4521.780255053074, 14978.328642645913, -618.1151411670616, 0.04, 0.87, 0.522, 192.0, 0.0, 0.0, 0.0, 0.0, 0.0, 0.0, 0.0, 0.0, 0.0, 1.6546749226866896E9, 0.0, 2022-06-08 09:55:22.686
103.0, 20166.056772000407, 36602.41205721045, -4229.0841614108285, -7780.284616981104, 3459.5359515590612, 4528.597537111943, 15024.596753668398, -596.8809839345198, 0.04, 0.87, 0.522, 192.0, 0.0, 0.0, 0.0, 0.0, 0.0, 0.0, 0.0, 0.0, 0.0, 1.6546749226866956E9, 0.0, 2022-06-08 09:55:22.686
104.0, 20170.12478949127, 36609.162284035956, -4220.255222350982, -7777.580055902012, 3468.0072627076224, 4526.384714410868, 15034.02918982854, -592.8129664436539, 0.04, 0.87, 0.522, 192.0, 0.0, 0.0, 0.0, 0.0, 0.0, 0.0, 0.0, 0.0, 0.0, 1.6546749226867003E9, 0.0, 2022-06-08 09:55:22.686
105.0, 20162.346382420827, 36598.120522275036, -4234.292117868915, -7799.574172446034, 3453.433925322762, 4507.2069176682135, 15001.663863857255, -619.4785975788352, 0.04, 0.87, 0.522, 192.0, 0.0, 0.0, 0.0, 0.0, 0.0, 0.0, 0.0, 0.0, 0.0, 1.6546749226867056E9, 0.0, 2022-06-08 09:55:22.686
106.0, 20146.208422924094, 36595.10303677357, -4239.164798160172, -7810.5935824625, 3446.951919430723, 4495.785176251552, 14993.080793986415, -646.4124496474802, 0.04, 0.87, 0.522, 192.0, 0.0, 0.0, 0.0, 0.0, 0.0, 0.0, 0.0, 0.0, 0.0, 1.6546749226867104E9, 0.0, 2022-06-08 09:55:22.686
107.0, 20152.153986949204, 36611.15158929248, -4234.7838562469315, -7804.089224826005, 3455.4008788348297, 4494.086443672949, 14995.5394858765, -656.5601416301896, 0.04, 0.87, 0.522, 192.0, 0.0, 0.0, 0.0, 0.0, 0.0, 0.0, 0.0, 0.0, 0.0, 1.6546749227011068E9, 0.0, 2022-06-08 09:55:22.701
108.0, 20167.397876667725, 36628.85417090108, -4225.574937531345, -7794.165050287849, 3466.0403091955554, 4502.848327499429, 14998.914599289252, -647.3288711701479, 0.024, 0.88, 0.51, 192.0, 0.0, 192.0, 27.0, 128.0, 15.0, 240.0, 0.0, 0.0, 0.0, 1.6546749228753417E9, 0.0, 2022-06-08 09:55:22.875
109.0, 20170.728286591566, 36630.95523487988, -4221.886899696219, -7795.30498925507, 3461.704070771226, 4509.978533980672, 14994.578360864922, -614.2706411207487, 0.024, 0.88, 0.51, 192.0, 0.0, 0.0, 0.0, 0.0, 0.0, 0.0, 0.0, 0.0, 0.0, 1.6546749228753493E9, 0.0, 2022-06-08 09:55:22.875
110.0, 20172.51642614799, 36634.53151399273, -4219.897594439697, -7799.30595151257, 3455.087954412455, 4508.79389152454, 14992.097317230382, -602.4912717928019, 0.024, 0.88, 0.51, 192.0, 0.0, 0.0, 0.0, 0.0, 0.0, 0.0, 0.0, 0.0, 0.0, 1.6546749228753545E9, 0.0, 2022-06-08 09:55:22.875
111.0, 20157.764274807487, 36620.7404876638, -4235.320298113858, -7819.467225011257, 3442.258053095109, 4484.274027857069, 14967.130418673805, -624.775961014743, 0.024, 0.88, 0.51, 192.0, 0.0, 0.0, 0.0, 0.0, 0.0, 0.0, 0.0, 0.0, 0.0, 1.65467492287536E9, 0.0, 2022-06-08 09:55:22.875
112.0, 20157.42899864066, 36622.3945167535, -4235.566167302867, -7818.170823832849, 3443.934433929257, 4479.26723709908, 14969.723221030621, -637.1141239540725, 0.024, 0.88, 0.51, 192.0, 0.0, 0.0, 0.0, 0.0, 0.0, 0.0, 0.0, 0.0, 0.0, 1.6546749228753653E9, 0.0, 2022-06-08 09:55:22.875
113.0, 20182.865283830797, 36642.68990071892, -4225.55258578689, -7811.152376073883, 3451.735192744159, 4481.480059800156, 14999.316930689447, -650.7710398162651, 0.024, 0.88, 0.51, 192.0, 0.0, 0.0, 0.0, 0.0, 0.0, 0.0, 0.0, 0.0, 0.0, 1.6546749228753705E9, 0.0, 2022-06-08 09:55:22.875
114.0, 20193.23649325806, 36667.12035740857, -4214.779044959431, -7809.274829539637, 3457.5242945580835, 4487.693844758731, 15022.87566934534, -656.9401212859299, 0.024, 0.88, 0.51, 192.0, 0.0, 0.0, 0.0, 0.0, 0.0, 0.0, 0.0, 0.0, 0.0, 1.6546749228753774E9, 0.0, 2022-06-08 09:55:22.875
115.0, 20176.204463983115, 36663.87935446255, -4205.391312288202, -7780.619893147933, 3460.3406143594525, 4500.210821653703, 15025.468471702156, -649.4075834044914, 0.024, 0.88, 0.51, 192.0, 0.0, 0.0, 0.0, 0.0, 0.0, 0.0, 0.0, 0.0, 0.0, 1.6546749228753827E9, 0.0, 2022-06-08 09:55:22.875
116.0, 20152.288097415938, 36640.342967551114, -4213.549699014389, -7781.558666415056, 3453.9033119563237, 4498.199164652725, 15015.656055886277, -648.4464583929132, 0.024, 0.88, 0.51, 192.0, 0.0, 0.0, 0.0, 0.0, 0.0, 0.0, 0.0, 0.0, 0.0, 1.6546749228753881E9, 0.0, 2022-06-08 09:55:22.875
117.0, 20156.780798051455, 36643.53926700822, -4218.221213605549, -7779.055271036062, 3456.406707335318, 4501.4625193432, 15018.137099520816, -636.2871094092261, 0.026000000000000002, 0.894, 0.516, 192.0, 0.0, 208.0, 27.0, 240.0, 16.0, 32.0, 0.0, 0.0, 0.0, 1.6546749228753934E9, 0.0, 2022-06-08 09:55:22.875
118.0, 20164.380391166258, 36656.413871814475, -4213.348533314292, -7772.148581999372, 3464.9227219727904, 4517.622830584387, 15030.229393271136, -597.0150944012516, 0.026000000000000002, 0.894, 0.516, 192.0, 0.0, 0.0, 0.0, 0.0, 0.0, 0.0, 0.0, 0.0, 0.0, 1.6546749228753984E9, 0.0, 2022-06-08 09:55:22.875
119.0, 20168.604870868312, 36665.04164517423, -4196.607076717267, -7758.715183581732, 3475.6962628002484, 4536.532406393577, 15041.248803287603, -557.2736927597157, 0.026000000000000002, 0.894, 0.516, 192.0, 0.0, 0.0, 0.0, 0.0, 0.0, 0.0, 0.0, 0.0, 0.0, 1.6546749228754036E9, 0.0, 2022-06-08 09:55:22.875
120.0, 20156.937260262643, 36656.97266542586, -4205.9054024106745, -7748.612195087933, 3464.900370228335, 4532.509092391621, 15026.653114158287, -570.2377045437938, 0.026000000000000002, 0.894, 0.516, 192.0, 0.0, 0.0, 0.0, 0.0, 0.0, 0.0, 0.0, 0.0, 0.0, 1.654674922875409E9, 0.0, 2022-06-08 09:55:22.875
121.0, 20139.56995482087, 36648.21078159938, -4222.021010162951, -7760.145695226872, 3451.2658061105976, 4522.2272899421805, 15004.994273781094, -587.5379547522015, 0.026000000000000002, 0.894, 0.516, 192.0, 0.0, 0.0, 0.0, 0.0, 0.0, 0.0, 0.0, 0.0, 0.0, 1.654674922875414E9, 0.0, 2022-06-08 09:55:22.875
122.0, 20144.08500720084, 36653.01640665727, -4227.832463721331, -7759.944529526774, 3447.890692697846, 4522.629621342376, 14993.907808531263, -590.0413501311958, 0.026000000000000002, 0.894, 0.516, 192.0, 0.0, 0.0, 0.0, 0.0, 0.0, 0.0, 0.0, 0.0, 0.0, 1.6546749228754191E9, 0.0, 2022-06-08 09:55:22.875
123.0, 20146.49899560201, 36660.23602011633, -4222.065713651862, -7745.013564230629, 3461.0111666931116, 4528.2175574562025, 15008.190573238204, -605.195832871894, 0.026000000000000002, 0.894, 0.516, 192.0, 0.0, 0.0, 0.0, 0.0, 0.0, 0.0, 0.0, 0.0, 0.0, 1.6546749228754244E9, 0.0, 2022-06-08 09:55:22.875
124.0, 20144.867318256776, 36665.04164517423, -4218.98117291703, -7749.662727077333, 3469.728347030681, 4526.764694066607, 15030.721131649154, -653.1179729840724, 0.026000000000000002, 0.894, 0.516, 192.0, 0.0, 0.0, 0.0, 0.0, 0.0, 0.0, 0.0, 0.0, 0.0, 1.6546749228754296E9, 0.0, 2022-06-08 09:55:22.875
125.0, 20135.099605929805, 36653.619903757564, -4221.708085740577, -7749.886244521886, 3464.2968731280416, 4523.121359720392, 15044.825082400452, -640.6904030669216, 0.026000000000000002, 0.894, 0.516, 192.0, 0.0, 0.0, 0.0, 0.0, 0.0, 0.0, 0.0, 0.0, 0.0, 1.6546749228754349E9, 0.0, 2022-06-08 09:55:22.875
126.0, 20105.617654993257, 36627.20014181139, -4230.31350735587, -7753.194302701271, 3455.087954412455, 4521.13205446387, 15051.754123181598, -585.9509808958746, 0.026000000000000002, 0.894, 0.516, 192.0, 0.0, 0.0, 0.0, 0.0, 0.0, 0.0, 0.0, 0.0, 0.0, 1.65467492287544E9, 0.0, 2022-06-08 09:55:22.875
127.0, 20104.008329392473, 36628.608301712076, -4232.861606223775, -7751.227349189205, 3457.412535835807, 4520.595612596942, 15056.22447207266, -556.0890503035844, 0.046, 0.892, 0.516, 192.0, 1.0, 112.0, 27.0, 224.0, 16.0, 32.0, 0.0, 0.0, 0.0, 1.6546749228754451E9, 0.0, 2022-06-08 09:55:22.875
128.0, 20118.112280143774, 36641.88523791853, -4224.993792175507, -7736.028162959596, 3469.348367374941, 4531.257394702125, 15060.381896541347, -533.2455674702605, 0.046, 0.892, 0.516, 192.0, 0.0, 0.0, 0.0, 0.0, 0.0, 0.0, 0.0, 0.0, 0.0, 1.6546749228754592E9, 0.0, 2022-06-08 09:55:22.875
129.0, 20120.995655178507, 36645.64033098702, -4225.5078822979785, -7737.279860649092, 3470.8682859979017, 4529.044572001048, 15061.991222142127, -567.8907713759866, 0.046, 0.892, 0.516, 192.0, 0.0, 0.0, 0.0, 0.0, 0.0, 0.0, 0.0, 0.0, 0.0, 1.6546749228754644E9, 0.0, 2022-06-08 09:55:22.875
130.0, 20108.25516083898, 36640.67824371794, -4233.107475412783, -7748.768657299121, 3466.2861783845638, 4515.633525327865, 15038.097207319404, -627.2123011603715, 0.046, 0.892, 0.516, 192.0, 0.0, 0.0, 0.0, 0.0, 0.0, 0.0, 0.0, 0.0, 0.0, 1.6546749228754692E9, 0.0, 2022-06-08 09:55:22.875
131.0, 20085.590491961302, 36626.01549935526, -4251.79353377742, -7765.085430751495, 3450.6623090103044, 4498.6909030307415, 15014.203192496681, -601.0384084032069, 0.046, 0.892, 0.516, 192.0, 0.0, 0.0, 0.0, 0.0, 0.0, 0.0, 0.0, 0.0, 0.0, 1.654674922875474E9, 0.0, 2022-06-08 09:55:22.875
132.0, 20092.184256575616, 36629.792944168206, -4254.676908812155, -7763.587863872989, 3457.6584050248152, 4501.596629809932, 15032.509271205578, -559.4418119718805, 0.046, 0.892, 0.516, 192.0, 0.0, 0.0, 0.0, 0.0, 0.0, 0.0, 0.0, 0.0, 0.0, 1.6546749228754785E9, 0.0, 2022-06-08 09:55:22.875
133.0, 20115.74299523151, 36642.46638327437, -4251.592368077322, -7760.1009917379615, 3463.380451605374, 4500.926077476272, 15042.92518412175, -582.7993849276763, 0.046, 0.892, 0.516, 192.0, 0.0, 0.0, 0.0, 0.0, 0.0, 0.0, 0.0, 0.0, 0.0, 1.6546749228754835E9, 0.0, 2022-06-08 09:55:22.875
134.0, 20123.007312179485, 36651.809412456685, -4252.419382622169, -7762.8055528170535, 3459.804172492525, 4509.822071769485, 15045.652096945298, -595.1151961225505, 0.046, 0.892, 0.516, 192.0, 0.0, 0.0, 0.0, 0.0, 0.0, 0.0, 0.0, 0.0, 0.0, 1.654674922875488E9, 0.0, 2022-06-08 09:55:22.875
135.0, 20116.45825105408, 36656.547982281205, -4256.12977220175, -7774.361404700448, 3462.151105660332, 4511.900784003828, 15048.915451635774, -595.5622310116566, 0.046, 0.892, 0.516, 192.0, 0.0, 0.0, 0.0, 0.0, 0.0, 0.0, 0.0, 0.0, 0.0, 1.6546749228754928E9, 0.0, 2022-06-08 09:55:22.875
136.0, 20106.802297449387, 36655.76567122527, -4261.717708315577, -7797.562515445056, 3458.1277916583767, 4495.98634195165, 15051.754123181598, -609.5767747851343, 0.046, 0.892, 0.516, 192.0, 0.0, 0.0, 0.0, 0.0, 0.0, 0.0, 0.0, 0.0, 0.0, 1.6546749228754976E9, 0.0, 2022-06-08 09:55:22.875
137.0, 20107.606960249777, 36661.42066257246, -4261.494190871023, -7778.898808824874, 3454.1044776564217, 4498.445033841734, 15055.59862322791, -575.0880330905954, 0.036000000000000004, 0.878, 0.52, 192.0, 1.0, 32.0, 27.0, 112.0, 16.0, 64.0, 0.0, 0.0, 0.0, 1.6546749228755023E9, 0.0, 2022-06-08 09:55:22.875
138.0, 20124.72839650254, 36685.94052623994, -4240.081219682839, -7746.242910175671, 3472.8128877655136, 4519.99211549665, 15067.26623383358, -538.2523582282494, 0.036000000000000004, 0.878, 0.52, 192.0, 0.0, 0.0, 0.0, 0.0, 0.0, 0.0, 0.0, 0.0, 0.0, 1.654674922875507E9, 0.0, 2022-06-08 09:55:22.875
139.0, 20135.323123374357, 36701.653802592016, -4228.368905588259, -7744.834750274987, 3478.803155279536, 4527.524653378088, 15062.818236686975, -531.5915383805678, 0.036000000000000004, 0.878, 0.52, 192.0, 0.0, 0.0, 0.0, 0.0, 0.0, 0.0, 0.0, 0.0, 0.0, 1.654674922875512E9, 0.0, 2022-06-08 09:55:22.875
140.0, 20127.544716303913, 36698.90453802401, -4235.633222536233, -7756.524712625112, 3463.7604312611143, 4519.433321885267, 15032.553974694489, -562.7945736401765, 0.036000000000000004, 0.878, 0.52, 192.0, 0.0, 0.0, 0.0, 0.0, 0.0, 0.0, 0.0, 0.0, 0.0, 1.6546749228755167E9, 0.0, 2022-06-08 09:55:22.875
141.0, 20113.50782078598, 36686.87929950706, -4256.2638826684815, -7777.669462879832, 3441.453390294718, 4496.008693696105, 15010.82807908393, -616.2375946328157, 0.036000000000000004, 0.878, 0.52, 192.0, 0.0, 0.0, 0.0, 0.0, 0.0, 0.0, 0.0, 0.0, 0.0, 1.6546749228755214E9, 0.0, 2022-06-08 09:55:22.875
142.0, 20120.63802726722, 36692.154311198516, -4257.046193724417, -7776.976558801718, 3446.259015352609, 4494.756996006608, 15044.69097193372, -606.5592892836678, 0.036000000000000004, 0.878, 0.52, 192.0, 0.0, 0.0, 0.0, 0.0, 0.0, 0.0, 0.0, 0.0, 0.0, 1.654674922875526E9, 0.0, 2022-06-08 09:55:22.875
143.0, 20143.23564091154, 36713.522578897784, -4238.516597570968, -7765.241892962682, 3461.6593672823155, 4511.118472947893, 15057.230300573148, -592.7235594658326, 0.036000000000000004, 0.878, 0.52, 192.0, 0.0, 0.0, 0.0, 0.0, 0.0, 0.0, 0.0, 0.0, 0.0, 1.654674922875531E9, 0.0, 2022-06-08 09:55:22.875
144.0, 20157.94308876313, 36727.447715693444, -4225.641992764711, -7751.58497710049, 3470.5330098310724, 4526.049438244037, 15070.462533290689, -558.2571695157492, 0.036000000000000004, 0.878, 0.52, 192.0, 0.0, 0.0, 0.0, 0.0, 0.0, 0.0, 0.0, 0.0, 0.0, 1.6546749228755357E9, 0.0, 2022-06-08 09:55:22.875
145.0, 20146.27547815746, 36719.91517781201, -4230.715838756066, -7755.8765120359085, 3456.8760939688796, 4517.84634802894, 15069.166132112281, -561.9675590953302, 0.036000000000000004, 0.878, 0.52, 192.0, 0.0, 0.0, 0.0, 0.0, 0.0, 0.0, 0.0, 0.0, 0.0, 1.6546749228755405E9, 0.0, 2022-06-08 09:55:22.875
146.0, 20128.70700701559, 36710.035706762756, -4243.1210569287605, -7775.121364011928, 3442.72743972867, 4504.055321700015, 15054.816312171974, -577.2561523027603, 0.036000000000000004, 0.878, 0.52, 192.0, 0.0, 0.0, 0.0, 0.0, 0.0, 0.0, 0.0, 0.0, 0.0, 1.6546749228755453E9, 0.0, 2022-06-08 09:55:22.875
147.0, 20135.45723384109, 36718.30585221122, -4243.165760417672, -7775.546047156578, 3451.735192744159, 4503.787100766552, 15062.214739586681, -579.4019197704697, 0.028, 0.87, 0.518, 192.0, 0.0, 224.0, 27.0, 48.0, 16.0, 48.0, 0.0, 0.0, 0.0, 1.65467492287555E9, 0.0, 2022-06-08 09:55:22.875
148.0, 20147.84010026933, 36731.20280876193, -4237.6001760483, -7766.806515074553, 3458.9101027143124, 4509.911478747306, 15060.292489563524, -589.4155012864472, 0.028, 0.87, 0.518, 192.0, 0.0, 0.0, 0.0, 0.0, 0.0, 0.0, 0.0, 0.0, 0.0, 1.6546749228755548E9, 0.0, 2022-06-08 09:55:22.875
149.0, 20158.300716674414, 36740.67994841099, -4228.7935887329095, -7751.920253267319, 3465.0121289506114, 4513.688923560253, 15056.447989517212, -597.5962397570896, 0.028, 0.87, 0.518, 192.0, 0.0, 0.0, 0.0, 0.0, 0.0, 0.0, 0.0, 0.0, 0.0, 1.6546749228755596E9, 0.0, 2022-06-08 09:55:22.875
150.0, 20153.27157417197, 36737.371890231596, -4230.000582933496, -7760.168046971327, 3458.0830881694665, 4513.443054371244, 15045.450931245201, -599.1832136134165, 0.028, 0.87, 0.518, 192.0, 0.0, 0.0, 0.0, 0.0, 0.0, 0.0, 0.0, 0.0, 0.0, 1.654674922910452E9, 0.0, 2022-06-08 09:55:22.910
151.0, 20146.230774668547, 36732.43215470698, -4234.672097524654, -7771.567436643534, 3451.6457857663377, 4505.865813000895, 15041.964059110172, -581.7935564271876, 0.028, 0.87, 0.518, 192.0, 0.0, 0.0, 0.0, 0.0, 0.0, 0.0, 0.0, 0.0, 0.0, 1.6546749229104626E9, 0.0, 2022-06-08 09:55:22.910
152.0, 20143.928544989652, 36734.10853554113, -4240.818827249865, -7773.422631433325, 3448.0471549090335, 4495.807527996008, 15034.476224717644, -580.4971552487797, 0.028, 0.87, 0.518, 192.0, 0.0, 0.0, 0.0, 0.0, 0.0, 0.0, 0.0, 0.0, 0.0, 1.6546749229104688E9, 0.0, 2022-06-08 09:55:22.910
153.0, 20159.574766108366, 36750.715881671415, -4221.372809573747, -7755.474180635712, 3465.2356463951646, 4511.632563070365, 15059.532530252043, -570.3494632660703, 0.028, 0.87, 0.518, 192.0, 0.0, 0.0, 0.0, 0.0, 0.0, 0.0, 0.0, 0.0, 0.0, 1.6546749229104745E9, 0.0, 2022-06-08 09:55:22.910
154.0, 20162.681658587655, 36756.61674220762, -4209.146405356694, -7748.209863687738, 3472.701129043237, 4517.488720117655, 15084.231207875158, -563.6215881850229, 0.028, 0.87, 0.518, 192.0, 0.0, 0.0, 0.0, 0.0, 0.0, 0.0, 0.0, 0.0, 0.0, 1.65467492291048E9, 0.0, 2022-06-08 09:55:22.910
155.0, 20156.669039329176, 36754.31451252872, -4210.554565257378, -7753.216654445727, 3465.839143495458, 4511.498452603633, 15071.423658302267, -556.0890503035844, 0.028, 0.87, 0.518, 192.0, 0.0, 0.0, 0.0, 0.0, 0.0, 0.0, 0.0, 0.0, 0.0, 1.654674922937514E9, 0.0, 2022-06-08 09:55:22.937
156.0, 20151.863414271287, 36750.00062584885, -4215.449597293091, -7760.346860926969, 3459.7147655147037, 4503.5635833219985, 15059.845454674418, -560.7605648947435, 0.028, 0.87, 0.518, 192.0, 0.0, 0.0, 0.0, 0.0, 0.0, 0.0, 0.0, 0.0, 0.0, 1.6546749229375272E9, 0.0, 2022-06-08 09:55:22.937
157.0, 20147.19189968013, 36749.64299793756, -4224.278536352937, -7766.806515074553, 3455.311471857008, 4497.416853596789, 15053.83283541594, -565.7673556527324, 0.024, 0.87, 0.522, 192.0, 0.0, 192.0, 27.0, 48.0, 16.0, 80.0, 0.0, 0.0, 0.0, 1.654674922937534E9, 0.0, 2022-06-08 09:55:22.937
