%OpenBCI Raw EEG Data
%Number of channels = 8
%Sample Rate = 250 Hz
%Board = OpenBCI_GUI$BoardCytonSerial
Sample Index, EXG Channel 0, EXG Channel 1, EXG Channel 2, EXG Channel 3, EXG Channel 4, EXG Channel 5, EXG Channel 6, EXG Channel 7, Accel Channel 0, Accel Channel 1, Accel Channel 2, Other, Other, Other, Other, Other, Other, Other, Analog Channel 0, Analog Channel 1, Analog Channel 2, Timestamp, Other, Timestamp (Formatted)
0.0, 0.0, 0.0, 0.0, 0.0, 0.0, 0.0, 0.0, 0.0, 0.02, 0.91, 0.468, 192.0, 0.0, 160.0, 28.0, 112.0, 14.0, 160.0, 0.0, 0.0, 0.0, 1.654609294247053E9, 0.0, 2022-06-07 15:41:34.247
1.0, 40109.9148523706, 13376.26735881178, -18611.895276533996, -20819.241800217846, -3071.733185259484, -4600.1231193689255, 16114.601923775903, 7857.17461790736, 0.02, 0.91, 0.468, 192.0, 0.0, 0.0, 0.0, 0.0, 0.0, 0.0, 0.0, 0.0, 0.0, 1.654609294305873E9, 0.0, 2022-06-07 15:41:34.305
2.0, 40229.67549916214, 13402.821231224685, -18578.25590112876, -20790.16218068149, -3026.5826614597636, -4586.466203506733, 16129.197612905218, 7864.9977284667175, 0.02, 0.91, 0.468, 192.0, 0.0, 0.0, 0.0, 0.0, 0.0, 0.0, 0.0, 0.0, 0.0, 1.654609294305878E9, 0.0, 2022-06-07 15:41:34.305
3.0, 40237.05157483239, 13399.669635256487, -18597.143125193492, -20768.59274728212, -3024.012210847403, -4518.203975940225, 16144.016819479088, 7869.155152935405, 0.02, 0.91, 0.468, 192.0, 0.0, 0.0, 0.0, 0.0, 0.0, 0.0, 0.0, 0.0, 0.0, 1.654609294305881E9, 0.0, 2022-06-07 15:41:34.305
4.0, 40112.395896005146, 13358.877701625552, -18647.769826384763, -20794.990157483837, -3079.3551301187435, -4502.55775482151, 16129.66699953878, 7859.119219674972, 0.02, 0.91, 0.468, 192.0, 0.0, 0.0, 0.0, 0.0, 0.0, 0.0, 0.0, 0.0, 0.0, 1.654609294305884E9, 0.0, 2022-06-07 15:41:34.305
5.0, 40037.60695905769, 13357.849521380607, -18658.6551259345, -20820.69466360744, -3105.037284497891, -4549.384659455378, 16112.232638863641, 7849.686783514832, 0.02, 0.91, 0.468, 192.0, 0.0, 0.0, 0.0, 0.0, 0.0, 0.0, 0.0, 0.0, 0.0, 1.654609294305888E9, 0.0, 2022-06-07 15:41:34.305
6.0, 40108.8643203812, 13386.772678705775, -18611.269427689247, -20814.324416437677, -3074.8624294832266, -4599.139642612892, 16126.135423914842, 7860.393269108924, 0.02, 0.91, 0.468, 192.0, 0.0, 0.0, 0.0, 0.0, 0.0, 0.0, 0.0, 0.0, 0.0, 1.654609294305891E9, 0.0, 2022-06-07 15:41:34.305
7.0, 40221.27124324694, 13399.624931767576, -18575.10430516056, -20781.82497999966, -3028.527263227375, -4572.317549266523, 16157.606680107914, 7878.297016417625, 0.02, 0.91, 0.468, 192.0, 0.0, 0.0, 0.0, 0.0, 0.0, 0.0, 0.0, 0.0, 0.0, 1.654609294305895E9, 0.0, 2022-06-07 15:41:34.305
8.0, 40222.88056884773, 13382.257626325802, -18592.80688676916, -20767.49751180381, -3025.21920504799, -4507.676304301775, 16165.854473811922, 7875.435993127346, 0.024, 0.912, 0.462, 192.0, 0.0, 192.0, 28.0, 128.0, 14.0, 112.0, 0.0, 0.0, 0.0, 1.654609294305898E9, 0.0, 2022-06-07 15:41:34.305
9.0, 40110.495997726444, 13352.909785855984, -18644.528823438744, -20791.79385802673, -3073.65543528264, -4492.387711094345, 16144.016819479088, 7861.421449353868, 0.024, 0.912, 0.462, 192.0, 0.0, 0.0, 0.0, 0.0, 0.0, 0.0, 0.0, 0.0, 0.0, 1.654609294305901E9, 0.0, 2022-06-07 15:41:34.305
10.0, 40029.470924075955, 13341.935079328428, -18670.680364451455, -20823.041596775245, -3105.1490432201676, -4541.785066340574, 16115.89832495431, 7848.703306758798, 0.024, 0.912, 0.462, 192.0, 0.0, 0.0, 0.0, 0.0, 0.0, 0.0, 0.0, 0.0, 0.0, 1.654609294305905E9, 0.0, 2022-06-07 15:41:34.305
11.0, 40105.13157905717, 13379.441306524433, -18614.622189357542, -20823.868611320093, -3070.6155980367184, -4591.808270431551, 16119.698121511714, 7855.9005684734075, 0.024, 0.912, 0.462, 192.0, 0.0, 0.0, 0.0, 0.0, 0.0, 0.0, 0.0, 0.0, 0.0, 1.654609294305908E9, 0.0, 2022-06-07 15:41:34.305
12.0, 40228.28969100591, 13402.620065524587, -18570.097514402572, -20787.144695180024, -3025.7779986593723, -4576.564380713032, 16141.938107244743, 7866.495295345223, 0.024, 0.912, 0.462, 192.0, 0.0, 0.0, 0.0, 0.0, 0.0, 0.0, 0.0, 0.0, 0.0, 1.654609294305911E9, 0.0, 2022-06-07 15:41:34.305
13.0, 40232.692984663605, 13386.817382194684, -18597.21018042686, -20769.553872293698, -3030.5836237172634, -4513.107778204415, 16151.974040505176, 7865.042431955628, 0.024, 0.912, 0.462, 192.0, 0.0, 0.0, 0.0, 0.0, 0.0, 0.0, 0.0, 0.0, 0.0, 1.654609294305915E9, 0.0, 2022-06-07 15:41:34.305
14.0, 40124.130561844184, 13359.771771403763, -18643.992381571818, -20782.67434628896, -3076.1588306616345, -4489.034949426049, 16134.830252507956, 7859.119219674972, 0.024, 0.912, 0.462, 192.0, 0.0, 0.0, 0.0, 0.0, 0.0, 0.0, 0.0, 0.0, 0.0, 1.654609294305918E9, 0.0, 2022-06-07 15:41:34.305
15.0, 40040.15505792559, 13351.21105327738, -18657.246966033814, -20810.70343383592, -3103.785586808394, -4536.063019760015, 16112.545563286016, 7853.575987050055, 0.024, 0.912, 0.462, 192.0, 0.0, 0.0, 0.0, 0.0, 0.0, 0.0, 0.0, 0.0, 0.0, 1.654609294305922E9, 0.0, 2022-06-07 15:41:34.305
16.0, 40093.68748589605, 13383.062289126194, -18614.912762035463, -20808.15533496801, -3069.475659069498, -4589.796613430573, 16121.776833746057, 7861.466152842779, 0.024, 0.912, 0.462, 192.0, 0.0, 0.0, 0.0, 0.0, 0.0, 0.0, 0.0, 0.0, 0.0, 1.654609294366183E9, 0.0, 2022-06-07 15:41:34.366
17.0, 40204.84271107229, 13401.524830046277, -18579.373488351524, -20784.998927712313, -3021.4417602350427, -4582.532296482599, 16145.71555205769, 7868.909283746396, 0.024, 0.91, 0.462, 192.0, 0.0, 192.0, 28.0, 112.0, 14.0, 112.0, 0.0, 0.0, 0.0, 1.654609294366203E9, 0.0, 2022-06-07 15:41:34.366
18.0, 40217.2926327339, 13388.583170006654, -18593.87977050302, -20771.230253127844, -3016.792597388339, -4522.853138786929, 16157.450217896727, 7869.244559913226, 0.024, 0.91, 0.462, 192.0, 0.0, 0.0, 0.0, 0.0, 0.0, 0.0, 0.0, 0.0, 0.0, 1.654609294366207E9, 0.0, 2022-06-07 15:41:34.366
19.0, 40108.55139595883, 13355.100256812604, -18645.109968794583, -20797.270035418278, -3064.848847967249, -4504.167080422292, 16135.925487986266, 7855.274719628659, 0.024, 0.91, 0.462, 192.0, 0.0, 0.0, 0.0, 0.0, 0.0, 0.0, 0.0, 0.0, 0.0, 1.65460929436621E9, 0.0, 2022-06-07 15:41:34.366
20.0, 40032.95779621098, 13343.678515395943, -18662.74549516982, -20832.83166084667, -3095.4260343821093, -4557.453639203744, 16120.033397678542, 7846.043449168617, 0.024, 0.91, 0.462, 192.0, 0.0, 0.0, 0.0, 0.0, 0.0, 0.0, 0.0, 0.0, 0.0, 1.654609294366213E9, 0.0, 2022-06-07 15:41:34.366
21.0, 40092.72636088447, 13373.853370410607, -18623.741701095307, -20833.21164050241, -3062.211342121523, -4615.00938117616, 16130.873993739368, 7854.045373683617, 0.024, 0.91, 0.462, 192.0, 0.0, 0.0, 0.0, 0.0, 0.0, 0.0, 0.0, 0.0, 0.0, 1.654609294366216E9, 0.0, 2022-06-07 15:41:34.366
22.0, 40208.55310065187, 13402.374196335579, -18580.20050289637, -20803.4614686324, -3016.2785072658667, -4602.402997303367, 16147.928374758767, 7862.98607146574, 0.024, 0.91, 0.462, 192.0, 0.0, 0.0, 0.0, 0.0, 0.0, 0.0, 0.0, 0.0, 0.0, 1.654609294366229E9, 0.0, 2022-06-07 15:41:34.366
23.0, 40213.962222810056, 13382.682309470452, -18599.043023472193, -20791.59269232663, -3021.7323329129617, -4541.4721419182, 16151.348191660429, 7855.654699284399, 0.024, 0.91, 0.462, 192.0, 0.0, 0.0, 0.0, 0.0, 0.0, 0.0, 0.0, 0.0, 0.0, 1.654609294366232E9, 0.0, 2022-06-07 15:41:34.366
24.0, 40103.41049473411, 13341.97978281734, -18657.090503822626, -20822.192230485944, -3076.918789973115, -4523.903670776328, 16128.9070402273, 7840.74608573271, 0.024, 0.91, 0.462, 192.0, 0.0, 0.0, 0.0, 0.0, 0.0, 0.0, 0.0, 0.0, 0.0, 1.654609294366235E9, 0.0, 2022-06-07 15:41:34.366
25.0, 40036.01998520136, 13331.54151815671, -18673.273166808267, -20852.16591980051, -3109.552336877863, -4565.2543980186465, 16105.102432382399, 7833.794693207109, 0.024, 0.91, 0.462, 192.0, 0.0, 0.0, 0.0, 0.0, 0.0, 0.0, 0.0, 0.0, 0.0, 1.654609294366239E9, 0.0, 2022-06-07 15:41:34.366
26.0, 40107.59027094725, 13367.706640685397, -18604.452145630377, -20827.534297410763, -3075.622388794707, -4609.801424718074, 16113.461984808682, 7845.663469512877, 0.024, 0.91, 0.462, 192.0, 0.0, 0.0, 0.0, 0.0, 0.0, 0.0, 0.0, 0.0, 0.0, 1.654609294366242E9, 0.0, 2022-06-07 15:41:34.366
27.0, 40233.6988131641, 13409.303237116723, -18555.85945318454, -20781.355593366097, -3015.429140976565, -4585.326264539512, 16151.661116082803, 7869.646891313421, 0.018000000000000002, 0.916, 0.462, 192.0, 0.0, 144.0, 28.0, 160.0, 14.0, 112.0, 0.0, 0.0, 0.0, 1.654609294366245E9, 0.0, 2022-06-07 15:41:34.366
28.0, 40236.80570564338, 13397.970902677884, -18584.40263085397, -20773.01839268427, -3025.2862602813557, -4525.043609743549, 16154.835063795455, 7861.577911565056, 0.018000000000000002, 0.916, 0.462, 192.0, 0.0, 0.0, 0.0, 0.0, 0.0, 0.0, 0.0, 0.0, 0.0, 1.654609294366249E9, 0.0, 2022-06-07 15:41:34.366
29.0, 40111.63593669367, 13358.028335336248, -18644.238250760824, -20801.02512848677, -3082.1267464312014, -4508.2574496576135, 16128.415301849283, 7846.714001502276, 0.018000000000000002, 0.916, 0.462, 192.0, 0.0, 0.0, 0.0, 0.0, 0.0, 0.0, 0.0, 0.0, 0.0, 1.654609294366252E9, 0.0, 2022-06-07 15:41:34.366
30.0, 40035.77411601235, 13345.958393330384, -18655.011791588284, -20824.583867142665, -3106.534851376397, -4550.278729233591, 16112.61261851938, 7844.568234034567, 0.018000000000000002, 0.916, 0.462, 192.0, 0.0, 0.0, 0.0, 0.0, 0.0, 0.0, 0.0, 0.0, 0.0, 1.654609294366255E9, 0.0, 2022-06-07 15:41:34.366
31.0, 40105.64566917964, 13376.021489622772, -18609.593046855098, -20816.336073438655, -3065.6758625120956, -4596.05510187806, 16125.643685536825, 7858.001632452207, 0.018000000000000002, 0.916, 0.462, 192.0, 0.0, 0.0, 0.0, 0.0, 0.0, 0.0, 0.0, 0.0, 0.0, 1.654609294426594E9, 0.0, 2022-06-07 15:41:34.426
32.0, 40219.17017926815, 13405.74930974833, -18571.63978476999, -20786.988232968837, -3019.2959927673332, -4586.935590140294, 16155.371505662384, 7872.552618092611, 0.018000000000000002, 0.916, 0.462, 192.0, 0.0, 0.0, 0.0, 0.0, 0.0, 0.0, 0.0, 0.0, 0.0, 1.654609294426602E9, 0.0, 2022-06-07 15:41:34.426
33.0, 40233.56470269736, 13395.288693343246, -18588.448296600378, -20769.10683740459, -3019.363048000699, -4521.690848075253, 16176.62801463938, 7876.218304183281, 0.018000000000000002, 0.916, 0.462, 192.0, 0.0, 0.0, 0.0, 0.0, 0.0, 0.0, 0.0, 0.0, 0.0, 1.654609294426606E9, 0.0, 2022-06-07 15:41:34.426
34.0, 40115.3686780177, 13362.319870271669, -18650.854367119595, -20794.185494683446, -3068.849810224749, -4500.970780965184, 16156.310278929506, 7861.51085633169, 0.018000000000000002, 0.916, 0.462, 192.0, 0.0, 0.0, 0.0, 0.0, 0.0, 0.0, 0.0, 0.0, 0.0, 1.654609294426609E9, 0.0, 2022-06-07 15:41:34.426
35.0, 40037.651662546596, 13350.093466054615, -18670.099219095617, -20824.717977609394, -3100.790453051383, -4550.077563533493, 16122.313275612983, 7847.541016047123, 0.018000000000000002, 0.916, 0.462, 192.0, 0.0, 0.0, 0.0, 0.0, 0.0, 0.0, 0.0, 0.0, 0.0, 1.654609294426613E9, 0.0, 2022-06-07 15:41:34.426
36.0, 40110.1160180707, 13386.102126372114, -18622.422948172447, -20816.090204249645, -3072.5825515487854, -4602.112424625448, 16126.269534381574, 7858.2475016412145, 0.018000000000000002, 0.916, 0.462, 192.0, 0.0, 0.0, 0.0, 0.0, 0.0, 0.0, 0.0, 0.0, 0.0, 1.654609294426616E9, 0.0, 2022-06-07 15:41:34.426
37.0, 40221.4947606915, 13417.103995931626, -18577.518293561734, -20782.227311399856, -3025.2639085369005, -4594.490479766188, 16148.688334070246, 7870.786830280642, 0.026000000000000002, 0.92, 0.468, 192.0, 0.0, 208.0, 28.0, 192.0, 14.0, 160.0, 0.0, 0.0, 0.0, 1.65460929442662E9, 0.0, 2022-06-07 15:41:34.426
38.0, 40222.29942349189, 13403.290617858245, -18592.695128046886, -20761.73076173434, -3019.944193356537, -4526.652935344331, 16156.936127774256, 7870.071574458072, 0.026000000000000002, 0.92, 0.468, 192.0, 0.0, 0.0, 0.0, 0.0, 0.0, 0.0, 0.0, 0.0, 0.0, 1.654609294426623E9, 0.0, 2022-06-07 15:41:34.426
39.0, 40105.44450347954, 13359.995288848317, -18648.775654885252, -20794.096087705624, -3077.8128597513273, -4517.622830584387, 16123.341455857928, 7844.210606123282, 0.026000000000000002, 0.92, 0.468, 192.0, 0.0, 0.0, 0.0, 0.0, 0.0, 0.0, 0.0, 0.0, 0.0, 1.654609294426627E9, 0.0, 2022-06-07 15:41:34.426
40.0, 40023.5477117953, 13336.570660659154, -18677.899977910518, -20831.334093968166, -3119.051828271369, -4567.556627697543, 16095.915865411267, 7831.939498417319, 0.026000000000000002, 0.92, 0.468, 192.0, 0.0, 0.0, 0.0, 0.0, 0.0, 0.0, 0.0, 0.0, 0.0, 1.65460929442663E9, 0.0, 2022-06-07 15:41:34.426
41.0, 40091.899346339625, 13374.300405299713, -18628.63673313102, -20822.751024097328, -3086.150060433157, -4610.963715429749, 16105.013025404576, 7845.909338701885, 0.026000000000000002, 0.92, 0.468, 192.0, 0.0, 0.0, 0.0, 0.0, 0.0, 0.0, 0.0, 0.0, 0.0, 1.654609294426633E9, 0.0, 2022-06-07 15:41:34.426
42.0, 40226.00981307147, 13413.013626696305, -18562.20734860985, -20787.099991691113, -3021.4417602350427, -4590.310703553046, 16154.34332541744, 7872.977301237262, 0.026000000000000002, 0.92, 0.468, 192.0, 0.0, 0.0, 0.0, 0.0, 0.0, 0.0, 0.0, 0.0, 0.0, 1.654609294426637E9, 0.0, 2022-06-07 15:41:34.426
43.0, 40236.604539943284, 13403.760004491807, -18578.18884589539, -20753.661781985975, -3010.869385107683, -4521.243813186146, 16176.53860766156, 7878.520533862178, 0.026000000000000002, 0.92, 0.468, 192.0, 0.0, 0.0, 0.0, 0.0, 0.0, 0.0, 0.0, 0.0, 0.0, 1.654609294426649E9, 0.0, 2022-06-07 15:41:34.426
44.0, 40120.68839319806, 13364.532692972743, -18635.185794256424, -20783.076677689158, -3064.245350866956, -4504.122376933382, 16141.111092699897, 7855.766458006676, 0.026000000000000002, 0.92, 0.468, 192.0, 0.0, 0.0, 0.0, 0.0, 0.0, 0.0, 0.0, 0.0, 0.0, 1.654609294426652E9, 0.0, 2022-06-07 15:41:34.426
45.0, 40040.04329920332, 13343.723218884852, -18659.348030012614, -20819.375910684576, -3099.3599414062433, -4555.576092669498, 16110.645665007314, 7841.617803766466, 0.026000000000000002, 0.92, 0.468, 192.0, 0.0, 0.0, 0.0, 0.0, 0.0, 0.0, 0.0, 0.0, 0.0, 1.654609294426655E9, 0.0, 2022-06-07 15:41:34.426
46.0, 40093.39691321813, 13369.181855819448, -18619.092538248606, -20816.15725948301, -3071.442612581565, -4607.074511894526, 16112.478508052649, 7850.782018993142, 0.026000000000000002, 0.92, 0.468, 192.0, 0.0, 0.0, 0.0, 0.0, 0.0, 0.0, 0.0, 0.0, 0.0, 1.654609294486746E9, 0.0, 2022-06-07 15:41:34.486
47.0, 40209.558929152365, 13407.55980104921, -18574.34434584908, -20787.479971346853, -3026.180330059568, -4597.798537945573, 16144.128578201364, 7864.014251710684, 0.026000000000000002, 0.922, 0.466, 192.0, 0.0, 208.0, 28.0, 208.0, 14.0, 144.0, 0.0, 0.0, 0.0, 1.654609294486753E9, 0.0, 2022-06-07 15:41:34.486
48.0, 40233.117667808256, 13406.41986208199, -18583.933244220407, -20763.697715246406, -3019.8994898676265, -4525.736513821664, 16165.161569733807, 7872.954949492807, 0.026000000000000002, 0.922, 0.466, 192.0, 0.0, 0.0, 0.0, 0.0, 0.0, 0.0, 0.0, 0.0, 0.0, 1.654609294486757E9, 0.0, 2022-06-07 15:41:34.486
49.0, 40119.168474575104, 13368.131323830048, -18634.336427967122, -20787.859951002592, -3072.336682359777, -4499.786138509052, 16142.09456945593, 7860.907359231396, 0.026000000000000002, 0.922, 0.466, 192.0, 0.0, 0.0, 0.0, 0.0, 0.0, 0.0, 0.0, 0.0, 0.0, 1.65460929448676E9, 0.0, 2022-06-07 15:41:34.486
50.0, 40025.8499414742, 13347.701829397898, -18657.135207311538, -20825.343826454144, -3112.1898427235897, -4551.083392033982, 16102.576685258948, 7841.081361899539, 0.026000000000000002, 0.922, 0.466, 192.0, 0.0, 0.0, 0.0, 0.0, 0.0, 0.0, 0.0, 0.0, 0.0, 1.654609294486764E9, 0.0, 2022-06-07 15:41:34.486
51.0, 40082.69042762404, 13372.579320976654, -18619.2937039487, -20823.198058986432, -3086.9323714890925, -4605.845165949484, 16105.549467271505, 7845.775228235153, 0.026000000000000002, 0.922, 0.466, 192.0, 0.0, 0.0, 0.0, 0.0, 0.0, 0.0, 0.0, 0.0, 0.0, 1.654609294486768E9, 0.0, 2022-06-07 15:41:34.486
52.0, 40204.19451048309, 13406.665731270998, -18576.78068599471, -20791.79385802673, -3034.405772019121, -4597.396206545378, 16141.558127589004, 7859.923882475363, 0.026000000000000002, 0.922, 0.466, 192.0, 0.0, 0.0, 0.0, 0.0, 0.0, 0.0, 0.0, 0.0, 0.0, 1.654609294486772E9, 0.0, 2022-06-07 15:41:34.486
53.0, 40222.90292059218, 13398.08266140016, -18591.39872686848, -20772.63841302853, -3025.912109126104, -4537.672345360797, 16154.410380650805, 7856.302899873603, 0.026000000000000002, 0.922, 0.466, 192.0, 0.0, 0.0, 0.0, 0.0, 0.0, 0.0, 0.0, 0.0, 0.0, 1.654609294486775E9, 0.0, 2022-06-07 15:41:34.486
54.0, 40113.8711111392, 13356.284899268736, -18643.500643193798, -20791.235064415345, -3076.7623277619277, -4507.922173490783, 16139.881746754856, 7848.837417225531, 0.026000000000000002, 0.922, 0.466, 192.0, 0.0, 0.0, 0.0, 0.0, 0.0, 0.0, 0.0, 0.0, 0.0, 1.654609294486779E9, 0.0, 2022-06-07 15:41:34.486
55.0, 40040.378575370145, 13350.227576521347, -18651.726085153354, -20802.83561978765, -3107.205403710056, -4541.695659362753, 16125.978961703655, 7853.1960073943155, 0.026000000000000002, 0.922, 0.466, 192.0, 0.0, 0.0, 0.0, 0.0, 0.0, 0.0, 0.0, 0.0, 0.0, 1.654609294486783E9, 0.0, 2022-06-07 15:41:34.486
56.0, 40097.55433768682, 13384.962187404893, -18607.089651476104, -20790.340994637132, -3071.0626329258243, -4590.5565727420535, 16136.171357175275, 7864.9977284667175, 0.026000000000000002, 0.922, 0.466, 192.0, 0.0, 0.0, 0.0, 0.0, 0.0, 0.0, 0.0, 0.0, 0.0, 1.654609294486787E9, 0.0, 2022-06-07 15:41:34.486
57.0, 40198.11483599125, 13404.698777758931, -18577.562997050645, -20771.699639761406, -3031.120065584191, -4597.642075734387, 16146.520214858081, 7864.08130694405, 0.028, 0.92, 0.468, 192.0, 0.0, 224.0, 28.0, 192.0, 14.0, 160.0, 0.0, 0.0, 0.0, 1.65460929448679E9, 0.0, 2022-06-07 15:41:34.486
58.0, 40218.05259204538, 13393.969940420384, -18596.003186226273, -20754.555851764188, -3032.952908629526, -4538.387601183367, 16155.930299273767, 7862.807257510097, 0.028, 0.92, 0.468, 192.0, 0.0, 0.0, 0.0, 0.0, 0.0, 0.0, 0.0, 0.0, 0.0, 1.654609294486794E9, 0.0, 2022-06-07 15:41:34.486
59.0, 40113.53583497237, 13364.040954594728, -18619.628980115533, -20769.039782171225, -3078.662226040629, -4507.117510690393, 16142.608659578404, 7856.347603362514, 0.028, 0.92, 0.468, 192.0, 0.0, 0.0, 0.0, 0.0, 0.0, 0.0, 0.0, 0.0, 0.0, 1.654609294486798E9, 0.0, 2022-06-07 15:41:34.486
60.0, 40032.15313341059, 13351.21105327738, -18631.006018043285, -20795.21367492839, -3102.332723418799, -4546.881264076384, 16125.375464603361, 7853.687745772332, 0.028, 0.92, 0.468, 192.0, 0.0, 0.0, 0.0, 0.0, 0.0, 0.0, 0.0, 0.0, 0.0, 1.654609294486802E9, 0.0, 2022-06-07 15:41:34.486
61.0, 40092.0111050619, 13384.068117626683, -18587.129543677514, -20792.263244660287, -3069.6097695362296, -4598.893773423883, 16132.326857128963, 7862.695498787821, 0.028, 0.92, 0.468, 192.0, 0.0, 0.0, 0.0, 0.0, 0.0, 0.0, 0.0, 0.0, 0.0, 1.654609294546122E9, 0.0, 2022-06-07 15:41:34.546
62.0, 40215.05745828837, 13416.902830231527, -18547.231679824792, -20767.765732737273, -3014.3339054982553, -4590.534220997599, 16160.557110376014, 7874.2737024156695, 0.028, 0.92, 0.468, 192.0, 0.0, 0.0, 0.0, 0.0, 0.0, 0.0, 0.0, 0.0, 0.0, 1.654609294546129E9, 0.0, 2022-06-07 15:41:34.546
63.0, 40236.51513296546, 13400.966036434895, -18569.76223823574, -20754.98053490884, -3008.790672873339, -4532.218519713702, 16173.856398326923, 7872.8655425149855, 0.028, 0.92, 0.468, 192.0, 0.0, 0.0, 0.0, 0.0, 0.0, 0.0, 0.0, 0.0, 0.0, 1.654609294546133E9, 0.0, 2022-06-07 15:41:34.546
64.0, 40126.499846756444, 13369.606538964099, -18622.490003405812, -20769.06213391568, -3067.46400206852, -4508.771539780086, 16149.895328270833, 7859.1862749083375, 0.028, 0.92, 0.468, 192.0, 0.0, 0.0, 0.0, 0.0, 0.0, 0.0, 0.0, 0.0, 0.0, 1.654609294546144E9, 0.0, 2022-06-07 15:41:34.546
65.0, 40041.451459104, 13361.001117348806, -18643.008904815782, -20799.661672074995, -3105.1266914757125, -4551.418668200811, 16117.61940927737, 7848.144513147416, 0.028, 0.92, 0.468, 192.0, 0.0, 0.0, 0.0, 0.0, 0.0, 0.0, 0.0, 0.0, 0.0, 1.654609294546147E9, 0.0, 2022-06-07 15:41:34.546
66.0, 40102.874052867184, 13394.774603220774, -18597.657215315965, -20791.033898715246, -3067.195781135056, -4596.680950722808, 16129.108205927398, 7863.209588910293, 0.028, 0.92, 0.468, 192.0, 0.0, 0.0, 0.0, 0.0, 0.0, 0.0, 0.0, 0.0, 0.0, 1.654609294546151E9, 0.0, 2022-06-07 15:41:34.546
67.0, 40216.93500482262, 13428.838661770662, -18551.634973482487, -20760.523767533752, -3012.277545008367, -4588.008473874149, 16161.227662709674, 7879.727528062765, 0.03, 0.916, 0.468, 192.0, 0.0, 240.0, 28.0, 160.0, 14.0, 160.0, 0.0, 0.0, 0.0, 1.654609294546154E9, 0.0, 2022-06-07 15:41:34.546
68.0, 40237.34214751031, 13422.736635534364, -18561.96147942084, -20735.780386421728, -3001.079321036258, -4520.103874218926, 16181.523046675093, 7883.79554555363, 0.03, 0.916, 0.468, 192.0, 0.0, 0.0, 0.0, 0.0, 0.0, 0.0, 0.0, 0.0, 0.0, 1.654609294546158E9, 0.0, 2022-06-07 15:41:34.546
69.0, 40107.99260234745, 13365.203245306402, -18634.91757332296, -20773.174854895457, -3067.911036957626, -4510.447920614233, 16138.920621743277, 7850.424391081857, 0.03, 0.916, 0.468, 192.0, 0.0, 0.0, 0.0, 0.0, 0.0, 0.0, 0.0, 0.0, 0.0, 1.654609294546161E9, 0.0, 2022-06-07 15:41:34.546
70.0, 40020.75374373839, 13343.723218884852, -18647.97099208486, -20801.673329075973, -3100.2316594400004, -4549.049383288549, 16114.691330753725, 7843.562405534078, 0.03, 0.916, 0.468, 192.0, 0.0, 0.0, 0.0, 0.0, 0.0, 0.0, 0.0, 0.0, 0.0, 1.654609294546164E9, 0.0, 2022-06-07 15:41:34.546
71.0, 40075.00142753142, 13362.588091205133, -18604.049814230184, -20802.701509320916, -3071.487316070475, -4601.687741480797, 16123.81084249149, 7854.224187639259, 0.03, 0.916, 0.468, 192.0, 0.0, 0.0, 0.0, 0.0, 0.0, 0.0, 0.0, 0.0, 0.0, 1.654609294546168E9, 0.0, 2022-06-07 15:41:34.546
72.0, 40195.991420267994, 13395.802783465719, -18560.173339864414, -20775.34297410762, -3025.509777725909, -4596.05510187806, 16147.10136021392, 7862.31551913208, 0.03, 0.916, 0.468, 192.0, 0.0, 0.0, 0.0, 0.0, 0.0, 0.0, 0.0, 0.0, 0.0, 1.654609294546176E9, 0.0, 2022-06-07 15:41:34.546
73.0, 40217.85142634528, 13381.207094336403, -18586.30252913267, -20760.613174511574, -3025.241556792445, -4533.85019705894, 16149.38123814836, 7855.4311818398455, 0.03, 0.916, 0.468, 192.0, 0.0, 0.0, 0.0, 0.0, 0.0, 0.0, 0.0, 0.0, 0.0, 1.654609294546198E9, 0.0, 2022-06-07 15:41:34.546
74.0, 40118.98966061946, 13357.78246614724, -18620.992436527307, -20779.992136954326, -3074.6389120386734, -4506.916344990295, 16124.682560525247, 7843.875329956452, 0.03, 0.916, 0.468, 192.0, 0.0, 0.0, 0.0, 0.0, 0.0, 0.0, 0.0, 0.0, 0.0, 1.654609294546202E9, 0.0, 2022-06-07 15:41:34.546
75.0, 40041.451459104, 13357.424838235956, -18629.553154653688, -20808.043576245735, -3109.0829502443016, -4547.618871643409, 16114.847792964913, 7840.79078922162, 0.03, 0.916, 0.468, 192.0, 0.0, 0.0, 0.0, 0.0, 0.0, 0.0, 0.0, 0.0, 0.0, 1.654609294546205E9, 0.0, 2022-06-07 15:41:34.546
76.0, 40095.74384638594, 13385.02924263826, -18591.644596057486, -20807.998872756823, -3080.875048741704, -4601.151299613869, 16132.326857128963, 7853.017193438673, 0.03, 0.916, 0.468, 192.0, 0.0, 0.0, 0.0, 0.0, 0.0, 0.0, 0.0, 0.0, 0.0, 1.654609294605951E9, 0.0, 2022-06-07 15:41:34.605
77.0, 40210.184777997114, 13408.543277805244, -18560.15098811996, -20789.73749753684, -3032.148245829135, -4602.134776369903, 16149.537700359548, 7861.957891220795, 0.034, 0.908, 0.47000000000000003, 192.0, 1.0, 16.0, 28.0, 96.0, 14.0, 176.0, 0.0, 0.0, 0.0, 1.654609294605959E9, 0.0, 2022-06-07 15:41:34.605
78.0, 40236.470429476554, 13399.759042234307, -18575.35017434957, -20756.187529109422, -3025.442722492543, -4539.1922639837585, 16157.427866152271, 7862.159056920894, 0.034, 0.908, 0.47000000000000003, 192.0, 0.0, 0.0, 0.0, 0.0, 0.0, 0.0, 0.0, 0.0, 0.0, 1.654609294605962E9, 0.0, 2022-06-07 15:41:34.605
79.0, 40114.832236150774, 13353.893262612017, -18643.232422260335, -20787.725840535863, -3082.6855400425843, -4522.026124242083, 16121.039226179031, 7835.761646719176, 0.034, 0.908, 0.47000000000000003, 192.0, 0.0, 0.0, 0.0, 0.0, 0.0, 0.0, 0.0, 0.0, 0.0, 1.654609294605966E9, 0.0, 2022-06-07 15:41:34.605
80.0, 40018.87619720414, 13343.454997951389, -18663.12547482556, -20820.69466360744, -3115.073217758324, -4562.929816595294, 16108.388138817329, 7835.381667063435, 0.034, 0.908, 0.47000000000000003, 192.0, 0.0, 0.0, 0.0, 0.0, 0.0, 0.0, 0.0, 0.0, 0.0, 1.654609294605969E9, 0.0, 2022-06-07 15:41:34.605
81.0, 40071.067520507284, 13371.908768642996, -18617.192639969904, -20811.0610617472, -3082.909057487137, -4608.10269213947, 16130.091682683431, 7855.587644051033, 0.034, 0.908, 0.47000000000000003, 192.0, 0.0, 0.0, 0.0, 0.0, 0.0, 0.0, 0.0, 0.0, 0.0, 1.654609294605972E9, 0.0, 2022-06-07 15:41:34.605
82.0, 40188.25771668646, 13393.612312509098, -18574.05377317116, -20781.757924766294, -3030.5836237172634, -4602.827680448017, 16153.695124828235, 7868.506952346201, 0.034, 0.908, 0.47000000000000003, 192.0, 0.0, 0.0, 0.0, 0.0, 0.0, 0.0, 0.0, 0.0, 0.0, 1.654609294605976E9, 0.0, 2022-06-07 15:41:34.605
83.0, 40212.48700767601, 13379.776582691264, -18586.548398321676, -20765.30704084719, -3021.8664433796935, -4544.4225721863, 16161.33942143195, 7866.1153156894825, 0.034, 0.908, 0.47000000000000003, 192.0, 0.0, 0.0, 0.0, 0.0, 0.0, 0.0, 0.0, 0.0, 0.0, 1.654609294605979E9, 0.0, 2022-06-07 15:41:34.605
84.0, 40102.13644530016, 13343.41029446248, -18634.291724478215, -20787.59173006913, -3067.0840224127796, -4518.248679429135, 16141.245203166629, 7849.999707937206, 0.034, 0.908, 0.47000000000000003, 192.0, 0.0, 0.0, 0.0, 0.0, 0.0, 0.0, 0.0, 0.0, 0.0, 1.654609294605982E9, 0.0, 2022-06-07 15:41:34.605
85.0, 40008.12500812114, 13331.87679432354, -18650.563794441678, -20817.431308916966, -3101.013970495936, -4559.062964804526, 16116.18889763223, 7839.449684554302, 0.034, 0.908, 0.47000000000000003, 192.0, 0.0, 0.0, 0.0, 0.0, 0.0, 0.0, 0.0, 0.0, 0.0, 1.654609294605986E9, 0.0, 2022-06-07 15:41:34.605
86.0, 40056.538886611335, 13355.010849834784, -18608.67662533243, -20812.06689024769, -3071.174391648101, -4608.236802606202, 16124.302580869507, 7849.619728281466, 0.034, 0.908, 0.47000000000000003, 192.0, 0.0, 0.0, 0.0, 0.0, 0.0, 0.0, 0.0, 0.0, 0.0, 1.654609294605997E9, 0.0, 2022-06-07 15:41:34.605
87.0, 40177.126547947715, 13383.710489715397, -18555.05479038415, -20775.521788063263, -3014.9150508540934, -4594.535183255099, 16165.206273222719, 7876.106545461005, 0.03, 0.908, 0.466, 192.0, 0.0, 240.0, 28.0, 96.0, 14.0, 144.0, 0.0, 0.0, 0.0, 1.654609294606E9, 0.0, 2022-06-07 15:41:34.606
88.0, 40204.14980699418, 13376.490876256334, -18572.10917140355, -20752.521843018752, -3004.3873792156437, -4529.13397897887, 16179.779610607578, 7876.84415302803, 0.03, 0.908, 0.466, 192.0, 0.0, 0.0, 0.0, 0.0, 0.0, 0.0, 0.0, 0.0, 0.0, 1.654609294606004E9, 0.0, 2022-06-07 15:41:34.606
89.0, 40093.732189384966, 13338.15763451548, -18644.729989138843, -20776.39350609702, -3055.5505222738416, -4504.189432166748, 16157.047886496532, 7859.767420264176, 0.03, 0.908, 0.466, 192.0, 0.0, 0.0, 0.0, 0.0, 0.0, 0.0, 0.0, 0.0, 0.0, 1.654609294606007E9, 0.0, 2022-06-07 15:41:34.606
90.0, 40001.15126385108, 13322.623172119043, -18668.89222489503, -20809.854067546614, -3101.66217108514, -4544.4225721863, 16128.348246615917, 7851.474923071257, 0.03, 0.908, 0.466, 192.0, 0.0, 0.0, 0.0, 0.0, 0.0, 0.0, 0.0, 0.0, 0.0, 1.65460929460601E9, 0.0, 2022-06-07 15:41:34.606
91.0, 40054.638988332634, 13355.815512635174, -18614.376320168536, -20809.049404746223, -3080.204496408045, -4593.216430332235, 16128.95174371621, 7864.88596974444, 0.03, 0.908, 0.466, 192.0, 0.0, 0.0, 0.0, 0.0, 0.0, 0.0, 0.0, 0.0, 0.0, 1.654609294666187E9, 0.0, 2022-06-07 15:41:34.666
92.0, 40190.06820798734, 13398.820268967185, -18567.460008556845, -20770.44794207191, -3013.439835720043, -4579.537162725587, 16166.100343000931, 7889.696406089832, 0.03, 0.908, 0.466, 192.0, 0.0, 0.0, 0.0, 0.0, 0.0, 0.0, 0.0, 0.0, 0.0, 1.654609294666194E9, 0.0, 2022-06-07 15:41:34.666
93.0, 40222.38883046971, 13395.243989854336, -18576.82538948362, -20748.073845872146, -3008.3883414731436, -4514.784159038563, 16171.263595970107, 7885.673092087876, 0.03, 0.908, 0.466, 192.0, 0.0, 0.0, 0.0, 0.0, 0.0, 0.0, 0.0, 0.0, 0.0, 1.654609294666197E9, 0.0, 2022-06-07 15:41:34.666
94.0, 40100.79534063284, 13353.401524234001, -18634.82816634514, -20776.706430519396, -3070.0568044253355, -4496.36632160739, 16144.57561309047, 7864.036603455139, 0.03, 0.908, 0.466, 192.0, 0.0, 0.0, 0.0, 0.0, 0.0, 0.0, 0.0, 0.0, 0.0, 1.654609294666201E9, 0.0, 2022-06-07 15:41:34.666
95.0, 39999.36312429466, 13332.010904790272, -18657.64929743401, -20817.945399039436, -3112.8380433127936, -4540.175740739792, 16116.792394732523, 7853.3748213499575, 0.03, 0.908, 0.466, 192.0, 0.0, 0.0, 0.0, 0.0, 0.0, 0.0, 0.0, 0.0, 0.0, 1.654609294666204E9, 0.0, 2022-06-07 15:41:34.666
96.0, 40057.87999127865, 13365.918501128972, -18609.794212555196, -20810.859896047103, -3083.3113888873327, -4590.355407041956, 16121.66507502378, 7864.193065666326, 0.026000000000000002, 0.902, 0.464, 192.0, 0.0, 208.0, 28.0, 48.0, 14.0, 128.0, 0.0, 0.0, 0.0, 1.654609294666208E9, 0.0, 2022-06-07 15:41:34.666
97.0, 40183.51914686193, 13396.428632310466, -18562.542624776677, -20765.910537947482, -3029.086056838758, -4585.393319772878, 16156.310278929506, 7878.3193681620805, 0.026000000000000002, 0.902, 0.464, 192.0, 0.0, 0.0, 0.0, 0.0, 0.0, 0.0, 0.0, 0.0, 0.0, 1.654609294666211E9, 0.0, 2022-06-07 15:41:34.666
98.0, 40211.235309986514, 13389.499591529322, -18577.33947960609, -20750.24196508431, -3027.07439983778, -4530.18451096827, 16166.301508701028, 7870.3397953915355, 0.026000000000000002, 0.902, 0.464, 192.0, 0.0, 0.0, 0.0, 0.0, 0.0, 0.0, 0.0, 0.0, 0.0, 1.654609294666215E9, 0.0, 2022-06-07 15:41:34.666
99.0, 40111.01008784892, 13361.6046144491, -18626.98270404133, -20769.10683740459, -3069.2744933694, -4504.815281011496, 16137.355999631405, 7853.88891147243, 0.026000000000000002, 0.902, 0.464, 192.0, 0.0, 0.0, 0.0, 0.0, 0.0, 0.0, 0.0, 0.0, 0.0, 1.654609294666218E9, 0.0, 2022-06-07 15:41:34.666
100.0, 40013.332964579226, 13339.945774071906, -18655.92821311095, -20809.07175649068, -3110.7369793339944, -4555.173761269303, 16110.891534196322, 7838.689725242821, 0.026000000000000002, 0.902, 0.464, 192.0, 0.0, 0.0, 0.0, 0.0, 0.0, 0.0, 0.0, 0.0, 0.0, 1.654609294666221E9, 0.0, 2022-06-07 15:41:34.666
101.0, 40052.87320052066, 13359.816474892674, -18623.764052839764, -20818.07950950617, -3092.6991215585617, -4615.232898620713, 16115.965380187678, 7841.908376444385, 0.026000000000000002, 0.902, 0.464, 192.0, 0.0, 0.0, 0.0, 0.0, 0.0, 0.0, 0.0, 0.0, 0.0, 1.654609294666225E9, 0.0, 2022-06-07 15:41:34.666
102.0, 40183.67560907312, 13404.02822542527, -18570.76806673623, -20782.74140152233, -3033.623460963185, -4604.571116515532, 16147.414284636294, 7861.734373776242, 0.026000000000000002, 0.902, 0.464, 192.0, 0.0, 0.0, 0.0, 0.0, 0.0, 0.0, 0.0, 0.0, 0.0, 1.654609294666228E9, 0.0, 2022-06-07 15:41:34.666
103.0, 40212.17408325364, 13394.998120665326, -18587.129543677514, -20763.63066001304, -3028.0578765938135, -4543.349688452446, 16162.658174354814, 7860.907359231396, 0.026000000000000002, 0.902, 0.464, 192.0, 0.0, 0.0, 0.0, 0.0, 0.0, 0.0, 0.0, 0.0, 0.0, 1.654609294666232E9, 0.0, 2022-06-07 15:41:34.666
104.0, 40100.68358191056, 13346.181910774936, -18646.49577695081, -20787.234102157843, -3074.594208549763, -4515.857042772418, 16150.141197459841, 7849.21739688127, 0.026000000000000002, 0.902, 0.464, 192.0, 0.0, 0.0, 0.0, 0.0, 0.0, 0.0, 0.0, 0.0, 0.0, 1.654609294666236E9, 0.0, 2022-06-07 15:41:34.666
105.0, 39994.6916097035, 13328.59108788861, -18683.420858790978, -20824.628570631572, -3117.375447437221, -4564.159162540336, 16110.310388840484, 7829.212585593771, 0.026000000000000002, 0.902, 0.464, 192.0, 0.0, 0.0, 0.0, 0.0, 0.0, 0.0, 0.0, 0.0, 0.0, 1.654609294666251E9, 0.0, 2022-06-07 15:41:34.666
106.0, 40041.78673527083, 13362.945719116417, -18621.484174905323, -20820.44879441843, -3089.949856990559, -4616.775168988129, 16108.768118473068, 7835.806350208087, 0.03, 0.906, 0.464, 192.0, 0.0, 240.0, 28.0, 80.0, 14.0, 128.0, 0.0, 0.0, 0.0, 1.654609294726467E9, 0.0, 2022-06-07 15:41:34.726
107.0, 40166.88944898718, 13399.043786411738, -18572.712668503842, -20785.937700979437, -3036.5068359979196, -4608.929706684316, 16138.562993831993, 7854.917091717374, 0.03, 0.906, 0.464, 192.0, 0.0, 0.0, 0.0, 0.0, 0.0, 0.0, 0.0, 0.0, 0.0, 1.654609294726488E9, 0.0, 2022-06-07 15:41:34.726
108.0, 40213.269318731946, 13408.342112105145, -18567.080028901106, -20748.543232505708, -3011.763454885895, -4530.072752245993, 16165.563901134003, 7874.966606493785, 0.03, 0.906, 0.464, 192.0, 0.0, 0.0, 0.0, 0.0, 0.0, 0.0, 0.0, 0.0, 0.0, 1.654609294726492E9, 0.0, 2022-06-07 15:41:34.726
109.0, 40116.03923035136, 13373.629852966054, -18618.042006259206, -20760.568471022663, -3047.146266358646, -4492.387711094345, 16155.818540551489, 7870.675071558366, 0.03, 0.906, 0.464, 192.0, 0.0, 0.0, 0.0, 0.0, 0.0, 0.0, 0.0, 0.0, 0.0, 1.654609294726495E9, 0.0, 2022-06-07 15:41:34.726
110.0, 40012.617708756654, 13343.298535740201, -18653.82714913215, -20794.051384216713, -3089.8157465238273, -4535.168949981803, 16128.214136149185, 7856.615824295977, 0.03, 0.906, 0.464, 192.0, 0.0, 0.0, 0.0, 0.0, 0.0, 0.0, 0.0, 0.0, 0.0, 1.654609294726498E9, 0.0, 2022-06-07 15:41:34.726
111.0, 40054.840154032725, 13366.41023950699, -18620.567753382653, -20800.868666275583, -3074.2142288940227, -4594.088148365992, 16119.742825000623, 7857.5545975631, 0.03, 0.906, 0.464, 192.0, 0.0, 0.0, 0.0, 0.0, 0.0, 0.0, 0.0, 0.0, 0.0, 1.654609294726502E9, 0.0, 2022-06-07 15:41:34.726
112.0, 40172.20916416754, 13397.814440466696, -18577.920624961927, -20776.661727030485, -3034.7857516748613, -4598.111462367948, 16138.562993831993, 7865.757687778198, 0.03, 0.906, 0.464, 192.0, 0.0, 0.0, 0.0, 0.0, 0.0, 0.0, 0.0, 0.0, 0.0, 1.654609294726505E9, 0.0, 2022-06-07 15:41:34.726
113.0, 40200.417065670146, 13398.552048033722, -18579.73111626281, -20750.733703462327, -3021.1511875571236, -4529.290441190057, 16158.366639419395, 7873.89372275993, 0.03, 0.906, 0.464, 192.0, 0.0, 0.0, 0.0, 0.0, 0.0, 0.0, 0.0, 0.0, 0.0, 1.654609294726509E9, 0.0, 2022-06-07 15:41:34.726
114.0, 40093.016933562394, 13353.289765511725, -18637.420968701957, -20778.271052631266, -3070.3473771032545, -4504.882336244862, 16134.763197274591, 7856.235844640237, 0.03, 0.906, 0.464, 192.0, 0.0, 0.0, 0.0, 0.0, 0.0, 0.0, 0.0, 0.0, 0.0, 1.654609294726512E9, 0.0, 2022-06-07 15:41:34.726
115.0, 40005.219281341946, 13348.97587883185, -18653.782445643243, -20806.4118989005, -3102.019798996425, -4543.752019852641, 16117.23942962163, 7851.2067021377925, 0.03, 0.906, 0.464, 192.0, 0.0, 0.0, 0.0, 0.0, 0.0, 0.0, 0.0, 0.0, 0.0, 1.654609294726516E9, 0.0, 2022-06-07 15:41:34.726
116.0, 40051.710909808986, 13387.93496941745, -18607.24611368729, -20802.232122687357, -3075.108298672235, -4591.763566942641, 16125.196650647718, 7861.846132498519, 0.032, 0.91, 0.464, 192.0, 1.0, 0.0, 28.0, 112.0, 14.0, 128.0, 0.0, 0.0, 0.0, 1.654609294726519E9, 0.0, 2022-06-07 15:41:34.726
117.0, 40178.06532121484, 13418.243934898846, -18559.14515961947, -20776.035878185736, -3021.1958910460344, -4587.695549451774, 16152.19755794973, 7878.721699562276, 0.032, 0.91, 0.464, 192.0, 0.0, 0.0, 0.0, 0.0, 0.0, 0.0, 0.0, 0.0, 0.0, 1.654609294726523E9, 0.0, 2022-06-07 15:41:34.726
118.0, 40213.604594898774, 13396.450984054922, -18574.09847666007, -20759.29442158871, -3014.244498520434, -4533.224348214191, 16168.134351746363, 7874.430164626857, 0.032, 0.91, 0.464, 192.0, 0.0, 0.0, 0.0, 0.0, 0.0, 0.0, 0.0, 0.0, 0.0, 1.654609294726527E9, 0.0, 2022-06-07 15:41:34.726
119.0, 40113.647593694644, 13358.095390569615, -18639.7008466364, -20775.54413980772, -3071.2637986259224, -4511.833728770463, 16138.875918254367, 7852.033716682639, 0.032, 0.91, 0.464, 192.0, 0.0, 0.0, 0.0, 0.0, 0.0, 0.0, 0.0, 0.0, 0.0, 1.65460929472653E9, 0.0, 2022-06-07 15:41:34.726
120.0, 40023.458304817475, 13346.07015205266, -18657.068152078173, -20808.378852412567, -3109.3288194333104, -4549.943453066761, 16104.789507960024, 7839.382629320936, 0.032, 0.91, 0.464, 192.0, 0.0, 0.0, 0.0, 0.0, 0.0, 0.0, 0.0, 0.0, 0.0, 1.654609294726534E9, 0.0, 2022-06-07 15:41:34.726
121.0, 40064.07142449277, 13371.12645758706, -18602.4404886294, -20808.289445434744, -3079.1092609297352, -4603.76645371514, 16105.013025404576, 7845.730524746243, 0.032, 0.91, 0.464, 192.0, 0.0, 0.0, 0.0, 0.0, 0.0, 0.0, 0.0, 0.0, 0.0, 1.654609294786088E9, 0.0, 2022-06-07 15:41:34.786
122.0, 40176.8806787587, 13398.932027689461, -18565.157778877947, -20786.675308546462, -3032.595280718241, -4613.712979997752, 16132.19274666223, 7853.12895216095, 0.032, 0.91, 0.464, 192.0, 0.0, 0.0, 0.0, 0.0, 0.0, 0.0, 0.0, 0.0, 0.0, 1.654609294786108E9, 0.0, 2022-06-07 15:41:34.786
123.0, 40215.68330713312, 13399.669635256487, -18566.811807967642, -20754.846424442105, -3017.4184462330877, -4545.316641964512, 16162.457008654716, 7858.806295252597, 0.032, 0.91, 0.464, 192.0, 0.0, 0.0, 0.0, 0.0, 0.0, 0.0, 0.0, 0.0, 0.0, 1.65460929478611E9, 0.0, 2022-06-07 15:41:34.786
124.0, 40113.08880008326, 13354.183835289936, -18621.059491760672, -20771.76669499477, -3065.340586345266, -4512.817205526496, 16140.641706066335, 7839.002649665195, 0.032, 0.91, 0.464, 192.0, 0.0, 0.0, 0.0, 0.0, 0.0, 0.0, 0.0, 0.0, 0.0, 1.654609294786112E9, 0.0, 2022-06-07 15:41:34.786
125.0, 40021.49135130541, 13345.198434018903, -18643.746512382808, -20803.997910499325, -3103.718531575028, -4550.077563533493, 16118.04409242202, 7831.447760039301, 0.032, 0.91, 0.464, 192.0, 0.0, 0.0, 0.0, 0.0, 0.0, 0.0, 0.0, 0.0, 0.0, 1.654609294786114E9, 0.0, 2022-06-07 15:41:34.786
126.0, 40068.92175303957, 13377.586111734643, -18602.887523518508, -20803.416765143487, -3078.7516330184503, -4599.206697846258, 16125.733092514647, 7846.535187546634, 0.02, 0.908, 0.464, 192.0, 0.0, 160.0, 28.0, 96.0, 14.0, 128.0, 0.0, 0.0, 0.0, 1.654609294786117E9, 0.0, 2022-06-07 15:41:34.786
127.0, 40189.978801009514, 13403.13415564706, -18564.889557944483, -20781.556759066196, -3031.41063826211, -4602.201831603269, 16149.023610237076, 7857.621652796466, 0.02, 0.908, 0.464, 192.0, 0.0, 0.0, 0.0, 0.0, 0.0, 0.0, 0.0, 0.0, 0.0, 1.654609294786119E9, 0.0, 2022-06-07 15:41:34.786
128.0, 40225.11574329326, 13387.465582783889, -18581.49690407478, -20770.33618334963, -3028.460207994009, -4549.094086777459, 16156.57849986297, 7850.759667248687, 0.02, 0.908, 0.464, 192.0, 0.0, 0.0, 0.0, 0.0, 0.0, 0.0, 0.0, 0.0, 0.0, 1.654609294786142E9, 0.0, 2022-06-07 15:41:34.786
129.0, 40134.63588173818, 13358.341259758623, -18629.21787848686, -20786.295328890723, -3063.4853915554754, -4511.923135748284, 16148.643630581337, 7849.17269339236, 0.02, 0.908, 0.464, 192.0, 0.0, 0.0, 0.0, 0.0, 0.0, 0.0, 0.0, 0.0, 0.0, 1.654609294786144E9, 0.0, 2022-06-07 15:41:34.786
130.0, 40031.19200839901, 13335.989515303316, -18657.98457360084, -20819.97940778487, -3101.6174675962293, -4548.088258276971, 16133.377389118361, 7844.255309612193, 0.02, 0.908, 0.464, 192.0, 0.0, 0.0, 0.0, 0.0, 0.0, 0.0, 0.0, 0.0, 0.0, 1.654609294786146E9, 0.0, 2022-06-07 15:41:34.786
131.0, 40081.57284040128, 13363.951547616905, -18617.97495102584, -20822.37104444159, -3079.623351052207, -4601.933610669806, 16134.025589707566, 7852.9054347163965, 0.02, 0.908, 0.464, 192.0, 0.0, 0.0, 0.0, 0.0, 0.0, 0.0, 0.0, 0.0, 0.0, 1.654609294786148E9, 0.0, 2022-06-07 15:41:34.786
132.0, 40212.30819372037, 13396.450984054922, -18570.030459169204, -20793.96197723889, -3026.8955858821378, -4597.664427478841, 16150.320011415484, 7866.562350578589, 0.02, 0.908, 0.464, 192.0, 0.0, 0.0, 0.0, 0.0, 0.0, 0.0, 0.0, 0.0, 0.0, 1.654609294786151E9, 0.0, 2022-06-07 15:41:34.786
133.0, 40259.22450533206, 13395.5122107878, -18572.377392337014, -20768.92802344895, -3005.1026350382135, -4528.597537111943, 16168.760200591112, 7875.726565805265, 0.02, 0.908, 0.464, 192.0, 0.0, 0.0, 0.0, 0.0, 0.0, 0.0, 0.0, 0.0, 0.0, 1.654609294786153E9, 0.0, 2022-06-07 15:41:34.786
134.0, 40155.04302442587, 13363.63862319453, -18627.809718586173, -20786.87647424656, -3052.264815838911, -4493.415891339289, 16147.14606370283, 7861.577911565056, 0.02, 0.908, 0.464, 192.0, 0.0, 0.0, 0.0, 0.0, 0.0, 0.0, 0.0, 0.0, 0.0, 1.654609294786155E9, 0.0, 2022-06-07 15:41:34.786
135.0, 40052.67203482056, 13351.456922466388, -18652.284878764734, -20807.59654135663, -3090.955685491048, -4524.708333576719, 16121.66507502378, 7856.0793824290495, 0.02, 0.908, 0.464, 192.0, 0.0, 0.0, 0.0, 0.0, 0.0, 0.0, 0.0, 0.0, 0.0, 1.654609294786157E9, 0.0, 2022-06-07 15:41:34.786
136.0, 40093.17339577358, 13378.144905346026, -18631.54245991021, -20815.374948427077, -3073.8789527271933, -4581.235895304191, 16115.786566232035, 7858.0686876855725, 0.03, 0.908, 0.468, 192.0, 0.0, 240.0, 28.0, 96.0, 14.0, 160.0, 0.0, 0.0, 0.0, 1.654609294846368E9, 0.0, 2022-06-07 15:41:34.846
137.0, 40225.00398457098, 13413.08068192967, -18564.889557944483, -20781.892035233028, -3021.821739890783, -4581.370005770923, 16144.016819479088, 7871.971472736773, 0.03, 0.908, 0.468, 192.0, 0.0, 0.0, 0.0, 0.0, 0.0, 0.0, 0.0, 0.0, 0.0, 1.654609294846373E9, 0.0, 2022-06-07 15:41:34.846
138.0, 40264.857144934795, 13398.440289311444, -18576.735982505797, -20765.01646816927, -3016.9043561106155, -4527.70346733373, 16154.186863206252, 7868.216379668282, 0.03, 0.908, 0.468, 192.0, 0.0, 0.0, 0.0, 0.0, 0.0, 0.0, 0.0, 0.0, 0.0, 1.654609294846376E9, 0.0, 2022-06-07 15:41:34.846
139.0, 40168.38701586569, 13364.778562161751, -18626.267448218758, -20781.40029685501, -3065.206475878534, -4496.321618118479, 16133.198575162718, 7853.93361496134, 0.03, 0.908, 0.468, 192.0, 0.0, 0.0, 0.0, 0.0, 0.0, 0.0, 0.0, 0.0, 0.0, 1.654609294846378E9, 0.0, 2022-06-07 15:41:34.846
140.0, 40070.709892595994, 13352.64156492252, -18653.64833517651, -20807.2612651898, -3105.8642990427375, -4531.123284235392, 16105.415356804771, 7844.657641012388, 0.03, 0.908, 0.468, 192.0, 0.0, 0.0, 0.0, 0.0, 0.0, 0.0, 0.0, 0.0, 0.0, 1.65460929484638E9, 0.0, 2022-06-07 15:41:34.846
141.0, 40107.29969826934, 13374.635681466543, -18617.460860903368, -20807.663596589995, -3083.780775520894, -4584.454546505755, 16108.008159161587, 7851.229053882248, 0.03, 0.908, 0.468, 192.0, 0.0, 0.0, 0.0, 0.0, 0.0, 0.0, 0.0, 0.0, 0.0, 1.654609294846382E9, 0.0, 2022-06-07 15:41:34.846
142.0, 40231.933025352126, 13402.865934713594, -18569.426962068912, -20786.429439357453, -3030.8294929062718, -4593.104671609959, 16132.684485040247, 7859.923882475363, 0.03, 0.908, 0.468, 192.0, 0.0, 0.0, 0.0, 0.0, 0.0, 0.0, 0.0, 0.0, 0.0, 1.654609294846385E9, 0.0, 2022-06-07 15:41:34.846
143.0, 40280.101034653315, 13403.380024836068, -18567.281194601204, -20756.72397097635, -3008.634210662152, -4528.619888856398, 16162.68052609927, 7870.920940747374, 0.03, 0.908, 0.468, 192.0, 0.0, 0.0, 0.0, 0.0, 0.0, 0.0, 0.0, 0.0, 0.0, 1.654609294846387E9, 0.0, 2022-06-07 15:41:34.846
144.0, 40176.61245782524, 13373.115762843581, -18613.996340512793, -20768.145712393012, -3042.340641300755, -4489.102004659415, 16157.740790574646, 7868.238731412737, 0.03, 0.908, 0.468, 192.0, 0.0, 0.0, 0.0, 0.0, 0.0, 0.0, 0.0, 0.0, 0.0, 1.654609294846389E9, 0.0, 2022-06-07 15:41:34.846
145.0, 40072.83330831925, 13358.900053370005, -18644.573526927656, -20803.483820376852, -3081.3220836308105, -4527.770522567096, 16131.231621650652, 7853.039545183128, 0.03, 0.908, 0.468, 192.0, 0.0, 0.0, 0.0, 0.0, 0.0, 0.0, 0.0, 0.0, 0.0, 1.654609294846403E9, 0.0, 2022-06-07 15:41:34.846
146.0, 40112.50765472742, 13388.22554209537, -18607.290817176203, -20806.948340767427, -3065.7205660010063, -4587.919066896327, 16128.258839638096, 7855.140609161927, 0.032, 0.908, 0.468, 192.0, 1.0, 0.0, 28.0, 96.0, 14.0, 160.0, 0.0, 0.0, 0.0, 1.654609294846407E9, 0.0, 2022-06-07 15:41:34.846
147.0, 40238.01269984397, 13422.311952389713, -18549.310392059135, -20774.91829096297, -3004.8120623602945, -4582.085261593493, 16168.894311057844, 7879.727528062765, 0.032, 0.908, 0.468, 192.0, 0.0, 0.0, 0.0, 0.0, 0.0, 0.0, 0.0, 0.0, 0.0, 1.654609294846409E9, 0.0, 2022-06-07 15:41:34.846
148.0, 40277.441177063134, 13420.300295388735, -18556.44059854038, -20761.596651267606, -2997.21246924549, -4526.675287088787, 16184.272311243096, 7877.849981528519, 0.032, 0.908, 0.468, 192.0, 0.0, 0.0, 0.0, 0.0, 0.0, 0.0, 0.0, 0.0, 0.0, 1.654609294846411E9, 0.0, 2022-06-07 15:41:34.846
149.0, 40179.495832859975, 13382.056460625705, -18612.699939334387, -20773.599538040107, -3047.5485977588414, -4499.808490253507, 16160.601813864925, 7857.88987372993, 0.032, 0.908, 0.468, 192.0, 0.0, 0.0, 0.0, 0.0, 0.0, 0.0, 0.0, 0.0, 0.0, 1.654609294846414E9, 0.0, 2022-06-07 15:41:34.846
150.0, 40069.659360606594, 13358.587128947633, -18646.898108351008, -20813.653864104017, -3090.9333337465923, -4540.1310372508815, 16130.00227570561, 7843.942385189818, 0.032, 0.908, 0.468, 192.0, 0.0, 0.0, 0.0, 0.0, 0.0, 0.0, 0.0, 0.0, 0.0, 1.654609294846436E9, 0.0, 2022-06-07 15:41:34.846
151.0, 40103.23168077847, 13383.732841459852, -18605.97206425334, -20817.006625772316, -3070.3473771032545, -4593.417596032333, 16128.9070402273, 7851.161998648882, 0.032, 0.908, 0.468, 192.0, 0.0, 0.0, 0.0, 0.0, 0.0, 0.0, 0.0, 0.0, 0.0, 1.654609294906715E9, 0.0, 2022-06-07 15:41:34.906
152.0, 40232.067135818856, 13416.03111219777, -18559.189863108382, -20783.948395722913, -3015.630306676663, -4597.977351901216, 16151.23643293815, 7864.5283418331555, 0.032, 0.908, 0.468, 192.0, 0.0, 0.0, 0.0, 0.0, 0.0, 0.0, 0.0, 0.0, 0.0, 1.654609294906721E9, 0.0, 2022-06-07 15:41:34.906
153.0, 40268.6569414922, 13415.472318586388, -18580.49107557429, -20763.094218146114, -3006.980181572459, -4539.28167096158, 16162.233491210163, 7861.734373776242, 0.032, 0.908, 0.468, 192.0, 0.0, 0.0, 0.0, 0.0, 0.0, 0.0, 0.0, 0.0, 0.0, 1.654609294906741E9, 0.0, 2022-06-07 15:41:34.906
154.0, 40167.62705655421, 13396.920370688484, -18615.516259135755, -20776.326450863657, -3047.593301247752, -4502.1554234213145, 16157.137293474352, 7852.972489949762, 0.032, 0.908, 0.468, 192.0, 0.0, 0.0, 0.0, 0.0, 0.0, 0.0, 0.0, 0.0, 0.0, 1.654609294906744E9, 0.0, 2022-06-07 15:41:34.906
155.0, 40058.46113663449, 13368.578358719154, -18633.889393078018, -20803.0591372322, -3081.2773801419, -4530.497435390644, 16137.020723464577, 7846.714001502276, 0.032, 0.908, 0.468, 192.0, 0.0, 0.0, 0.0, 0.0, 0.0, 0.0, 0.0, 0.0, 0.0, 1.654609294906746E9, 0.0, 2022-06-07 15:41:34.906
156.0, 40101.77881738888, 13390.147792118525, -18598.663043816454, -20801.3604046536, -3051.370746060699, -4579.76068017014, 16135.746674030624, 7855.69940277331, 0.022, 0.91, 0.466, 192.0, 0.0, 176.0, 28.0, 112.0, 14.0, 144.0, 0.0, 0.0, 0.0, 1.654609294906748E9, 0.0, 2022-06-07 15:41:34.906
157.0, 40225.11574329326, 13425.08356870217, -18554.00425839475, -20780.550930565707, -3005.8625943496936, -4580.788860415085, 16156.936127774256, 7868.618711068477, 0.022, 0.91, 0.466, 192.0, 0.0, 0.0, 0.0, 0.0, 0.0, 0.0, 0.0, 0.0, 0.0, 1.654609294906751E9, 0.0, 2022-06-07 15:41:34.906
158.0, 40265.46064203509, 13418.981542465872, -18564.151950377458, -20760.434360555933, -2998.084187279247, -4524.529519621077, 16173.141142504353, 7869.803353524609, 0.022, 0.91, 0.466, 192.0, 0.0, 0.0, 0.0, 0.0, 0.0, 0.0, 0.0, 0.0, 0.0, 1.654609294906753E9, 0.0, 2022-06-07 15:41:34.906
159.0, 40173.66202755714, 13395.489859043344, -18611.939980022908, -20763.563604779676, -3038.7420104434505, -4476.585027764443, 16161.62999410987, 7867.210551167793, 0.022, 0.91, 0.466, 192.0, 0.0, 0.0, 0.0, 0.0, 0.0, 0.0, 0.0, 0.0, 0.0, 1.654609294906755E9, 0.0, 2022-06-07 15:41:34.906
160.0, 40065.16665997108, 13378.83780942414, -18640.103178036592, -20796.711241806894, -3078.5504673183523, -4503.407121110812, 16133.712665285191, 7859.521551075167, 0.022, 0.91, 0.466, 192.0, 0.0, 0.0, 0.0, 0.0, 0.0, 0.0, 0.0, 0.0, 0.0, 1.654609294906757E9, 0.0, 2022-06-07 15:41:34.906
161.0, 40106.33857325776, 13404.519963803288, -18606.955541009374, -20799.952244752916, -3056.5787025187856, -4552.5139036791215, 16137.355999631405, 7871.233865169748, 0.022, 0.91, 0.466, 192.0, 0.0, 0.0, 0.0, 0.0, 0.0, 0.0, 0.0, 0.0, 0.0, 1.654609294906761E9, 0.0, 2022-06-07 15:41:34.906
162.0, 40232.0447840744, 13432.906679261529, -18553.13254036099, -20773.912462462482, -3004.566193171286, -4559.062964804526, 16168.134351746363, 7887.841211300041, 0.022, 0.91, 0.466, 192.0, 0.0, 0.0, 0.0, 0.0, 0.0, 0.0, 0.0, 0.0, 0.0, 1.654609294906764E9, 0.0, 2022-06-07 15:41:34.906
163.0, 40275.608334017794, 13437.175862452492, -18551.076179871106, -20745.68220921543, -2987.109480751691, -4499.540269320044, 16190.01670956811, 7891.797470068631, 0.022, 0.91, 0.466, 192.0, 0.0, 0.0, 0.0, 0.0, 0.0, 0.0, 0.0, 0.0, 0.0, 1.654609294906771E9, 0.0, 2022-06-07 15:41:34.906
164.0, 40162.933190218595, 13396.160411377003, -18616.566791125155, -20773.30896536219, -3038.4514377655314, -4473.5675422629765, 16166.301508701028, 7868.663414557388, 0.022, 0.91, 0.466, 192.0, 0.0, 0.0, 0.0, 0.0, 0.0, 0.0, 0.0, 0.0, 0.0, 1.654609294906774E9, 0.0, 2022-06-07 15:41:34.906
165.0, 40046.01121497288, 13369.159504074993, -18653.156596798493, -20815.64316936054, -3087.8264412673047, -4524.596574854443, 16130.337551872439, 7847.585719536033, 0.022, 0.91, 0.466, 192.0, 0.0, 0.0, 0.0, 0.0, 0.0, 0.0, 0.0, 0.0, 0.0, 1.654609294906776E9, 0.0, 2022-06-07 15:41:34.906
166.0, 40082.55631715731, 13396.808611966208, -18614.935113779917, -20817.341901939144, -3065.631159023185, -4588.947247141272, 16125.107243669898, 7850.737315504231, 0.026000000000000002, 0.914, 0.462, 192.0, 0.0, 208.0, 28.0, 144.0, 14.0, 112.0, 0.0, 0.0, 0.0, 1.654609294966087E9, 0.0, 2022-06-07 15:41:34.966
167.0, 40216.59972865578, 13432.79492053925, -18557.87111018552, -20778.15929390899, -3006.399036216621, -4594.758700699652, 16152.24226143864, 7868.574007579567, 0.026000000000000002, 0.914, 0.462, 192.0, 0.0, 0.0, 0.0, 0.0, 0.0, 0.0, 0.0, 0.0, 0.0, 1.654609294966093E9, 0.0, 2022-06-07 15:41:34.966
168.0, 40265.550049012905, 13429.777435037784, -18562.475569543312, -20750.510186017775, -2990.7081116089958, -4538.208787227725, 16168.380220935373, 7872.08323145905, 0.026000000000000002, 0.914, 0.462, 192.0, 0.0, 0.0, 0.0, 0.0, 0.0, 0.0, 0.0, 0.0, 0.0, 1.654609294966095E9, 0.0, 2022-06-07 15:41:34.966
169.0, 40169.32578913281, 13398.954379433917, -18612.20820095637, -20765.82113096966, -3033.668164452096, -4501.931905976761, 16155.349153917929, 7863.053126699106, 0.026000000000000002, 0.914, 0.462, 192.0, 0.0, 0.0, 0.0, 0.0, 0.0, 0.0, 0.0, 0.0, 0.0, 1.654609294966098E9, 0.0, 2022-06-07 15:41:34.966
170.0, 40061.99271225843, 13383.196399592925, -18647.903936851497, -20799.505209863808, -3075.689444028073, -4534.811322070518, 16133.645610051824, 7853.88891147243, 0.026000000000000002, 0.914, 0.462, 192.0, 0.0, 0.0, 0.0, 0.0, 0.0, 0.0, 0.0, 0.0, 0.0, 1.6546092949661E9, 0.0, 2022-06-07 15:41:34.966
171.0, 40079.69529386703, 13396.383928821557, -18623.227610972837, -20808.959997768405, -3064.848847967249, -4592.411767531845, 16125.57663030346, 7854.201835894804, 0.026000000000000002, 0.914, 0.462, 192.0, 0.0, 0.0, 0.0, 0.0, 0.0, 0.0, 0.0, 0.0, 0.0, 1.654609294966113E9, 0.0, 2022-06-07 15:41:34.966
172.0, 40200.0370860144, 13420.009722710816, -18560.463912542335, -20785.3565556236, -3009.863556607194, -4600.3019333245675, 16150.543528860037, 7871.390327380936, 0.026000000000000002, 0.914, 0.462, 192.0, 0.0, 0.0, 0.0, 0.0, 0.0, 0.0, 0.0, 0.0, 0.0, 1.654609294966115E9, 0.0, 2022-06-07 15:41:34.966
173.0, 40253.14483084021, 13422.021379711794, -18568.510540546245, -20763.742418735317, -2982.5497248828087, -4533.4702174032, 16173.387011693361, 7879.638121084943, 0.026000000000000002, 0.914, 0.462, 192.0, 0.0, 0.0, 0.0, 0.0, 0.0, 0.0, 0.0, 0.0, 0.0, 1.654609294966117E9, 0.0, 2022-06-07 15:41:34.966
174.0, 40155.64652152616, 13392.047690397227, -18622.601762128088, -20782.137904422034, -3021.4864637239534, -4491.381882593856, 16166.480322656671, 7872.954949492807, 0.026000000000000002, 0.914, 0.462, 192.0, 0.0, 0.0, 0.0, 0.0, 0.0, 0.0, 0.0, 0.0, 0.0, 1.654609294966119E9, 0.0, 2022-06-07 15:41:34.966
175.0, 40039.28333989184, 13371.528788987254, -18652.106064809093, -20804.132020966055, -3064.8711997117043, -4519.500377118633, 16145.961421246699, 7865.131838933449, 0.026000000000000002, 0.914, 0.462, 192.0, 0.0, 0.0, 0.0, 0.0, 0.0, 0.0, 0.0, 0.0, 0.0, 1.654609294966121E9, 0.0, 2022-06-07 15:41:34.966
176.0, 40063.244409947925, 13385.02924263826, -18622.758224339275, -20810.792840813738, -3052.220112350001, -4569.322415509512, 16140.373485132872, 7869.691594802332, 0.03, 0.91, 0.46, 192.0, 0.0, 240.0, 28.0, 112.0, 14.0, 96.0, 0.0, 0.0, 0.0, 1.654609294966124E9, 0.0, 2022-06-07 15:41:34.966
177.0, 40190.470539387534, 13419.160356421515, -18573.226758626315, -20787.099991691113, -3006.1308152831575, -4573.993930100672, 16160.9147382873, 7880.867467029985, 0.03, 0.91, 0.46, 192.0, 0.0, 0.0, 0.0, 0.0, 0.0, 0.0, 0.0, 0.0, 0.0, 1.654609294966126E9, 0.0, 2022-06-07 15:41:34.966
178.0, 40240.09141207831, 13417.819251754196, -18579.932281962905, -20764.18945362442, -2993.993818043926, -4514.203013682725, 16172.62705238188, 7882.4320891418565, 0.03, 0.91, 0.46, 192.0, 0.0, 0.0, 0.0, 0.0, 0.0, 0.0, 0.0, 0.0, 0.0, 1.654609294966128E9, 0.0, 2022-06-07 15:41:34.966
179.0, 40154.3277686033, 13387.5102862728, -18629.64256163151, -20775.92411946346, -3033.958737130015, -4468.471344527166, 16168.000241279631, 7876.330062905558, 0.03, 0.91, 0.46, 192.0, 0.0, 0.0, 0.0, 0.0, 0.0, 0.0, 0.0, 0.0, 0.0, 1.65460929496613E9, 0.0, 2022-06-07 15:41:34.966
180.0, 40047.48643010693, 13366.365536018078, -18658.61042244559, -20808.557666368208, -3082.0373394533804, -4503.675342044276, 16142.049865967021, 7861.689670287332, 0.03, 0.91, 0.46, 192.0, 0.0, 0.0, 0.0, 0.0, 0.0, 0.0, 0.0, 0.0, 0.0, 1.654609294966133E9, 0.0, 2022-06-07 15:41:34.966
181.0, 40071.067520507284, 13384.090469371138, -18620.79127082721, -20805.204904699913, -3066.0334904233805, -4558.660633404331, 16134.629086807858, 7863.634272054944, 0.03, 0.91, 0.46, 192.0, 0.0, 0.0, 0.0, 0.0, 0.0, 0.0, 0.0, 0.0, 0.0, 1.654609295025744E9, 0.0, 2022-06-07 15:41:35.025
182.0, 40189.710580076055, 13420.322647133191, -18568.063505657137, -20775.991174696825, -3013.3504287422215, -4566.707261408242, 16159.10424698642, 7879.302844918114, 0.03, 0.91, 0.46, 192.0, 0.0, 0.0, 0.0, 0.0, 0.0, 0.0, 0.0, 0.0, 0.0, 1.654609295025751E9, 0.0, 2022-06-07 15:41:35.025
183.0, 40247.378080770744, 13424.32360939069, -18566.610642267544, -20755.58403200913, -2997.234820989945, -4511.4313973702665, 16172.783514593068, 7883.259103686703, 0.03, 0.91, 0.46, 192.0, 0.0, 0.0, 0.0, 0.0, 0.0, 0.0, 0.0, 0.0, 0.0, 1.654609295025753E9, 0.0, 2022-06-07 15:41:35.025
184.0, 40160.0274634394, 13393.075870642171, -18618.824317315142, -20765.932889691936, -3039.9937081329476, -4480.138955132837, 16155.751485318124, 7868.551655835111, 0.03, 0.91, 0.46, 192.0, 0.0, 0.0, 0.0, 0.0, 0.0, 0.0, 0.0, 0.0, 0.0, 1.654609295025755E9, 0.0, 2022-06-07 15:41:35.025
185.0, 40049.341624896726, 13370.880588398051, -18647.434550217935, -20794.721936550373, -3079.8692202412153, -4519.433321885267, 16129.197612905218, 7852.301937616103, 0.028, 0.914, 0.454, 192.0, 0.0, 224.0, 28.0, 144.0, 14.0, 48.0, 0.0, 0.0, 0.0, 1.654609295025758E9, 0.0, 2022-06-07 15:41:35.025
186.0, 40070.53107864036, 13386.660919983498, -18617.796137070196, -20812.156297225512, -3067.4863538129753, -4586.3320930400005, 16120.547487801015, 7847.675126513855, 0.028, 0.914, 0.454, 192.0, 0.0, 0.0, 0.0, 0.0, 0.0, 0.0, 0.0, 0.0, 0.0, 1.65460929502576E9, 0.0, 2022-06-07 15:41:35.025
187.0, 40198.785388324904, 13422.356655878622, -18569.605776024553, -20788.128171936056, -3010.154129285113, -4597.552668756565, 16155.103284728919, 7865.9365017338405, 0.028, 0.914, 0.454, 192.0, 0.0, 0.0, 0.0, 0.0, 0.0, 0.0, 0.0, 0.0, 0.0, 1.654609295025762E9, 0.0, 2022-06-07 15:41:35.025
188.0, 40247.33337728183, 13416.098167431137, -18579.775819751718, -20770.067962416168, -2997.525393667864, -4546.166008253814, 16172.58234889297, 7865.802391267109, 0.028, 0.914, 0.454, 192.0, 0.0, 0.0, 0.0, 0.0, 0.0, 0.0, 0.0, 0.0, 0.0, 1.654609295025765E9, 0.0, 2022-06-07 15:41:35.025
189.0, 40162.508507073944, 13394.752251476319, -18608.363700910057, -20781.199131154914, -3037.6467749651406, -4503.809452511007, 16159.05954349751, 7854.850036484008, 0.028, 0.914, 0.454, 192.0, 0.0, 0.0, 0.0, 0.0, 0.0, 0.0, 0.0, 0.0, 0.0, 1.654609295025767E9, 0.0, 2022-06-07 15:41:35.025
190.0, 40061.2551046914, 13384.246931582324, -18642.31600073767, -20810.83754430265, -3074.8400777387715, -4531.257394702125, 16133.019761207077, 7847.608071280489, 0.028, 0.914, 0.454, 192.0, 0.0, 0.0, 0.0, 0.0, 0.0, 0.0, 0.0, 0.0, 0.0, 1.654609295025769E9, 0.0, 2022-06-07 15:41:35.025
191.0, 40083.67390438008, 13396.160411377003, -18614.935113779917, -20819.621779873585, -3064.5806270337853, -4591.3835872869, 16125.57663030346, 7847.026925924651, 0.028, 0.914, 0.454, 192.0, 0.0, 0.0, 0.0, 0.0, 0.0, 0.0, 0.0, 0.0, 0.0, 1.654609295025772E9, 0.0, 2022-06-07 15:41:35.025
192.0, 40197.2878214464, 13420.836737255662, -18571.080991158604, -20791.79385802673, -3014.043332820336, -4602.805328703562, 16152.711648072202, 7861.890835987429, 0.028, 0.914, 0.454, 192.0, 0.0, 0.0, 0.0, 0.0, 0.0, 0.0, 0.0, 0.0, 0.0, 1.654609295025793E9, 0.0, 2022-06-07 15:41:35.025
193.0, 40250.5520284834, 13423.407187868022, -18563.324935832614, -20758.02037215476, -2988.3611784411883, -4535.481874404178, 16187.513314189115, 7877.827629784064, 0.028, 0.914, 0.454, 192.0, 0.0, 0.0, 0.0, 0.0, 0.0, 0.0, 0.0, 0.0, 0.0, 1.654609295025797E9, 0.0, 2022-06-07 15:41:35.025
194.0, 40161.86030648474, 13383.79989669322, -18612.565828867653, -20771.230253127844, -3032.662335951607, -4493.594705294932, 16165.072162755987, 7864.416583110879, 0.028, 0.914, 0.454, 192.0, 0.0, 0.0, 0.0, 0.0, 0.0, 0.0, 0.0, 0.0, 0.0, 1.654609295025801E9, 0.0, 2022-06-07 15:41:35.025
195.0, 40047.03939521783, 13357.447189980412, -18649.669724663465, -20809.339977424144, -3085.725377288506, -4530.5644906240095, 16118.692293011225, 7841.796617722109, 0.022, 0.916, 0.454, 192.0, 0.0, 176.0, 28.0, 160.0, 14.0, 48.0, 0.0, 0.0, 0.0, 1.654609295025804E9, 0.0, 2022-06-07 15:41:35.025
196.0, 40067.53594488334, 13378.79310593523, -18621.17125048295, -20820.337035696153, -3073.2307521379894, -4582.554648227054, 16116.233601121141, 7851.541978304623, 0.022, 0.916, 0.454, 192.0, 0.0, 0.0, 0.0, 0.0, 0.0, 0.0, 0.0, 0.0, 0.0, 1.654609295086087E9, 0.0, 2022-06-07 15:41:35.086
197.0, 40192.10221673277, 13420.3673506221, -18567.862339957042, -20781.780276510748, -3013.819815375783, -4585.19215407278, 16155.259746940106, 7879.526362362667, 0.022, 0.916, 0.454, 192.0, 0.0, 0.0, 0.0, 0.0, 0.0, 0.0, 0.0, 0.0, 0.0, 1.654609295086104E9, 0.0, 2022-06-07 15:41:35.086
198.0, 40251.088470350325, 13427.452853614433, -18560.75448522025, -20741.77065393575, -2987.8470883187165, -4517.622830584387, 16180.494866430148, 7890.366958423491, 0.022, 0.916, 0.454, 192.0, 0.0, 0.0, 0.0, 0.0, 0.0, 0.0, 0.0, 0.0, 0.0, 1.654609295086108E9, 0.0, 2022-06-07 15:41:35.086
199.0, 40164.72132977502, 13397.546219533233, -18608.900142776984, -20753.72883721934, -3029.5107399834087, -4472.740527718131, 16163.194616221741, 7878.945217006829, 0.022, 0.916, 0.454, 192.0, 0.0, 0.0, 0.0, 0.0, 0.0, 0.0, 0.0, 0.0, 0.0, 1.654609295086111E9, 0.0, 2022-06-07 15:41:35.086
200.0, 40046.59236032872, 13366.164370317982, -18649.580317685643, -20794.65488131701, -3082.797298764861, -4507.452786857222, 16124.548450058515, 7856.3699551069685, 0.022, 0.916, 0.454, 192.0, 0.0, 0.0, 0.0, 0.0, 0.0, 0.0, 0.0, 0.0, 0.0, 1.654609295086115E9, 0.0, 2022-06-07 15:41:35.086
201.0, 40074.33087519775, 13386.258588583301, -18620.321884193647, -20803.148544210024, -3068.246313124456, -4565.008528829638, 16123.564973302482, 7862.896664487918, 0.022, 0.916, 0.454, 192.0, 0.0, 0.0, 0.0, 0.0, 0.0, 0.0, 0.0, 0.0, 0.0, 1.654609295086117E9, 0.0, 2022-06-07 15:41:35.086
202.0, 40187.81068179735, 13412.27601912928, -18577.20536913936, -20783.411953855986, -3021.531167212864, -4579.850087147962, 16148.643630581337, 7873.93842624884, 0.022, 0.916, 0.454, 192.0, 0.0, 0.0, 0.0, 0.0, 0.0, 0.0, 0.0, 0.0, 0.0, 1.65460929508612E9, 0.0, 2022-06-07 15:41:35.086
203.0, 40254.17301108516, 13414.645304041542, -18567.95174693486, -20754.689962230917, -2994.4408529330317, -4515.745284050141, 16171.017726781098, 7883.862600786996, 0.022, 0.916, 0.454, 192.0, 0.0, 0.0, 0.0, 0.0, 0.0, 0.0, 0.0, 0.0, 0.0, 1.654609295086122E9, 0.0, 2022-06-07 15:41:35.086
204.0, 40173.12558569021, 13382.682309470452, -18618.86902080405, -20770.87262521656, -3028.12493182718, -4480.0271964105605, 16161.697049343235, 7871.904417503407, 0.022, 0.916, 0.454, 192.0, 0.0, 0.0, 0.0, 0.0, 0.0, 0.0, 0.0, 0.0, 0.0, 1.654609295086124E9, 0.0, 2022-06-07 15:41:35.086
205.0, 40056.6059418447, 13365.382059262045, -18656.621117189065, -20800.689852319938, -3068.916865458115, -4510.22440316968, 16136.014894964088, 7860.862655742486, 0.028, 0.914, 0.46, 192.0, 0.0, 224.0, 28.0, 144.0, 14.0, 96.0, 0.0, 0.0, 0.0, 1.654609295086126E9, 0.0, 2022-06-07 15:41:35.086
206.0, 40064.8090320598, 13390.997158407827, -18604.96623575285, -20804.73551806635, -3051.370746060699, -4566.394336985867, 16144.396799134827, 7873.022004726173, 0.028, 0.914, 0.46, 192.0, 0.0, 0.0, 0.0, 0.0, 0.0, 0.0, 0.0, 0.0, 0.0, 1.654609295086129E9, 0.0, 2022-06-07 15:41:35.086
207.0, 40190.93992602109, 13415.919353475494, -18557.021743896217, -20782.67434628896, -3004.6779518935623, -4586.823831418018, 16163.351078432928, 7881.917999019385, 0.028, 0.914, 0.46, 192.0, 0.0, 0.0, 0.0, 0.0, 0.0, 0.0, 0.0, 0.0, 0.0, 1.654609295086131E9, 0.0, 2022-06-07 15:41:35.086
208.0, 40246.618121459265, 13414.533545319266, -18558.54166251918, -20758.310944832676, -2989.8140418307835, -4537.359420938423, 16175.018689038598, 7878.744051306731, 0.028, 0.914, 0.46, 192.0, 0.0, 0.0, 0.0, 0.0, 0.0, 0.0, 0.0, 0.0, 0.0, 1.654609295086133E9, 0.0, 2022-06-07 15:41:35.086
209.0, 40159.289855872375, 13382.950530403916, -18613.437546901412, -20777.77931425325, -3033.332888285266, -4505.08350194496, 16159.014840008598, 7858.806295252597, 0.028, 0.914, 0.46, 192.0, 0.0, 0.0, 0.0, 0.0, 0.0, 0.0, 0.0, 0.0, 0.0, 1.654609295086136E9, 0.0, 2022-06-07 15:41:35.086
210.0, 40054.97426449946, 13367.55017847421, -18640.50550943679, -20803.93085526596, -3070.0568044253355, -4531.547967380044, 16146.229642180162, 7857.17461790736, 0.028, 0.914, 0.46, 192.0, 0.0, 0.0, 0.0, 0.0, 0.0, 0.0, 0.0, 0.0, 0.0, 1.65460929508614E9, 0.0, 2022-06-07 15:41:35.086
211.0, 40077.52717465487, 13389.074908384671, -18598.864209516552, -20789.893959748028, -3048.532074514875, -4581.86174414894, 16147.034304980554, 7867.612882567988, 0.028, 0.914, 0.46, 192.0, 0.0, 0.0, 0.0, 0.0, 0.0, 0.0, 0.0, 0.0, 0.0, 1.654609295146369E9, 0.0, 2022-06-07 15:41:35.146
212.0, 40195.14205397869, 13427.922240247994, -18547.164624591427, -20762.848348957104, -2998.374759957166, -4592.881154165406, 16162.524063888082, 7878.811106540097, 0.028, 0.914, 0.46, 192.0, 0.0, 0.0, 0.0, 0.0, 0.0, 0.0, 0.0, 0.0, 0.0, 1.654609295146374E9, 0.0, 2022-06-07 15:41:35.146
213.0, 40255.87174366376, 13434.918336262506, -18547.63401122499, -20735.109834088067, -2982.728538838451, -4534.565452881509, 16185.501657188137, 7882.007405997206, 0.028, 0.914, 0.46, 192.0, 0.0, 0.0, 0.0, 0.0, 0.0, 0.0, 0.0, 0.0, 0.0, 1.654609295146376E9, 0.0, 2022-06-07 15:41:35.146
214.0, 40165.99537920897, 13392.762946219797, -18610.800041055685, -20756.701619231895, -3031.142417328646, -4500.188469909247, 16164.066334255498, 7861.868484242975, 0.028, 0.914, 0.46, 192.0, 0.0, 0.0, 0.0, 0.0, 0.0, 0.0, 0.0, 0.0, 0.0, 1.654609295146387E9, 0.0, 2022-06-07 15:41:35.146
215.0, 40057.79058430083, 13369.941815130927, -18637.5997826576, -20784.909520734494, -3074.75067076095, -4519.969763752194, 16137.735979287147, 7858.493370830223, 0.03, 0.912, 0.462, 192.0, 0.0, 240.0, 28.0, 128.0, 14.0, 112.0, 0.0, 0.0, 0.0, 1.65460929514639E9, 0.0, 2022-06-07 15:41:35.146
216.0, 40081.43872993455, 13393.12057413108, -18603.35691015207, -20787.4576196024, -3059.305615342333, -4564.114459051426, 16137.981848476154, 7868.641062812932, 0.03, 0.912, 0.462, 192.0, 0.0, 0.0, 0.0, 0.0, 0.0, 0.0, 0.0, 0.0, 0.0, 1.654609295146401E9, 0.0, 2022-06-07 15:41:35.146
217.0, 40193.30921093335, 13431.856147272129, -18557.736999718785, -20762.133093134536, -3012.2551932639117, -4572.317549266523, 16158.903081286322, 7883.013234497695, 0.03, 0.912, 0.462, 192.0, 0.0, 0.0, 0.0, 0.0, 0.0, 0.0, 0.0, 0.0, 0.0, 1.654609295146404E9, 0.0, 2022-06-07 15:41:35.146
218.0, 40243.84650514681, 13434.806577540228, -18558.184034607893, -20739.20020332339, -2993.859707577194, -4518.338086406957, 16174.750468105134, 7885.427222898868, 0.03, 0.912, 0.462, 192.0, 0.0, 0.0, 0.0, 0.0, 0.0, 0.0, 0.0, 0.0, 0.0, 1.654609295146407E9, 0.0, 2022-06-07 15:41:35.146
219.0, 40148.181038878094, 13390.348957818624, -18618.01965451475, -20764.01063966878, -3042.474751767487, -4484.69871100172, 16151.303488171518, 7861.443801098323, 0.03, 0.912, 0.462, 192.0, 0.0, 0.0, 0.0, 0.0, 0.0, 0.0, 0.0, 0.0, 0.0, 1.654609295146411E9, 0.0, 2022-06-07 15:41:35.146
220.0, 40044.51364809438, 13369.338318030635, -18644.17119552746, -20792.911445249494, -3081.187973164079, -4507.162214179303, 16128.124729171364, 7854.537112061634, 0.03, 0.912, 0.462, 192.0, 0.0, 0.0, 0.0, 0.0, 0.0, 0.0, 0.0, 0.0, 0.0, 1.654609295146415E9, 0.0, 2022-06-07 15:41:35.146
221.0, 40068.67588385056, 13390.79599270773, -18610.755337566774, -20802.746212809827, -3061.3843275766767, -4557.721860137208, 16129.04115069403, 7864.371879621969, 0.03, 0.912, 0.462, 192.0, 0.0, 0.0, 0.0, 0.0, 0.0, 0.0, 0.0, 0.0, 0.0, 1.654609295146417E9, 0.0, 2022-06-07 15:41:35.146
222.0, 40192.14692022168, 13423.541298334754, -18560.307450331147, -20763.78712222423, -3003.8732890931715, -4567.780145142096, 16157.71843883019, 7882.32033041958, 0.03, 0.912, 0.462, 192.0, 0.0, 0.0, 0.0, 0.0, 0.0, 0.0, 0.0, 0.0, 0.0, 1.65460929514642E9, 0.0, 2022-06-07 15:41:35.146
223.0, 40250.37321452775, 13427.721074547897, -18569.069334157626, -20738.999037623293, -2981.499192893409, -4518.1816241957695, 16180.763087363612, 7883.639083342444, 0.03, 0.912, 0.462, 192.0, 0.0, 0.0, 0.0, 0.0, 0.0, 0.0, 0.0, 0.0, 0.0, 1.654609295146422E9, 0.0, 2022-06-07 15:41:35.146
224.0, 40167.15766992065, 13397.993254422337, -18609.615398599555, -20755.516976775765, -3023.296955024833, -4479.133126632349, 16174.526950660582, 7872.642025070432, 0.03, 0.912, 0.462, 192.0, 0.0, 0.0, 0.0, 0.0, 0.0, 0.0, 0.0, 0.0, 0.0, 1.654609295146424E9, 0.0, 2022-06-07 15:41:35.146
225.0, 40059.51166862389, 13372.512265743288, -18631.430701187935, -20789.178703925456, -3063.8653712112155, -4506.469310101189, 16152.331668416462, 7863.142533676927, 0.022, 0.91, 0.462, 192.0, 0.0, 176.0, 28.0, 112.0, 14.0, 112.0, 0.0, 0.0, 0.0, 1.654609295146427E9, 0.0, 2022-06-07 15:41:35.146
226.0, 40065.43488090454, 13387.778507206263, -18614.510430635266, -20803.573227354675, -3056.7351647299724, -4567.981310842194, 16132.170394917775, 7856.41465859588, 0.022, 0.91, 0.462, 192.0, 0.0, 0.0, 0.0, 0.0, 0.0, 0.0, 0.0, 0.0, 0.0, 1.654609295206638E9, 0.0, 2022-06-07 15:41:35.206
227.0, 40177.23830666999, 13412.007798195817, -18576.356002850058, -20792.01737547128, -3021.6429259351407, -4599.787843202096, 16133.913830985288, 7853.240710883226, 0.022, 0.91, 0.462, 192.0, 0.0, 0.0, 0.0, 0.0, 0.0, 0.0, 0.0, 0.0, 0.0, 1.654609295206657E9, 0.0, 2022-06-07 15:41:35.206
228.0, 40252.764851184475, 13420.412054111011, -18573.651441770966, -20773.465427573377, -3007.047236805825, -4552.916235079317, 16145.38027589086, 7851.273757371159, 0.022, 0.91, 0.462, 192.0, 0.0, 0.0, 0.0, 0.0, 0.0, 0.0, 0.0, 0.0, 0.0, 1.654609295206659E9, 0.0, 2022-06-07 15:41:35.206
229.0, 40172.72325429002, 13395.579266021165, -18622.177078983437, -20784.35072712311, -3043.122952356691, -4512.951315993228, 16138.987676976643, 7841.729562488743, 0.022, 0.91, 0.462, 192.0, 0.0, 0.0, 0.0, 0.0, 0.0, 0.0, 0.0, 0.0, 0.0, 1.654609295206662E9, 0.0, 2022-06-07 15:41:35.206
230.0, 40039.57391256975, 13362.901015627505, -18650.899070608506, -20808.334148923655, -3081.4785458419974, -4529.290441190057, 16125.800147748012, 7841.88602469993, 0.022, 0.91, 0.462, 192.0, 0.0, 0.0, 0.0, 0.0, 0.0, 0.0, 0.0, 0.0, 0.0, 1.654609295206666E9, 0.0, 2022-06-07 15:41:35.206
231.0, 40048.268741162865, 13376.155600089503, -18625.172212740446, -20811.418689658487, -3069.162734647123, -4581.90644763785, 16128.392950104828, 7849.597376537011, 0.022, 0.91, 0.462, 192.0, 0.0, 0.0, 0.0, 0.0, 0.0, 0.0, 0.0, 0.0, 0.0, 1.65460929520667E9, 0.0, 2022-06-07 15:41:35.206
232.0, 40171.82918451181, 13421.775510522784, -18577.093610417083, -20785.53536957924, -3016.12204505468, -4596.211564089246, 16151.191729449241, 7865.333004633547, 0.022, 0.91, 0.462, 192.0, 0.0, 0.0, 0.0, 0.0, 0.0, 0.0, 0.0, 0.0, 0.0, 1.654609295206672E9, 0.0, 2022-06-07 15:41:35.206
233.0, 40239.64437718921, 13432.437292627967, -18572.310337103645, -20756.25458434279, -2996.7207308674733, -4536.711220349219, 16171.956500048222, 7872.686728559343, 0.022, 0.91, 0.462, 192.0, 0.0, 0.0, 0.0, 0.0, 0.0, 0.0, 0.0, 0.0, 0.0, 1.654609295206675E9, 0.0, 2022-06-07 15:41:35.206
234.0, 40167.91762923213, 13401.681292257465, -18621.059491760672, -20762.647183257006, -3035.6798214530736, -4487.582086036455, 16166.972061034689, 7870.093926202528, 0.022, 0.91, 0.462, 192.0, 0.0, 0.0, 0.0, 0.0, 0.0, 0.0, 0.0, 0.0, 0.0, 1.654609295206677E9, 0.0, 2022-06-07 15:41:35.206
235.0, 40058.52819186785, 13379.88834141354, -18654.36359099908, -20800.913369764494, -3076.4494033395536, -4510.269106658591, 16135.769025775078, 7858.962757463784, 0.022, 0.91, 0.458, 192.0, 0.0, 176.0, 28.0, 112.0, 14.0, 80.0, 0.0, 0.0, 0.0, 1.654609295206689E9, 0.0, 2022-06-07 15:41:35.206
236.0, 40068.273552450366, 13393.344091575635, -18632.324770966145, -20802.410936643, -3065.7429177454615, -4571.021148088115, 16130.47166233917, 7859.230978397248, 0.022, 0.91, 0.458, 192.0, 0.0, 0.0, 0.0, 0.0, 0.0, 0.0, 0.0, 0.0, 0.0, 1.654609295206692E9, 0.0, 2022-06-07 15:41:35.206
237.0, 40187.676571330616, 13423.675408801486, -18588.515351833743, -20785.44596260142, -3019.8994898676265, -4592.4341192762995, 16156.220871951686, 7870.138629691438, 0.022, 0.91, 0.458, 192.0, 0.0, 0.0, 0.0, 0.0, 0.0, 0.0, 0.0, 0.0, 0.0, 1.654609295206694E9, 0.0, 2022-06-07 15:41:35.206
238.0, 40251.289636050424, 13429.732731548875, -18576.557168550156, -20755.96401166487, -2996.251344233912, -4535.034839515071, 16176.717421617202, 7875.36893789398, 0.022, 0.91, 0.458, 192.0, 0.0, 0.0, 0.0, 0.0, 0.0, 0.0, 0.0, 0.0, 0.0, 1.654609295206696E9, 0.0, 2022-06-07 15:41:35.206
239.0, 40170.91276298914, 13398.596751522631, -18622.132375494526, -20766.87166295906, -3036.8644639092045, -4491.1807168937585, 16161.853511554422, 7859.454495841801, 0.022, 0.91, 0.458, 192.0, 0.0, 0.0, 0.0, 0.0, 0.0, 0.0, 0.0, 0.0, 0.0, 1.654609295206699E9, 0.0, 2022-06-07 15:41:35.206
240.0, 40057.924694767564, 13371.417030264978, -18658.476311978855, -20802.232122687357, -3086.977074978003, -4518.248679429135, 16126.627162292858, 7846.378725335447, 0.022, 0.91, 0.458, 192.0, 0.0, 0.0, 0.0, 0.0, 0.0, 0.0, 0.0, 0.0, 0.0, 1.654609295206701E9, 0.0, 2022-06-07 15:41:35.206
241.0, 40068.49706989492, 13389.298425829224, -18636.079864034637, -20804.154372710513, -3074.1918771495675, -4569.635339931887, 16119.228734878152, 7855.207664395293, 0.022, 0.91, 0.458, 192.0, 0.0, 0.0, 0.0, 0.0, 0.0, 0.0, 0.0, 0.0, 0.0, 1.654609295266096E9, 0.0, 2022-06-07 15:41:35.266
242.0, 40184.05558872886, 13434.963039751416, -18559.458084041846, -20768.391581582022, -3017.172577044079, -4579.447755747767, 16143.52508110107, 7874.184295437849, 0.022, 0.91, 0.458, 192.0, 0.0, 0.0, 0.0, 0.0, 0.0, 0.0, 0.0, 0.0, 0.0, 1.654609295266117E9, 0.0, 2022-06-07 15:41:35.266
243.0, 40244.18178131364, 13441.109769476625, -18552.372581049513, -20741.793005680207, -2992.608009887697, -4526.787045811063, 16161.853511554422, 7876.665339072388, 0.022, 0.91, 0.458, 192.0, 0.0, 0.0, 0.0, 0.0, 0.0, 0.0, 0.0, 0.0, 0.0, 1.65460929526612E9, 0.0, 2022-06-07 15:41:35.266
244.0, 40161.41327159563, 13394.975768920873, -18608.542514865698, -20758.936793677425, -3033.534053985364, -4491.895972716328, 16148.375409647871, 7858.649833041411, 0.022, 0.91, 0.458, 192.0, 0.0, 0.0, 0.0, 0.0, 0.0, 0.0, 0.0, 0.0, 0.0, 1.654609295266122E9, 0.0, 2022-06-07 15:41:35.266
245.0, 40044.37953762765, 13373.428687265956, -18649.021524074262, -20796.599483084618, -3083.2890371428775, -4527.122321977892, 16119.09462441142, 7842.2213008667595, 0.024, 0.914, 0.462, 192.0, 0.0, 192.0, 28.0, 144.0, 14.0, 112.0, 0.0, 0.0, 0.0, 1.654609295266124E9, 0.0, 2022-06-07 15:41:35.266
246.0, 40060.226924446455, 13402.50830680231, -18618.198468470393, -20800.868666275583, -3068.201609635545, -4579.4030522588555, 16119.586362789436, 7851.229053882248, 0.024, 0.914, 0.462, 192.0, 0.0, 0.0, 0.0, 0.0, 0.0, 0.0, 0.0, 0.0, 0.0, 1.654609295266126E9, 0.0, 2022-06-07 15:41:35.266
247.0, 40188.41417889764, 13437.891118275062, -18561.492092787277, -20773.86775897357, -3014.5797746872636, -4596.569192000531, 16150.38706664885, 7868.015213968184, 0.024, 0.914, 0.462, 192.0, 0.0, 0.0, 0.0, 0.0, 0.0, 0.0, 0.0, 0.0, 0.0, 1.654609295266129E9, 0.0, 2022-06-07 15:41:35.266
248.0, 40261.996121644515, 13446.56359512372, -18549.980944392795, -20750.10785461758, -2986.6177423736744, -4548.244720488157, 16171.420058181295, 7872.2173419257815, 0.024, 0.914, 0.462, 192.0, 0.0, 0.0, 0.0, 0.0, 0.0, 0.0, 0.0, 0.0, 0.0, 1.654609295266131E9, 0.0, 2022-06-07 15:41:35.266
249.0, 40191.878699288216, 13416.612257553608, -18593.164514680448, -20743.894069659003, -3015.8985276101266, -4492.857097727907, 16159.998316764631, 7866.428240111857, 0.024, 0.914, 0.462, 192.0, 0.0, 0.0, 0.0, 0.0, 0.0, 0.0, 0.0, 0.0, 0.0, 1.654609295266133E9, 0.0, 2022-06-07 15:41:35.266
250.0, 40068.72058733947, 13381.050632125216, -18642.897146093506, -20787.01058471329, -3076.8070312508385, -4525.758865566118, 16121.061577923487, 7842.824797967053, 0.024, 0.914, 0.462, 192.0, 0.0, 0.0, 0.0, 0.0, 0.0, 0.0, 0.0, 0.0, 0.0, 1.654609295266135E9, 0.0, 2022-06-07 15:41:35.266
251.0, 40067.64770360562, 13396.272170099279, -18620.83597431612, -20802.477991876363, -3072.7390137599723, -4586.376796528912, 16125.040188436531, 7846.60224278, 0.024, 0.914, 0.462, 192.0, 0.0, 0.0, 0.0, 0.0, 0.0, 0.0, 0.0, 0.0, 0.0, 1.654609295266137E9, 0.0, 2022-06-07 15:41:35.266
252.0, 40182.42391138362, 13438.271097930801, -18560.19569160887, -20771.34201185012, -3014.9597543430036, -4598.379683301411, 16152.219909694186, 7864.930673233352, 0.024, 0.914, 0.462, 192.0, 0.0, 0.0, 0.0, 0.0, 0.0, 0.0, 0.0, 0.0, 0.0, 1.65460929526614E9, 0.0, 2022-06-07 15:41:35.266
253.0, 40247.176915070646, 13444.373124167101, -18558.25108984126, -20743.089406858613, -2986.3942249291213, -4546.948319309749, 16168.62609012438, 7866.204722667304, 0.024, 0.914, 0.462, 192.0, 0.0, 0.0, 0.0, 0.0, 0.0, 0.0, 0.0, 0.0, 0.0, 1.654609295266142E9, 0.0, 2022-06-07 15:41:35.266
254.0, 40183.42973988411, 13423.384836123567, -18598.305415905168, -20741.837709169115, -3015.2726787653783, -4493.4605948282, 16166.301508701028, 7866.070612200572, 0.024, 0.914, 0.462, 192.0, 0.0, 0.0, 0.0, 0.0, 0.0, 0.0, 0.0, 0.0, 0.0, 1.654609295266144E9, 0.0, 2022-06-07 15:41:35.266
255.0, 40071.69336935203, 13396.473335799377, -18632.145957010503, -20770.224424627355, -3060.423202565098, -4514.292420660547, 16139.613525821393, 7857.800466752108, 0.02, 0.912, 0.462, 192.0, 0.0, 160.0, 28.0, 128.0, 14.0, 112.0, 0.0, 0.0, 0.0, 1.654609295266146E9, 0.0, 2022-06-07 15:41:35.266
0.0, 40077.59422988823, 13412.633647040564, -18605.837953786606, -20775.58884329663, -3058.411545564121, -4568.316587009023, 16129.555240816504, 7862.136705176438, 0.02, 0.912, 0.462, 192.0, 0.0, 0.0, 0.0, 0.0, 0.0, 0.0, 0.0, 0.0, 0.0, 1.654609295325865E9, 0.0, 2022-06-07 15:41:35.325
1.0, 40193.33156267781, 13444.641345100565, -18553.177243849903, -20747.984438894324, -3005.8402426052385, -4579.291293536579, 16161.562938876503, 7882.007405997206, 0.02, 0.912, 0.462, 192.0, 0.0, 0.0, 0.0, 0.0, 0.0, 0.0, 0.0, 0.0, 0.0, 1.65460929532587E9, 0.0, 2022-06-07 15:41:35.325
2.0, 40262.1525838557, 13447.27885094629, -18554.38423805049, -20727.510240973264, -2981.476841148954, -4527.971688267194, 16170.570691891991, 7879.302844918114, 0.02, 0.912, 0.462, 192.0, 0.0, 0.0, 0.0, 0.0, 0.0, 0.0, 0.0, 0.0, 0.0, 1.654609295325873E9, 0.0, 2022-06-07 15:41:35.325
3.0, 40188.660048086655, 13424.189498923959, -18615.06922424665, -20744.184642336924, -3020.212414290001, -4484.5422487905325, 16148.330706158962, 7863.142533676927, 0.02, 0.912, 0.462, 192.0, 0.0, 0.0, 0.0, 0.0, 0.0, 0.0, 0.0, 0.0, 0.0, 1.654609295325875E9, 0.0, 2022-06-07 15:41:35.325
4.0, 40063.3561686702, 13394.327568331668, -18634.045855289205, -20782.92021547797, -3074.2589323829334, -4506.804586268018, 16132.483319340148, 7851.69844051581, 0.02, 0.912, 0.462, 192.0, 0.0, 0.0, 0.0, 0.0, 0.0, 0.0, 0.0, 0.0, 0.0, 1.654609295325877E9, 0.0, 2022-06-07 15:41:35.325
5.0, 40069.59230537323, 13392.002986908316, -18612.990512012304, -20805.607236100106, -3070.5485428033526, -4567.489572464177, 16133.980886218655, 7852.368992849469, 0.02, 0.912, 0.462, 192.0, 0.0, 0.0, 0.0, 0.0, 0.0, 0.0, 0.0, 0.0, 0.0, 1.65460929532588E9, 0.0, 2022-06-07 15:41:35.325
6.0, 40192.10221673277, 13434.292487417757, -18557.62524099651, -20778.87454973156, -3015.719713654484, -4591.182421586803, 16154.119807972886, 7865.310652889091, 0.02, 0.912, 0.462, 192.0, 0.0, 0.0, 0.0, 0.0, 0.0, 0.0, 0.0, 0.0, 0.0, 1.654609295325882E9, 0.0, 2022-06-07 15:41:35.325
7.0, 40264.924200168156, 13453.4255806715, -18544.415360023424, -20730.81829915265, -2972.82671604475, -4532.084409246971, 16180.897197830343, 7877.89468501743, 0.02, 0.912, 0.462, 192.0, 0.0, 0.0, 0.0, 0.0, 0.0, 0.0, 0.0, 0.0, 0.0, 1.654609295325884E9, 0.0, 2022-06-07 15:41:35.325
8.0, 40185.82137654083, 13410.84550748414, -18601.524067106733, -20753.86294768607, -3019.4971584674313, -4494.4664233286885, 16159.685392342257, 7857.040507440628, 0.02, 0.912, 0.462, 192.0, 0.0, 0.0, 0.0, 0.0, 0.0, 0.0, 0.0, 0.0, 0.0, 1.654609295325887E9, 0.0, 2022-06-07 15:41:35.325
9.0, 40062.819726803275, 13380.424783280467, -18647.099274051103, -20795.750116795316, -3071.5543713038414, -4528.843406300951, 16123.944952958222, 7835.806350208087, 0.012, 0.912, 0.468, 192.0, 0.0, 96.0, 28.0, 128.0, 14.0, 160.0, 0.0, 0.0, 0.0, 1.654609295325889E9, 0.0, 2022-06-07 15:41:35.325
10.0, 40065.52428788236, 13402.038920168749, -18622.914686550463, -20802.723861065373, -3067.8663334687158, -4585.125098839414, 16115.741862743123, 7839.31557408757, 0.012, 0.912, 0.468, 192.0, 0.0, 0.0, 0.0, 0.0, 0.0, 0.0, 0.0, 0.0, 0.0, 1.654609295325891E9, 0.0, 2022-06-07 15:41:35.325
11.0, 40193.130396977715, 13437.399379897044, -18569.96340393584, -20774.69477351842, -3014.468015964987, -4602.1794798588135, 16139.09943569892, 7856.794638251619, 0.012, 0.912, 0.468, 192.0, 0.0, 0.0, 0.0, 0.0, 0.0, 0.0, 0.0, 0.0, 0.0, 1.654609295325894E9, 0.0, 2022-06-07 15:41:35.325
12.0, 40264.700682723604, 13441.735618321374, -18559.592194508576, -20742.664723713962, -2986.014245273381, -4551.418668200811, 16157.740790574646, 7863.678975543854, 0.012, 0.912, 0.468, 192.0, 0.0, 0.0, 0.0, 0.0, 0.0, 0.0, 0.0, 0.0, 0.0, 1.654609295325896E9, 0.0, 2022-06-07 15:41:35.325
13.0, 40186.89426027468, 13407.246876626836, -18613.81752655715, -20754.53350001973, -3028.8625393942048, -4510.22440316968, 16139.837043265945, 7845.730524746243, 0.012, 0.912, 0.468, 192.0, 0.0, 0.0, 0.0, 0.0, 0.0, 0.0, 0.0, 0.0, 0.0, 1.654609295325898E9, 0.0, 2022-06-07 15:41:35.325
14.0, 40073.660322864096, 13388.31494907319, -18647.412198473477, -20786.317680635177, -3074.102470171746, -4534.140769736859, 16123.609676791391, 7837.5274345311445, 0.012, 0.912, 0.468, 192.0, 0.0, 0.0, 0.0, 0.0, 0.0, 0.0, 0.0, 0.0, 0.0, 1.654609295325901E9, 0.0, 2022-06-07 15:41:35.325
15.0, 40079.13650025565, 13417.126347676081, -18617.594971370097, -20787.43526785794, -3064.4241648225984, -4582.040558104582, 16127.141252415331, 7851.340812604525, 0.012, 0.912, 0.468, 192.0, 0.0, 0.0, 0.0, 0.0, 0.0, 0.0, 0.0, 0.0, 0.0, 1.654609295386108E9, 0.0, 2022-06-07 15:41:35.386
16.0, 40186.11194921875, 13443.367295666612, -18565.269537600227, -20767.095180403612, -3015.2726787653783, -4604.258192093157, 16151.102322471419, 7865.780039522653, 0.012, 0.912, 0.468, 192.0, 0.0, 0.0, 0.0, 0.0, 0.0, 0.0, 0.0, 0.0, 0.0, 1.654609295386117E9, 0.0, 2022-06-07 15:41:35.386
17.0, 40259.604484987794, 13443.344943922157, -18552.5290432607, -20739.71429344586, -2985.6789691065514, -4554.078525790993, 16172.470590170693, 7870.295091902625, 0.012, 0.912, 0.468, 192.0, 0.0, 0.0, 0.0, 0.0, 0.0, 0.0, 0.0, 0.0, 0.0, 1.65460929538612E9, 0.0, 2022-06-07 15:41:35.386
18.0, 40184.390864895686, 13410.912562717505, -18597.858381016064, -20748.654991227984, -3020.1230073121797, -4500.702560031719, 16162.300546443528, 7860.750897020209, 0.018000000000000002, 0.91, 0.464, 192.0, 0.0, 144.0, 28.0, 112.0, 14.0, 128.0, 0.0, 0.0, 0.0, 1.654609295386124E9, 0.0, 2022-06-07 15:41:35.386
19.0, 40058.99757850142, 13385.74449846083, -18641.77955887074, -20793.850218516614, -3067.553409046341, -4521.400275397334, 16136.57368857547, 7849.329155603547, 0.018000000000000002, 0.91, 0.464, 192.0, 0.0, 0.0, 0.0, 0.0, 0.0, 0.0, 0.0, 0.0, 0.0, 1.654609295386127E9, 0.0, 2022-06-07 15:41:35.386
20.0, 40063.9596657705, 13409.07971967217, -18623.339369695113, -20782.69669803342, -3056.2210746075007, -4566.796668386062, 16130.561069316993, 7858.918053974874, 0.018000000000000002, 0.91, 0.464, 192.0, 0.0, 0.0, 0.0, 0.0, 0.0, 0.0, 0.0, 0.0, 0.0, 1.654609295386129E9, 0.0, 2022-06-07 15:41:35.386
21.0, 40181.14986194967, 13430.962077493916, -18572.846778970576, -20760.233194855835, -3011.495233952431, -4586.823831418018, 16150.00708699311, 7871.524437847667, 0.018000000000000002, 0.91, 0.464, 192.0, 0.0, 0.0, 0.0, 0.0, 0.0, 0.0, 0.0, 0.0, 0.0, 1.654609295386131E9, 0.0, 2022-06-07 15:41:35.386
22.0, 40255.73763319703, 13430.85031877164, -18549.980944392795, -20738.14967133399, -2988.092957507725, -4537.068848260504, 16172.448238426237, 7873.89372275993, 0.018000000000000002, 0.91, 0.464, 192.0, 0.0, 0.0, 0.0, 0.0, 0.0, 0.0, 0.0, 0.0, 0.0, 1.654609295386142E9, 0.0, 2022-06-07 15:41:35.386
23.0, 40175.3831118802, 13399.22260036738, -18610.35300616658, -20749.750226706296, -3027.9237661270818, -4494.779347751063, 16154.790360306546, 7856.884045229441, 0.018000000000000002, 0.91, 0.464, 192.0, 0.0, 0.0, 0.0, 0.0, 0.0, 0.0, 0.0, 0.0, 0.0, 1.654609295386144E9, 0.0, 2022-06-07 15:41:35.386
24.0, 40059.1540407126, 13378.03314662375, -18646.540480439722, -20781.623814299564, -3074.4153945941207, -4511.409045625812, 16125.688389025736, 7843.9870886787285, 0.018000000000000002, 0.91, 0.464, 192.0, 0.0, 0.0, 0.0, 0.0, 0.0, 0.0, 0.0, 0.0, 0.0, 1.654609295386146E9, 0.0, 2022-06-07 15:41:35.386
25.0, 40068.206497217005, 13402.195382379936, -18614.890410291006, -20787.055288202202, -3063.1054118997354, -4563.66742416232, 16121.128633156854, 7852.681917271843, 0.018000000000000002, 0.91, 0.464, 192.0, 0.0, 0.0, 0.0, 0.0, 0.0, 0.0, 0.0, 0.0, 0.0, 1.654609295386149E9, 0.0, 2022-06-07 15:41:35.386
26.0, 40180.79223403838, 13440.193347953958, -18565.403648066957, -20767.452808314898, -3014.8926991096378, -4587.472032007222, 16136.417226364283, 7859.946234219818, 0.018000000000000002, 0.91, 0.464, 192.0, 0.0, 0.0, 0.0, 0.0, 0.0, 0.0, 0.0, 0.0, 0.0, 1.654609295386151E9, 0.0, 2022-06-07 15:41:35.386
27.0, 40254.508287251985, 13444.551938122742, -18560.3298020756, -20746.844499927105, -2992.7644720988837, -4544.646089630854, 16165.027459267076, 7862.98607146574, 0.018000000000000002, 0.91, 0.464, 192.0, 0.0, 0.0, 0.0, 0.0, 0.0, 0.0, 0.0, 0.0, 0.0, 1.654609295386154E9, 0.0, 2022-06-07 15:41:35.386
28.0, 40185.016713740435, 13411.873687729085, -18608.408404398968, -20757.148654121, -3026.493254481942, -4500.300228631524, 16171.777686092579, 7856.41465859588, 0.022, 0.908, 0.462, 192.0, 0.0, 176.0, 28.0, 96.0, 14.0, 112.0, 0.0, 0.0, 0.0, 1.654609295386156E9, 0.0, 2022-06-07 15:41:35.386
29.0, 40066.664226849585, 13383.97871064886, -18646.763997884274, -20789.715145792383, -3075.5106300724306, -4523.769560309596, 16129.868165238879, 7839.2261671097485, 0.022, 0.908, 0.462, 192.0, 0.0, 0.0, 0.0, 0.0, 0.0, 0.0, 0.0, 0.0, 0.0, 1.654609295386158E9, 0.0, 2022-06-07 15:41:35.386
30.0, 40070.62048561817, 13396.853315455117, -18618.91372429296, -20796.599483084618, -3072.2696271264113, -4580.6323982038975, 16108.61165626188, 7840.455513054791, 0.022, 0.908, 0.462, 192.0, 0.0, 0.0, 0.0, 0.0, 0.0, 0.0, 0.0, 0.0, 0.0, 1.654609295446385E9, 0.0, 2022-06-07 15:41:35.446
31.0, 40184.99436199598, 13436.3711996521, -18564.397819566468, -20778.338107864634, -3020.145359056635, -4603.051197892571, 16134.427921107761, 7858.113391174483, 0.022, 0.908, 0.462, 192.0, 0.0, 0.0, 0.0, 0.0, 0.0, 0.0, 0.0, 0.0, 0.0, 1.65460929544639E9, 0.0, 2022-06-07 15:41:35.446
32.0, 40254.664749463176, 13445.80363581224, -18545.667057712923, -20746.241002826813, -2983.868477805672, -4550.837522844973, 16170.548340147538, 7867.612882567988, 0.022, 0.908, 0.462, 192.0, 0.0, 0.0, 0.0, 0.0, 0.0, 0.0, 0.0, 0.0, 0.0, 1.654609295446402E9, 0.0, 2022-06-07 15:41:35.446
33.0, 40184.05558872886, 13413.37125460759, -18597.053718215673, -20751.717180218362, -3015.4514927210207, -4506.536365334555, 16161.652345854325, 7852.346641105014, 0.022, 0.908, 0.462, 192.0, 0.0, 0.0, 0.0, 0.0, 0.0, 0.0, 0.0, 0.0, 0.0, 1.654609295446404E9, 0.0, 2022-06-07 15:41:35.446
34.0, 40063.28911343683, 13378.54723674622, -18639.2985152362, -20787.904654491504, -3067.173429390601, -4531.391505168856, 16133.600906562915, 7837.840358953519, 0.022, 0.908, 0.462, 192.0, 0.0, 0.0, 0.0, 0.0, 0.0, 0.0, 0.0, 0.0, 0.0, 1.654609295446407E9, 0.0, 2022-06-07 15:41:35.446
35.0, 40052.29205516482, 13383.196399592925, -18621.3947679275, -20796.778297040262, -3064.111240400224, -4587.986122129693, 16126.04601693702, 7840.947251432807, 0.022, 0.908, 0.462, 192.0, 0.0, 0.0, 0.0, 0.0, 0.0, 0.0, 0.0, 0.0, 0.0, 1.654609295446409E9, 0.0, 2022-06-07 15:41:35.446
36.0, 40167.403539109655, 13423.317780890202, -18564.82250271112, -20773.19720663991, -3007.2036990170122, -4606.29220083859, 16146.363752646896, 7858.225149896759, 0.022, 0.908, 0.462, 192.0, 0.0, 0.0, 0.0, 0.0, 0.0, 0.0, 0.0, 0.0, 0.0, 1.654609295446412E9, 0.0, 2022-06-07 15:41:35.446
37.0, 40250.44026976112, 13443.032019499782, -18550.450331026357, -20734.081653843125, -2975.441870146021, -4548.714107121719, 16167.419095923793, 7871.36797563648, 0.022, 0.908, 0.462, 192.0, 0.0, 0.0, 0.0, 0.0, 0.0, 0.0, 0.0, 0.0, 0.0, 1.654609295446414E9, 0.0, 2022-06-07 15:41:35.446
38.0, 40184.05558872886, 13402.709472502409, -18614.756299824276, -20748.72204646135, -3017.351390999722, -4509.3750368803785, 16158.143121974841, 7857.7781150076535, 0.024, 0.906, 0.456, 192.0, 0.0, 192.0, 28.0, 80.0, 14.0, 64.0, 0.0, 0.0, 0.0, 1.654609295446416E9, 0.0, 2022-06-07 15:41:35.446
39.0, 40065.189011715534, 13377.384946034545, -18637.130396024037, -20777.935776464437, -3058.2550833529335, -4522.853138786929, 16138.183014176253, 7849.329155603547, 0.024, 0.906, 0.456, 192.0, 0.0, 0.0, 0.0, 0.0, 0.0, 0.0, 0.0, 0.0, 0.0, 1.654609295446419E9, 0.0, 2022-06-07 15:41:35.446
40.0, 40058.7070058235, 13393.701719486919, -18608.00607299877, -20786.921177735472, -3056.5787025187856, -4572.496363222166, 16129.57759256096, 7852.190178893827, 0.024, 0.906, 0.456, 192.0, 0.0, 0.0, 0.0, 0.0, 0.0, 0.0, 0.0, 0.0, 0.0, 1.654609295446421E9, 0.0, 2022-06-07 15:41:35.446
41.0, 40165.928323975604, 13425.32943789118, -18566.34242133408, -20768.838616471126, -3024.8392253922493, -4597.485613523199, 16137.825386264967, 7856.727583018253, 0.024, 0.906, 0.456, 192.0, 0.0, 0.0, 0.0, 0.0, 0.0, 0.0, 0.0, 0.0, 0.0, 1.654609295446423E9, 0.0, 2022-06-07 15:41:35.446
42.0, 40237.588016699316, 13432.70551356143, -18556.351191562557, -20742.083578358124, -3001.9286873255596, -4551.351612967445, 16157.874901041378, 7858.560426063589, 0.024, 0.906, 0.456, 192.0, 0.0, 0.0, 0.0, 0.0, 0.0, 0.0, 0.0, 0.0, 0.0, 1.654609295446426E9, 0.0, 2022-06-07 15:41:35.446
43.0, 40176.768920036426, 13407.291580115747, -18590.30349139017, -20739.133148090023, -3028.3037457828223, -4495.494603573633, 16157.226700452175, 7853.754801005698, 0.024, 0.906, 0.456, 192.0, 0.0, 0.0, 0.0, 0.0, 0.0, 0.0, 0.0, 0.0, 0.0, 1.65460929544644E9, 0.0, 2022-06-07 15:41:35.446
44.0, 40070.39696817362, 13389.499591529322, -18626.53566915222, -20763.071866401657, -3075.331816116788, -4508.883298502362, 16127.767101260079, 7843.674164256355, 0.024, 0.906, 0.456, 192.0, 0.0, 0.0, 0.0, 0.0, 0.0, 0.0, 0.0, 0.0, 0.0, 1.654609295446442E9, 0.0, 2022-06-07 15:41:35.446
45.0, 40055.66716857757, 13400.98838817935, -18613.5940091126, -20787.055288202202, -3078.37165336271, -4569.210656787236, 16108.142269628319, 7837.840358953519, 0.024, 0.906, 0.456, 192.0, 0.0, 0.0, 0.0, 0.0, 0.0, 0.0, 0.0, 0.0, 0.0, 1.654609295505748E9, 0.0, 2022-06-07 15:41:35.505
46.0, 40168.2305536545, 13443.300240433246, -18551.813787438132, -20761.440189056422, -3025.1297980701684, -4589.215468074735, 16133.399740862817, 7861.399097609413, 0.024, 0.906, 0.456, 192.0, 0.0, 0.0, 0.0, 0.0, 0.0, 0.0, 0.0, 0.0, 0.0, 1.654609295505753E9, 0.0, 2022-06-07 15:41:35.505
47.0, 40250.19440057211, 13441.199176454447, -18537.128691330992, -20718.033101324214, -2995.5137366668864, -4533.85019705894, 16161.00414526512, 7873.692557059831, 0.024, 0.906, 0.456, 192.0, 0.0, 0.0, 0.0, 0.0, 0.0, 0.0, 0.0, 0.0, 0.0, 1.654609295505756E9, 0.0, 2022-06-07 15:41:35.505
48.0, 40186.24605968548, 13407.269228371291, -18581.698069774877, -20731.175927063934, -3025.509777725909, -4486.4197953247785, 16155.125636473374, 7864.2377691552365, 0.028, 0.908, 0.458, 192.0, 0.0, 224.0, 28.0, 96.0, 14.0, 80.0, 0.0, 0.0, 0.0, 1.654609295505758E9, 0.0, 2022-06-07 15:41:35.505
49.0, 40068.69823559502, 13384.984539149349, -18620.254828960282, -20766.53638679223, -3062.434859566076, -4502.736568777153, 16132.595078062426, 7854.7829812506425, 0.028, 0.908, 0.458, 192.0, 0.0, 0.0, 0.0, 0.0, 0.0, 0.0, 0.0, 0.0, 0.0, 1.654609295505761E9, 0.0, 2022-06-07 15:41:35.505
50.0, 40045.94415973951, 13388.359652562101, -18609.660102088466, -20787.81524751368, -3065.1170689007126, -4569.411822487334, 16121.173336645763, 7849.038582925628, 0.028, 0.908, 0.458, 192.0, 0.0, 0.0, 0.0, 0.0, 0.0, 0.0, 0.0, 0.0, 0.0, 1.654609295505763E9, 0.0, 2022-06-07 15:41:35.505
51.0, 40144.694166743066, 13419.13800467706, -18569.136389390995, -20779.723916020863, -3025.800350403828, -4605.085206638004, 16122.29092386853, 7849.083286414539, 0.028, 0.908, 0.458, 192.0, 0.0, 0.0, 0.0, 0.0, 0.0, 0.0, 0.0, 0.0, 0.0, 1.654609295505765E9, 0.0, 2022-06-07 15:41:35.505
52.0, 40233.050612574894, 13427.94459199245, -18555.77004620672, -20751.00192439579, -2989.121137752669, -4557.721860137208, 16143.793302034534, 7855.162960906382, 0.028, 0.908, 0.458, 192.0, 0.0, 0.0, 0.0, 0.0, 0.0, 0.0, 0.0, 0.0, 0.0, 1.654609295505768E9, 0.0, 2022-06-07 15:41:35.505
53.0, 40166.10713793125, 13394.640492754042, -18604.407442141466, -20760.657878000486, -3016.2561555214115, -4511.945487492739, 16158.970136519687, 7850.737315504231, 0.028, 0.908, 0.458, 192.0, 0.0, 0.0, 0.0, 0.0, 0.0, 0.0, 0.0, 0.0, 0.0, 1.65460929550577E9, 0.0, 2022-06-07 15:41:35.505
54.0, 40045.608883572684, 13371.349975031611, -18647.523957195754, -20791.458581859897, -3059.8420572092605, -4535.973612782194, 16138.562993831993, 7836.387495563924, 0.028, 0.908, 0.458, 192.0, 0.0, 0.0, 0.0, 0.0, 0.0, 0.0, 0.0, 0.0, 0.0, 1.654609295505772E9, 0.0, 2022-06-07 15:41:35.505
55.0, 40048.693424307516, 13387.59969325062, -18632.794157599707, -20796.465372617888, -3059.685594998073, -4590.645979719875, 16121.598019790414, 7833.3029548290915, 0.028, 0.908, 0.458, 192.0, 0.0, 0.0, 0.0, 0.0, 0.0, 0.0, 0.0, 0.0, 0.0, 1.654609295505775E9, 0.0, 2022-06-07 15:41:35.505
56.0, 40164.94484721957, 13426.603487325132, -18562.699086987865, -20774.91829096297, -3016.6808386660623, -4616.171671887836, 16142.899232256323, 7845.5517107906, 0.028, 0.908, 0.458, 192.0, 0.0, 0.0, 0.0, 0.0, 0.0, 0.0, 0.0, 0.0, 0.0, 1.654609295505777E9, 0.0, 2022-06-07 15:41:35.505
57.0, 40244.092374335814, 13438.271097930801, -18544.929450145897, -20741.882412658026, -2984.9637132839816, -4565.924950352305, 16163.976927277678, 7854.581815550544, 0.028, 0.908, 0.458, 192.0, 0.0, 0.0, 0.0, 0.0, 0.0, 0.0, 0.0, 0.0, 0.0, 1.654609295505779E9, 0.0, 2022-06-07 15:41:35.505
58.0, 40184.882603273705, 13401.725995746374, -18595.466744359346, -20750.3984272955, -3022.939327113548, -4516.505243361622, 16147.414284636294, 7842.98126017824, 0.022, 0.908, 0.464, 192.0, 0.0, 176.0, 28.0, 96.0, 14.0, 128.0, 0.0, 0.0, 0.0, 1.654609295505782E9, 0.0, 2022-06-07 15:41:35.505
59.0, 40073.570915886274, 13377.563759990187, -18633.017675044262, -20780.148599165514, -3076.114127172724, -4528.262260945113, 16115.697159254214, 7829.905489671885, 0.022, 0.908, 0.464, 192.0, 0.0, 0.0, 0.0, 0.0, 0.0, 0.0, 0.0, 0.0, 0.0, 1.654609295505784E9, 0.0, 2022-06-07 15:41:35.505
60.0, 40067.62535186116, 13392.964111919895, -18606.173229953438, -20786.87647424656, -3069.721528258506, -4575.9385318682835, 16115.272476109563, 7837.706248486787, 0.022, 0.908, 0.464, 192.0, 0.0, 0.0, 0.0, 0.0, 0.0, 0.0, 0.0, 0.0, 0.0, 1.654609295565486E9, 0.0, 2022-06-07 15:41:35.565
61.0, 40188.63769634219, 13427.050522214238, -18546.404665279944, -20768.16806413747, -3014.400960731621, -4596.278619322613, 16150.543528860037, 7859.946234219818, 0.022, 0.908, 0.464, 192.0, 0.0, 0.0, 0.0, 0.0, 0.0, 0.0, 0.0, 0.0, 0.0, 1.654609295565491E9, 0.0, 2022-06-07 15:41:35.565
62.0, 40274.40133981721, 13434.426597884489, -18532.323066273104, -20734.506336987775, -2985.433099917543, -4544.713144864219, 16177.611491395413, 7867.277606401159, 0.022, 0.908, 0.464, 192.0, 0.0, 0.0, 0.0, 0.0, 0.0, 0.0, 0.0, 0.0, 0.0, 1.654609295565493E9, 0.0, 2022-06-07 15:41:35.565
63.0, 40212.93404256512, 13400.340187590145, -18581.16162790795, -20734.327523032134, -3025.889757381649, -4497.305094874513, 16161.67469759878, 7848.770361992164, 0.022, 0.908, 0.464, 192.0, 0.0, 0.0, 0.0, 0.0, 0.0, 0.0, 0.0, 0.0, 0.0, 1.654609295565495E9, 0.0, 2022-06-07 15:41:35.565
64.0, 40090.915869583594, 13374.143943088526, -18617.86319230356, -20768.950375193403, -3069.2968451138554, -4510.045589214038, 16136.417226364283, 7837.5497862756, 0.022, 0.908, 0.464, 192.0, 0.0, 0.0, 0.0, 0.0, 0.0, 0.0, 0.0, 0.0, 0.0, 1.654609295565504E9, 0.0, 2022-06-07 15:41:35.565
65.0, 40074.68850310904, 13383.531675759754, -18598.908913005464, -20783.009622455793, -3064.8264962227936, -4562.348671239456, 16126.76127275959, 7841.617803766466, 0.022, 0.908, 0.464, 192.0, 0.0, 0.0, 0.0, 0.0, 0.0, 0.0, 0.0, 0.0, 0.0, 1.654609295565507E9, 0.0, 2022-06-07 15:41:35.565
66.0, 40194.71737083404, 13424.435368112967, -18541.531984988687, -20756.098122131603, -3004.49913793792, -4579.894790636872, 16150.543528860037, 7863.74603077722, 0.022, 0.908, 0.464, 192.0, 0.0, 0.0, 0.0, 0.0, 0.0, 0.0, 0.0, 0.0, 0.0, 1.654609295565509E9, 0.0, 2022-06-07 15:41:35.565
67.0, 40279.2069648751, 13431.006780982827, -18531.741920917266, -20732.449976497886, -2977.408823658088, -4538.320545950001, 16163.686354599758, 7861.086173187038, 0.022, 0.908, 0.464, 192.0, 0.0, 0.0, 0.0, 0.0, 0.0, 0.0, 0.0, 0.0, 0.0, 1.654609295565511E9, 0.0, 2022-06-07 15:41:35.565
68.0, 40215.81741759985, 13400.697815501431, -18580.692241274388, -20741.860060913572, -3011.2270130189677, -4492.4100628388005, 16154.410380650805, 7846.26696661317, 0.014, 0.906, 0.46, 192.0, 0.0, 112.0, 28.0, 80.0, 14.0, 96.0, 0.0, 0.0, 0.0, 1.654609295565514E9, 0.0, 2022-06-07 15:41:35.565
69.0, 40101.77881738888, 13385.632739738554, -18623.45112841739, -20773.286613617733, -3053.1588856171234, -4507.117510690393, 16142.765121789591, 7843.182425878338, 0.014, 0.906, 0.46, 192.0, 0.0, 0.0, 0.0, 0.0, 0.0, 0.0, 0.0, 0.0, 0.0, 1.654609295565516E9, 0.0, 2022-06-07 15:41:35.565
70.0, 40090.9605730725, 13384.761021704797, -18608.386052654514, -20788.93283473645, -3057.3833653191764, -4561.991043328171, 16132.19274666223, 7845.484655557234, 0.014, 0.906, 0.46, 192.0, 0.0, 0.0, 0.0, 0.0, 0.0, 0.0, 0.0, 0.0, 0.0, 1.654609295565518E9, 0.0, 2022-06-07 15:41:35.565
71.0, 40199.85827205876, 13411.761929006807, -18560.70978173134, -20774.69477351842, -3008.9024315956153, -4591.920029153827, 16144.173281690275, 7855.945271962318, 0.014, 0.906, 0.46, 192.0, 0.0, 0.0, 0.0, 0.0, 0.0, 0.0, 0.0, 0.0, 0.0, 1.654609295565521E9, 0.0, 2022-06-07 15:41:35.565
72.0, 40283.67731376616, 13418.109824432115, -18554.540700261678, -20751.337200562622, -2973.6090271006856, -4548.647051888353, 16161.495883643138, 7859.8344754975415, 0.014, 0.906, 0.46, 192.0, 0.0, 0.0, 0.0, 0.0, 0.0, 0.0, 0.0, 0.0, 0.0, 1.654609295565523E9, 0.0, 2022-06-07 15:41:35.565
73.0, 40233.51999920845, 13395.98159742136, -18578.591177295588, -20752.991229652314, -2999.134719268646, -4496.992170452138, 16160.467703398193, 7854.894739972919, 0.014, 0.906, 0.46, 192.0, 0.0, 0.0, 0.0, 0.0, 0.0, 0.0, 0.0, 0.0, 0.0, 1.654609295565526E9, 0.0, 2022-06-07 15:41:35.565
74.0, 40114.78753266186, 13368.667765696975, -18625.35102669609, -20785.98240446835, -3049.1579233596235, -4514.873566016384, 16134.897307741323, 7841.595452022011, 0.014, 0.906, 0.46, 192.0, 0.0, 0.0, 0.0, 0.0, 0.0, 0.0, 0.0, 0.0, 0.0, 1.654609295565528E9, 0.0, 2022-06-07 15:41:35.565
75.0, 40095.85560510822, 13385.520981016278, -18614.26456144626, -20801.65097733152, -3057.472772296998, -4572.317549266523, 16123.90024946931, 7840.611975265977, 0.014, 0.906, 0.46, 192.0, 0.0, 0.0, 0.0, 0.0, 0.0, 0.0, 0.0, 0.0, 0.0, 1.654609295625733E9, 0.0, 2022-06-07 15:41:35.625
76.0, 40208.016658784945, 13422.110786689615, -18570.589252780588, -20784.14956142301, -3014.9374025985485, -4603.185308359302, 16139.121787443375, 7849.820893981564, 0.014, 0.906, 0.46, 192.0, 0.0, 0.0, 0.0, 0.0, 0.0, 0.0, 0.0, 0.0, 0.0, 1.65460929562574E9, 0.0, 2022-06-07 15:41:35.625
77.0, 40287.92414521267, 13429.352751893133, -18560.598023009064, -20757.081598887635, -2982.281503949345, -4555.553740925043, 16155.684430084757, 7857.107562673994, 0.014, 0.906, 0.46, 192.0, 0.0, 0.0, 0.0, 0.0, 0.0, 0.0, 0.0, 0.0, 0.0, 1.654609295625743E9, 0.0, 2022-06-07 15:41:35.625
78.0, 40224.55694968187, 13397.36740557759, -18603.893352018997, -20748.051494127692, -3008.0754170507694, -4499.987304209149, 16151.839930038444, 7854.693574272821, 0.03, 0.906, 0.462, 192.0, 0.0, 240.0, 28.0, 80.0, 14.0, 112.0, 0.0, 0.0, 0.0, 1.654609295625746E9, 0.0, 2022-06-07 15:41:35.625
79.0, 40111.07714308228, 13380.357728047102, -18637.331561724135, -20771.40906708349, -3051.862484438716, -4503.295362388535, 16149.29183117054, 7855.4311818398455, 0.03, 0.906, 0.462, 192.0, 0.0, 0.0, 0.0, 0.0, 0.0, 0.0, 0.0, 0.0, 0.0, 1.65460929562575E9, 0.0, 2022-06-07 15:41:35.625
80.0, 40096.05677080832, 13392.494725286333, -18623.182907483926, -20788.82107601417, -3057.629234508185, -4561.275787505601, 16133.802072263012, 7850.580853293044, 0.03, 0.906, 0.462, 192.0, 0.0, 0.0, 0.0, 0.0, 0.0, 0.0, 0.0, 0.0, 0.0, 1.654609295625753E9, 0.0, 2022-06-07 15:41:35.625
81.0, 40219.63956590171, 13435.722999062897, -18566.834159712096, -20760.5014157893, -3005.281448993856, -4575.267979534624, 16155.639726595848, 7873.871371015474, 0.03, 0.906, 0.462, 192.0, 0.0, 0.0, 0.0, 0.0, 0.0, 0.0, 0.0, 0.0, 0.0, 1.654609295625756E9, 0.0, 2022-06-07 15:41:35.625
82.0, 40299.032962206955, 13443.099074733147, -18546.672886213408, -20726.079729328125, -2963.4166316290657, -4514.650048571832, 16191.424869468794, 7897.027778271173, 0.03, 0.906, 0.462, 192.0, 0.0, 0.0, 0.0, 0.0, 0.0, 0.0, 0.0, 0.0, 0.0, 1.65460929562576E9, 0.0, 2022-06-07 15:41:35.625
83.0, 40236.09044982081, 13419.786205266262, -18586.05665994366, -20730.14774681899, -2991.088091264736, -4456.177885076748, 16192.96713983621, 7891.216324712793, 0.03, 0.906, 0.462, 192.0, 0.0, 0.0, 0.0, 0.0, 0.0, 0.0, 0.0, 0.0, 0.0, 1.654609295625763E9, 0.0, 2022-06-07 15:41:35.625
84.0, 40110.38423900417, 13391.846524697128, -18634.73875936732, -20773.465427573377, -3054.0082519064254, -4478.775498721064, 16153.851587039422, 7867.724641290265, 0.03, 0.906, 0.462, 192.0, 0.0, 0.0, 0.0, 0.0, 0.0, 0.0, 0.0, 0.0, 0.0, 1.654609295625766E9, 0.0, 2022-06-07 15:41:35.625
85.0, 40090.781759116864, 13394.260513098301, -18630.044893031703, -20795.526599350764, -3068.268664868911, -4538.2534907166355, 16124.23552563614, 7854.604167295, 0.03, 0.906, 0.462, 192.0, 0.0, 0.0, 0.0, 0.0, 0.0, 0.0, 0.0, 0.0, 0.0, 1.654609295625769E9, 0.0, 2022-06-07 15:41:35.625
86.0, 40205.11093200576, 13427.095225703148, -18579.82052324063, -20779.16512240948, -3021.307649768311, -4569.165953298325, 16134.964362974688, 7863.924844732863, 0.03, 0.906, 0.462, 192.0, 0.0, 0.0, 0.0, 0.0, 0.0, 0.0, 0.0, 0.0, 0.0, 1.654609295625782E9, 0.0, 2022-06-07 15:41:35.625
87.0, 40285.08547366685, 13438.159339208525, -18563.213177110338, -20751.00192439579, -2987.109480751691, -4528.75399932313, 16167.732020346168, 7871.949120992318, 0.03, 0.906, 0.462, 192.0, 0.0, 0.0, 0.0, 0.0, 0.0, 0.0, 0.0, 0.0, 0.0, 1.654609295625786E9, 0.0, 2022-06-07 15:41:35.625
88.0, 40228.42380147264, 13413.348902863134, -18606.508506120266, -20758.82503495515, -3015.8985276101266, -4480.4965830441215, 16169.475456413682, 7864.103658688505, 0.03, 0.912, 0.468, 192.0, 0.0, 240.0, 28.0, 128.0, 14.0, 160.0, 0.0, 0.0, 0.0, 1.654609295625801E9, 0.0, 2022-06-07 15:41:35.625
89.0, 40113.98286986147, 13392.584132264154, -18649.55796594119, -20786.138866679536, -3062.7924874773607, -4492.946504705728, 16136.685447297747, 7850.536149804134, 0.03, 0.912, 0.468, 192.0, 0.0, 0.0, 0.0, 0.0, 0.0, 0.0, 0.0, 0.0, 0.0, 1.654609295625804E9, 0.0, 2022-06-07 15:41:35.625
90.0, 40094.84977660773, 13403.290617858245, -18612.96816026785, -20798.208808685402, -3065.6982142565507, -4553.385621712879, 16123.140290157831, 7846.311670102081, 0.03, 0.912, 0.468, 192.0, 0.0, 0.0, 0.0, 0.0, 0.0, 0.0, 0.0, 0.0, 0.0, 1.654609295686058E9, 0.0, 2022-06-07 15:41:35.686
91.0, 40207.56962389584, 13445.825987556695, -18552.5290432607, -20774.583014796142, -3007.2260507614674, -4581.90644763785, 16156.042057996043, 7866.1153156894825, 0.03, 0.912, 0.468, 192.0, 0.0, 0.0, 0.0, 0.0, 0.0, 0.0, 0.0, 0.0, 0.0, 1.654609295686063E9, 0.0, 2022-06-07 15:41:35.686
92.0, 40282.604430032305, 13448.642307358064, -18544.840043168075, -20754.622906997552, -2972.379681155644, -4544.2437582306575, 16180.96425306371, 7868.79752502412, 0.03, 0.912, 0.468, 192.0, 0.0, 0.0, 0.0, 0.0, 0.0, 0.0, 0.0, 0.0, 0.0, 1.654609295686066E9, 0.0, 2022-06-07 15:41:35.686
93.0, 40224.020507814945, 13415.472318586388, -18589.878808245518, -20758.981497166336, -3003.2474402484227, -4498.802661753019, 16164.692183100247, 7852.346641105014, 0.03, 0.912, 0.468, 192.0, 0.0, 0.0, 0.0, 0.0, 0.0, 0.0, 0.0, 0.0, 0.0, 1.654609295686068E9, 0.0, 2022-06-07 15:41:35.686
94.0, 40106.69620116904, 13392.159449119503, -18633.55411691119, -20781.40029685501, -3050.8343041937715, -4510.917307247795, 16138.71945604318, 7840.74608573271, 0.03, 0.912, 0.468, 192.0, 0.0, 0.0, 0.0, 0.0, 0.0, 0.0, 0.0, 0.0, 0.0, 1.65460929568607E9, 0.0, 2022-06-07 15:41:35.686
95.0, 40082.377503201664, 13394.12640263157, -18630.938962809916, -20808.82588730167, -3055.2823013403777, -4572.697528922264, 16125.688389025736, 7833.16884436236, 0.03, 0.912, 0.468, 192.0, 0.0, 0.0, 0.0, 0.0, 0.0, 0.0, 0.0, 0.0, 0.0, 1.654609295686072E9, 0.0, 2022-06-07 15:41:35.686
96.0, 40183.31798116183, 13423.586001823665, -18576.57952029461, -20793.805515027707, -3002.2639634923894, -4602.715921725741, 16147.213118936197, 7848.569196292066, 0.03, 0.912, 0.468, 192.0, 0.0, 0.0, 0.0, 0.0, 0.0, 0.0, 0.0, 0.0, 0.0, 1.654609295686074E9, 0.0, 2022-06-07 15:41:35.686
97.0, 40268.52283102546, 13435.499481618344, -18556.48530202929, -20762.893052446016, -2967.3505386531997, -4553.922063579806, 16172.448238426237, 7861.890835987429, 0.03, 0.912, 0.468, 192.0, 0.0, 0.0, 0.0, 0.0, 0.0, 0.0, 0.0, 0.0, 0.0, 1.654609295686077E9, 0.0, 2022-06-07 15:41:35.686
98.0, 40218.43257170112, 13407.917428960494, -18602.976930496327, -20772.079619417145, -2999.6264576466633, -4500.546097820532, 16165.362735433906, 7850.692612015321, 0.026000000000000002, 0.914, 0.47200000000000003, 192.0, 0.0, 208.0, 28.0, 144.0, 14.0, 192.0, 0.0, 0.0, 0.0, 1.654609295686079E9, 0.0, 2022-06-07 15:41:35.686
99.0, 40103.07521856728, 13384.783373449252, -18638.717369880364, -20797.851180774116, -3042.8994349121376, -4504.703522289219, 16147.034304980554, 7844.992917179217, 0.026000000000000002, 0.914, 0.47200000000000003, 192.0, 0.0, 0.0, 0.0, 0.0, 0.0, 0.0, 0.0, 0.0, 0.0, 1.654609295686081E9, 0.0, 2022-06-07 15:41:35.686
100.0, 40079.091796766734, 13403.13415564706, -18620.5454016382, -20810.725785580373, -3049.537903015364, -4560.649938660853, 16131.142214672831, 7842.087190400028, 0.026000000000000002, 0.914, 0.47200000000000003, 192.0, 0.0, 0.0, 0.0, 0.0, 0.0, 0.0, 0.0, 0.0, 0.0, 1.654609295686083E9, 0.0, 2022-06-07 15:41:35.686
101.0, 40183.47444337302, 13426.93876349196, -18576.356002850058, -20803.953207010414, -3021.97820210197, -4604.146433370881, 16127.141252415331, 7839.293222343114, 0.026000000000000002, 0.914, 0.47200000000000003, 192.0, 0.0, 0.0, 0.0, 0.0, 0.0, 0.0, 0.0, 0.0, 0.0, 1.654609295686086E9, 0.0, 2022-06-07 15:41:35.686
102.0, 40266.84645019132, 13439.634554342576, -18548.19280483637, -20763.049514657203, -2980.2251434594564, -4548.848217588451, 16162.836988310455, 7863.187237165837, 0.026000000000000002, 0.914, 0.47200000000000003, 192.0, 0.0, 0.0, 0.0, 0.0, 0.0, 0.0, 0.0, 0.0, 0.0, 1.654609295686088E9, 0.0, 2022-06-07 15:41:35.686
103.0, 40210.542405908396, 13404.65407427002, -18586.794267510686, -20756.96984016536, -3004.2085652600013, -4491.091309915938, 16173.990508793655, 7864.304824388603, 0.026000000000000002, 0.914, 0.47200000000000003, 192.0, 0.0, 0.0, 0.0, 0.0, 0.0, 0.0, 0.0, 0.0, 0.0, 1.65460929568609E9, 0.0, 2022-06-07 15:41:35.686
104.0, 40097.93431734256, 13381.855294925606, -18623.27231446175, -20779.276881131755, -3054.790562962361, -4496.858059985407, 16150.43177013776, 7855.833513240042, 0.026000000000000002, 0.914, 0.47200000000000003, 192.0, 0.0, 0.0, 0.0, 0.0, 0.0, 0.0, 0.0, 0.0, 0.0, 1.654609295686092E9, 0.0, 2022-06-07 15:41:35.686
105.0, 40086.579631159264, 13402.84358296914, -18606.307340420168, -20786.54119807973, -3060.914940943115, -4544.646089630854, 16140.23937466614, 7860.08034468655, 0.026000000000000002, 0.914, 0.47200000000000003, 192.0, 0.0, 0.0, 0.0, 0.0, 0.0, 0.0, 0.0, 0.0, 0.0, 1.654609295746399E9, 0.0, 2022-06-07 15:41:35.746
106.0, 40192.079864988315, 13436.952345007938, -18563.25788059925, -20768.92802344895, -3016.747893899428, -4577.749023169163, 16157.584328363459, 7870.8091820250975, 0.026000000000000002, 0.914, 0.47200000000000003, 192.0, 0.0, 0.0, 0.0, 0.0, 0.0, 0.0, 0.0, 0.0, 0.0, 1.654609295746407E9, 0.0, 2022-06-07 15:41:35.746
107.0, 40292.618011548286, 13457.962984795928, -18545.220022823814, -20728.538421218207, -2971.3962043996103, -4528.5081301341215, 16187.803886867034, 7889.495240389734, 0.036000000000000004, 0.914, 0.468, 192.0, 1.0, 32.0, 28.0, 144.0, 14.0, 160.0, 0.0, 0.0, 0.0, 1.654609295746417E9, 0.0, 2022-06-07 15:41:35.746
108.0, 40239.622025444754, 13424.211850668413, -18568.62229926852, -20724.53745896071, -2997.950076812515, -4469.432469538745, 16182.908854831321, 7884.287283931647, 0.036000000000000004, 0.914, 0.468, 192.0, 0.0, 0.0, 0.0, 0.0, 0.0, 0.0, 0.0, 0.0, 0.0, 1.654609295746419E9, 0.0, 2022-06-07 15:41:35.746
109.0, 40113.580538461276, 13394.349920076123, -18615.851535302583, -20755.002886653292, -3044.4193535350983, -4475.959178919695, 16157.62903185237, 7875.123068704971, 0.036000000000000004, 0.914, 0.468, 192.0, 0.0, 0.0, 0.0, 0.0, 0.0, 0.0, 0.0, 0.0, 0.0, 1.654609295746422E9, 0.0, 2022-06-07 15:41:35.746
110.0, 40093.97805857397, 13404.475260314377, -18604.58625609711, -20776.952299708402, -3049.2026268485342, -4532.2632232026135, 16142.295735156029, 7874.474868115768, 0.036000000000000004, 0.914, 0.468, 192.0, 0.0, 0.0, 0.0, 0.0, 0.0, 0.0, 0.0, 0.0, 0.0, 1.654609295746424E9, 0.0, 2022-06-07 15:41:35.746
111.0, 40205.490911661494, 13443.61316485562, -18546.38231353549, -20743.022351625248, -2999.0676640352804, -4565.075584063004, 16160.802979565024, 7891.842173557541, 0.036000000000000004, 0.914, 0.468, 192.0, 0.0, 0.0, 0.0, 0.0, 0.0, 0.0, 0.0, 0.0, 0.0, 1.654609295746426E9, 0.0, 2022-06-07 15:41:35.746
112.0, 40286.02424693397, 13457.001859784348, -18526.19868829235, -20709.5394384312, -2956.7781635258393, -4521.08735097496, 16183.087668786964, 7900.201725983826, 0.036000000000000004, 0.914, 0.468, 192.0, 0.0, 0.0, 0.0, 0.0, 0.0, 0.0, 0.0, 0.0, 0.0, 1.654609295746429E9, 0.0, 2022-06-07 15:41:35.746
113.0, 40230.68132766263, 13429.375103637589, -18571.885653958994, -20718.793060635693, -2981.9685795269706, -4471.64529223982, 16179.287872229563, 7887.1259554774715, 0.036000000000000004, 0.914, 0.468, 192.0, 0.0, 0.0, 0.0, 0.0, 0.0, 0.0, 0.0, 0.0, 0.0, 1.654609295746431E9, 0.0, 2022-06-07 15:41:35.746
114.0, 40106.025648835384, 13393.724071231374, -18619.092538248606, -20757.662744243473, -3037.1997400760342, -4485.972760435672, 16161.920566787789, 7871.055051214105, 0.036000000000000004, 0.914, 0.468, 192.0, 0.0, 0.0, 0.0, 0.0, 0.0, 0.0, 0.0, 0.0, 0.0, 1.654609295746446E9, 0.0, 2022-06-07 15:41:35.746
115.0, 40084.23269799146, 13398.12736488907, -18606.57556135363, -20778.338107864634, -3045.8498651802383, -4541.315679707012, 16149.113017214897, 7870.3397953915355, 0.036000000000000004, 0.914, 0.468, 192.0, 0.0, 0.0, 0.0, 0.0, 0.0, 0.0, 0.0, 0.0, 0.0, 1.654609295746448E9, 0.0, 2022-06-07 15:41:35.746
116.0, 40185.59785909628, 13432.414940883511, -18558.742828219274, -20768.90567170449, -3001.2581349919005, -4582.6887586937855, 16156.869072540889, 7875.480696616256, 0.036000000000000004, 0.914, 0.468, 192.0, 0.0, 0.0, 0.0, 0.0, 0.0, 0.0, 0.0, 0.0, 0.0, 1.654609295746451E9, 0.0, 2022-06-07 15:41:35.746
117.0, 40271.272095593464, 13451.413923670521, -18542.38135127799, -20745.279877815232, -2972.3349776667333, -4543.975537297194, 16170.458933169715, 7877.760574550698, 0.026000000000000002, 0.916, 0.468, 192.0, 0.0, 208.0, 28.0, 160.0, 14.0, 160.0, 0.0, 0.0, 0.0, 1.654609295746453E9, 0.0, 2022-06-07 15:41:35.746
118.0, 40225.11574329326, 13426.782301280773, -18586.794267510686, -20743.469386514353, -2997.4583384344983, -4485.4810220576555, 16163.440485410749, 7870.69742330282, 0.026000000000000002, 0.916, 0.468, 192.0, 0.0, 0.0, 0.0, 0.0, 0.0, 0.0, 0.0, 0.0, 0.0, 1.654609295746455E9, 0.0, 2022-06-07 15:41:35.746
119.0, 40107.99260234745, 13400.161373634503, -18631.944791310405, -20773.73364850684, -3044.0617256238133, -4491.627751782865, 16149.604755592914, 7863.768382521675, 0.026000000000000002, 0.916, 0.468, 192.0, 0.0, 0.0, 0.0, 0.0, 0.0, 0.0, 0.0, 0.0, 0.0, 1.654609295746458E9, 0.0, 2022-06-07 15:41:35.746
120.0, 40082.06457877929, 13395.5122107878, -18621.26065746077, -20793.40318362751, -3055.2823013403777, -4550.636357144876, 16142.295735156029, 7859.789772008631, 0.026000000000000002, 0.916, 0.468, 192.0, 0.0, 0.0, 0.0, 0.0, 0.0, 0.0, 0.0, 0.0, 0.0, 1.654609295805884E9, 0.0, 2022-06-07 15:41:35.805
121.0, 40184.122643962226, 13425.284734402268, -18569.5834242801, -20778.62868054255, -3013.4845392089537, -4589.640151219386, 16156.62320335188, 7865.489466844734, 0.026000000000000002, 0.916, 0.468, 192.0, 0.0, 0.0, 0.0, 0.0, 0.0, 0.0, 0.0, 0.0, 0.0, 1.65460929580589E9, 0.0, 2022-06-07 15:41:35.805
122.0, 40278.53641254144, 13450.653964359042, -18544.683580956887, -20746.15159584899, -2979.8675155481715, -4548.088258276971, 16175.264558227607, 7870.898589002918, 0.026000000000000002, 0.916, 0.468, 192.0, 0.0, 0.0, 0.0, 0.0, 0.0, 0.0, 0.0, 0.0, 0.0, 1.654609295805892E9, 0.0, 2022-06-07 15:41:35.805
123.0, 40230.63662417372, 13426.089397202659, -18585.497866332276, -20749.9960958953, -3010.8023298743165, -4495.963990207194, 16169.63191862487, 7858.515722574678, 0.026000000000000002, 0.916, 0.468, 192.0, 0.0, 0.0, 0.0, 0.0, 0.0, 0.0, 0.0, 0.0, 0.0, 1.654609295805895E9, 0.0, 2022-06-07 15:41:35.805
124.0, 40106.04800057984, 13392.740594475341, -18631.87773607704, -20789.335166136643, -3057.9198071861038, -4506.312847890002, 16154.320973672984, 7845.663469512877, 0.026000000000000002, 0.916, 0.468, 192.0, 0.0, 0.0, 0.0, 0.0, 0.0, 0.0, 0.0, 0.0, 0.0, 1.654609295805897E9, 0.0, 2022-06-07 15:41:35.805
125.0, 40085.55145091432, 13403.022396924782, -18624.144032495504, -20800.622797086573, -3052.600092005741, -4558.571226426509, 16144.15092994582, 7849.239748625726, 0.026000000000000002, 0.916, 0.468, 192.0, 0.0, 0.0, 0.0, 0.0, 0.0, 0.0, 0.0, 0.0, 0.0, 1.654609295805899E9, 0.0, 2022-06-07 15:41:35.805
126.0, 40190.694056832086, 13431.498519360843, -18561.20152010936, -20772.928985706447, -3009.1706525290792, -4597.57502050102, 16154.365677161895, 7857.755763263198, 0.026000000000000002, 0.916, 0.468, 192.0, 0.0, 0.0, 0.0, 0.0, 0.0, 0.0, 0.0, 0.0, 0.0, 1.654609295805901E9, 0.0, 2022-06-07 15:41:35.805
127.0, 40278.87168870827, 13444.95426952294, -18526.332798759082, -20742.709427202873, -2974.9277800235486, -4553.6314909018865, 16184.920511832299, 7869.490429102234, 0.022, 0.912, 0.466, 192.0, 0.0, 176.0, 28.0, 128.0, 14.0, 144.0, 0.0, 0.0, 0.0, 1.654609295805904E9, 0.0, 2022-06-07 15:41:35.805
128.0, 40227.797952627894, 13422.535469834265, -18569.069334157626, -20743.379979536534, -2998.5759256572637, -4497.2827431300575, 16178.885540829366, 7860.1250481754605, 0.022, 0.912, 0.466, 192.0, 0.0, 0.0, 0.0, 0.0, 0.0, 0.0, 0.0, 0.0, 0.0, 1.654609295805916E9, 0.0, 2022-06-07 15:41:35.805
129.0, 40107.25499478042, 13386.996196150327, -18619.15959348197, -20780.170950909967, -3051.7283739719837, -4509.777368280575, 16143.636839823348, 7841.908376444385, 0.022, 0.912, 0.466, 192.0, 0.0, 0.0, 0.0, 0.0, 0.0, 0.0, 0.0, 0.0, 0.0, 1.654609295805918E9, 0.0, 2022-06-07 15:41:35.805
130.0, 40082.28809622385, 13390.952454918917, -18605.949712508886, -20798.275863918767, -3050.946062916048, -4561.789877628074, 16129.264668138585, 7843.540053789623, 0.022, 0.912, 0.466, 192.0, 0.0, 0.0, 0.0, 0.0, 0.0, 0.0, 0.0, 0.0, 0.0, 1.65460929580592E9, 0.0, 2022-06-07 15:41:35.805
131.0, 40191.63283009921, 13431.342057149657, -18553.691333972376, -20784.64129980103, -2998.9112018240935, -4601.106596124959, 16136.9089647423, 7852.570158549566, 0.022, 0.912, 0.466, 192.0, 0.0, 0.0, 0.0, 0.0, 0.0, 0.0, 0.0, 0.0, 0.0, 1.654609295805922E9, 0.0, 2022-06-07 15:41:35.805
132.0, 40285.28663936695, 13457.068915017715, -18534.200612807348, -20752.231270340835, -2950.4526198449876, -4552.826828101495, 16170.615395380903, 7869.266911657681, 0.022, 0.912, 0.466, 192.0, 0.0, 0.0, 0.0, 0.0, 0.0, 0.0, 0.0, 0.0, 0.0, 1.654609295805924E9, 0.0, 2022-06-07 15:41:35.805
133.0, 40235.50930446498, 13421.954324478427, -18579.23937788479, -20750.040799384213, -2970.144506710113, -4488.923190703773, 16183.087668786964, 7870.585664580544, 0.022, 0.912, 0.466, 192.0, 0.0, 0.0, 0.0, 0.0, 0.0, 0.0, 0.0, 0.0, 0.0, 1.654609295805927E9, 0.0, 2022-06-07 15:41:35.805
134.0, 40116.218044307, 13387.21971359488, -18626.222744729846, -20778.91925322047, -3026.0685713372914, -4496.36632160739, 16160.646517353836, 7859.074516186061, 0.022, 0.912, 0.466, 192.0, 0.0, 0.0, 0.0, 0.0, 0.0, 0.0, 0.0, 0.0, 0.0, 1.654609295805929E9, 0.0, 2022-06-07 15:41:35.805
135.0, 40084.59032590274, 13391.108917130105, -18620.143070238002, -20797.761773796294, -3042.5418070008527, -4553.676194390797, 16141.602831077915, 7856.325251618058, 0.022, 0.912, 0.466, 192.0, 0.0, 0.0, 0.0, 0.0, 0.0, 0.0, 0.0, 0.0, 0.0, 1.654609295865595E9, 0.0, 2022-06-07 15:41:35.865
136.0, 40188.74945506447, 13429.688028059963, -18565.403648066957, -20780.573282310164, -3001.146376269624, -4588.343750040978, 16156.824369051978, 7867.456420356802, 0.022, 0.912, 0.466, 192.0, 0.0, 0.0, 0.0, 0.0, 0.0, 0.0, 0.0, 0.0, 0.0, 1.654609295865602E9, 0.0, 2022-06-07 15:41:35.865
137.0, 40282.24680212102, 13446.876519546095, -18537.039284353174, -20744.47521501484, -2964.6459775741077, -4542.545025652054, 16185.948692077243, 7882.856772286507, 0.028, 0.912, 0.466, 192.0, 0.0, 224.0, 28.0, 128.0, 14.0, 144.0, 0.0, 0.0, 0.0, 1.654609295865605E9, 0.0, 2022-06-07 15:41:35.865
138.0, 40235.352842253786, 13421.194365166946, -18576.78068599471, -20742.10593010258, -2986.5730388847637, -4484.050510412516, 16180.785439108067, 7873.491391359734, 0.028, 0.912, 0.466, 192.0, 0.0, 0.0, 0.0, 0.0, 0.0, 0.0, 0.0, 0.0, 0.0, 1.654609295865609E9, 0.0, 2022-06-07 15:41:35.865
139.0, 40104.215157534505, 13370.679422697953, -18635.431663445434, -20782.361421866586, -3050.4766762824866, -4496.791004752041, 16148.129540458864, 7849.999707937206, 0.028, 0.912, 0.466, 192.0, 0.0, 0.0, 0.0, 0.0, 0.0, 0.0, 0.0, 0.0, 0.0, 1.654609295865612E9, 0.0, 2022-06-07 15:41:35.865
140.0, 40074.487337408944, 13371.372326776067, -18625.73100635183, -20802.366233154087, -3064.55827528933, -4552.625662401398, 16131.81276700649, 7847.853940469497, 0.028, 0.912, 0.466, 192.0, 0.0, 0.0, 0.0, 0.0, 0.0, 0.0, 0.0, 0.0, 0.0, 1.654609295865616E9, 0.0, 2022-06-07 15:41:35.865
141.0, 40182.87094627273, 13416.522850575788, -18573.897310959972, -20784.17191316747, -3020.4135799900987, -4585.929761639805, 16145.872014268878, 7863.187237165837, 0.028, 0.912, 0.466, 192.0, 0.0, 0.0, 0.0, 0.0, 0.0, 0.0, 0.0, 0.0, 0.0, 1.654609295865619E9, 0.0, 2022-06-07 15:41:35.865
142.0, 40278.625819519264, 13437.198214196947, -18562.4308660544, -20756.411046553978, -2986.9306667960486, -4549.608176899931, 16166.882654056866, 7870.004519224706, 0.028, 0.912, 0.466, 192.0, 0.0, 0.0, 0.0, 0.0, 0.0, 0.0, 0.0, 0.0, 0.0, 1.654609295865623E9, 0.0, 2022-06-07 15:41:35.865
143.0, 40243.71239468007, 13425.418844869, -18595.82437227063, -20753.237098841324, -3006.8460711057273, -4486.755071491608, 16168.089648257454, 7865.757687778198, 0.028, 0.912, 0.466, 192.0, 0.0, 0.0, 0.0, 0.0, 0.0, 0.0, 0.0, 0.0, 0.0, 1.654609295865627E9, 0.0, 2022-06-07 15:41:35.865
144.0, 40127.773896190396, 13408.208001638413, -18618.131413237028, -20772.861930473082, -3058.2327316084784, -4488.990245937139, 16144.463854368194, 7852.234882382737, 0.028, 0.912, 0.466, 192.0, 0.0, 0.0, 0.0, 0.0, 0.0, 0.0, 0.0, 0.0, 0.0, 1.654609295865643E9, 0.0, 2022-06-07 15:41:35.865
145.0, 40106.13740755766, 13421.462586100411, -18614.666892846453, -20794.744288294827, -3070.213266636523, -4546.300118720546, 16129.823461749967, 7846.9822224357395, 0.028, 0.912, 0.466, 192.0, 0.0, 0.0, 0.0, 0.0, 0.0, 0.0, 0.0, 0.0, 0.0, 1.654609295865646E9, 0.0, 2022-06-07 15:41:35.865
146.0, 40200.97585928153, 13451.391571926068, -18562.58732826559, -20772.68311651744, -3022.1570160576125, -4581.347654026467, 16144.933241001754, 7858.023984196661, 0.028, 0.912, 0.466, 192.0, 0.0, 0.0, 0.0, 0.0, 0.0, 0.0, 0.0, 0.0, 0.0, 1.65460929586565E9, 0.0, 2022-06-07 15:41:35.865
147.0, 40293.17680515967, 13466.680165133497, -18534.535888974176, -20740.20603182388, -2981.1639167265794, -4544.690793119764, 16165.29568020054, 7865.623577311466, 0.028, 0.908, 0.466, 192.0, 0.0, 224.0, 28.0, 96.0, 14.0, 144.0, 0.0, 0.0, 0.0, 1.654609295865653E9, 0.0, 2022-06-07 15:41:35.865
148.0, 40254.17301108516, 13444.797807311752, -18570.20927312485, -20736.741511433305, -2997.9947803014256, -4487.827955225463, 16164.9157005448, 7860.84030399803, 0.028, 0.908, 0.466, 192.0, 0.0, 0.0, 0.0, 0.0, 0.0, 0.0, 0.0, 0.0, 0.0, 1.654609295865657E9, 0.0, 2022-06-07 15:41:35.865
149.0, 40131.08195436978, 13410.107899917115, -18620.187773726913, -20768.033953670736, -3043.5923389902523, -4494.108795417404, 16151.191729449241, 7852.614862038477, 0.028, 0.908, 0.466, 192.0, 0.0, 0.0, 0.0, 0.0, 0.0, 0.0, 0.0, 0.0, 0.0, 1.65460929586566E9, 0.0, 2022-06-07 15:41:35.865
150.0, 40093.016933562394, 13410.84550748414, -18610.10713697757, -20785.11068643459, -3049.314385570811, -4547.551816410043, 16143.413322378794, 7852.771324249665, 0.028, 0.908, 0.466, 192.0, 0.0, 0.0, 0.0, 0.0, 0.0, 0.0, 0.0, 0.0, 0.0, 1.654609295925863E9, 0.0, 2022-06-07 15:41:35.925
151.0, 40183.25092592847, 13433.353714150635, -18570.991584180785, -20781.959090466393, -3013.3504287422215, -4595.473956522222, 16147.995429992132, 7854.380649850446, 0.028, 0.908, 0.466, 192.0, 0.0, 0.0, 0.0, 0.0, 0.0, 0.0, 0.0, 0.0, 0.0, 1.65460929592587E9, 0.0, 2022-06-07 15:41:35.925
