%OpenBCI Raw EEG Data
%Number of channels = 8
%Sample Rate = 250 Hz
%Board = OpenBCI_GUI$BoardCytonSerial
Sample Index, EXG Channel 0, EXG Channel 1, EXG Channel 2, EXG Channel 3, EXG Channel 4, EXG Channel 5, EXG Channel 6, EXG Channel 7, Accel Channel 0, Accel Channel 1, Accel Channel 2, Other, Other, Other, Other, Other, Other, Other, Analog Channel 0, Analog Channel 1, Analog Channel 2, Timestamp, Other, Timestamp (Formatted)
0.0, 0.0, 0.0, 0.0, 0.0, 0.0, 0.0, 0.0, 0.0, 0.0, 0.0, 0.0, 192.0, 0.0, 0.0, 0.0, 0.0, 0.0, 0.0, 0.0, 0.0, 0.0, 1.6541565395791516E9, 0.0, 2022-06-02 09:55:39.579
1.0, 23661.19905247677, 826.7686756573529, -75181.03124869242, -54303.831375101974, -39771.44238608389, -39722.89439712696, -8265.384526894633, -46231.25299587882, 0.008, 0.792, 0.648, 192.0, 0.0, 64.0, 24.0, 192.0, 20.0, 64.0, 0.0, 0.0, 0.0, 1.6541565400584204E9, 0.0, 2022-06-02 09:55:40.058
2.0, 23656.482834396702, 826.1875303015149, -75192.58710057582, -54310.536898438564, -39774.39281635199, -39728.41527800742, -8278.929684034549, -46245.84868500813, 0.008, 0.792, 0.648, 192.0, 0.0, 0.0, 0.0, 0.0, 0.0, 0.0, 0.0, 0.0, 0.0, 1.6541565400585997E9, 0.0, 2022-06-02 09:55:40.058
3.0, 23656.080502996505, 817.8950331085961, -75218.51512414397, -54328.507700980634, -39791.290735160204, -39741.96043514734, -8309.797443127329, -46284.673665127004, 0.008, 0.792, 0.648, 192.0, 0.0, 0.0, 0.0, 0.0, 0.0, 0.0, 0.0, 0.0, 0.0, 1.6541565400586057E9, 0.0, 2022-06-02 09:55:40.058
4.0, 23665.579994390013, 819.5490621982888, -75208.83681879484, -54325.35610501243, -39780.36073212156, -39742.60863573654, -8284.897599804115, -46272.33550218767, 0.008, 0.792, 0.648, 192.0, 0.0, 0.0, 0.0, 0.0, 0.0, 0.0, 0.0, 0.0, 0.0, 1.6541565400586114E9, 0.0, 2022-06-02 09:55:40.058
5.0, 23675.057134039063, 840.4032397750902, -75171.53175729893, -54296.41059594281, -39751.236409096295, -39715.0712865676, -8246.989041207915, -46222.71462949689, 0.008, 0.792, 0.648, 192.0, 0.0, 0.0, 0.0, 0.0, 0.0, 0.0, 0.0, 0.0, 0.0, 1.654156540058617E9, 0.0, 2022-06-02 09:55:40.058
6.0, 23664.06007576705, 838.860969407674, -75165.988524674, -54290.93441855126, -39754.41035680895, -39702.8225306061, -8250.788837765318, -46202.57570774266, 0.008, 0.792, 0.648, 192.0, 0.0, 0.0, 0.0, 0.0, 0.0, 0.0, 0.0, 0.0, 0.0, 1.6541565400586228E9, 0.0, 2022-06-02 09:55:40.058
7.0, 23665.647049623378, 841.3420130422131, -75166.92729794113, -54283.915970792295, -39746.36372880504, -39697.122835769995, -8235.656706769074, -46207.67190547847, 0.008, 0.792, 0.648, 192.0, 0.0, 0.0, 0.0, 0.0, 0.0, 0.0, 0.0, 0.0, 0.0, 1.6541565400586283E9, 0.0, 2022-06-02 09:55:40.058
8.0, 23667.34578220198, 832.669536193554, -75195.02344072144, -54307.117081536904, -39767.463775570846, -39721.84386513756, -8262.858779771183, -46254.29764441224, 0.004, 0.79, 0.64, 192.0, 0.0, 32.0, 24.0, 176.0, 20.0, 0.0, 0.0, 0.0, 0.0, 1.654156540058634E9, 0.0, 2022-06-02 09:55:40.058
9.0, 23666.004677534664, 826.6569169350764, -75205.68522282664, -54319.29878226505, -39782.73001703382, -39746.87781892751, -8286.931608549548, -46272.29079869876, 0.004, 0.79, 0.64, 192.0, 0.0, 0.0, 0.0, 0.0, 0.0, 0.0, 0.0, 0.0, 0.0, 1.6541565400586395E9, 0.0, 2022-06-02 09:55:40.058
10.0, 23669.06686652504, 835.8434839062076, -75184.51812082746, -54299.22691574418, -39764.46864181384, -39722.8273418936, -8279.823753812761, -46237.01974594829, 0.004, 0.79, 0.64, 192.0, 0.0, 0.0, 0.0, 0.0, 0.0, 0.0, 0.0, 0.0, 0.0, 1.654156540058646E9, 0.0, 2022-06-02 09:55:40.058
11.0, 23660.483796654204, 838.7939141743082, -75172.53758579941, -54287.55930513851, -39754.231542853304, -39706.51056844123, -8275.420460155066, -46217.73019048336, 0.004, 0.79, 0.64, 192.0, 0.0, 0.0, 0.0, 0.0, 0.0, 0.0, 0.0, 0.0, 0.0, 1.6541565400586522E9, 0.0, 2022-06-02 09:55:40.058
12.0, 23675.21359625025, 852.7414027144198, -75163.14985312818, -54273.81298229849, -39741.938083402885, -39695.49115842476, -8241.512863816364, -46214.33272532615, 0.004, 0.79, 0.64, 192.0, 0.0, 0.0, 0.0, 0.0, 0.0, 0.0, 0.0, 0.0, 0.0, 1.654156540058658E9, 0.0, 2022-06-02 09:55:40.058
13.0, 23673.760732860654, 839.3303560412355, -75192.96708023157, -54297.70699712122, -39764.91567670294, -39710.690344654366, -8256.421477368054, -46240.50661808332, 0.004, 0.79, 0.64, 192.0, 0.0, 0.0, 0.0, 0.0, 0.0, 0.0, 0.0, 0.0, 0.0, 1.6541565400586631E9, 0.0, 2022-06-02 09:55:40.058
14.0, 23665.423532178826, 822.4994924663893, -75213.7094990861, -54320.63988693236, -39791.17897643793, -39739.25587406825, -8298.77803311086, -46275.88942955607, 0.004, 0.79, 0.64, 192.0, 0.0, 0.0, 0.0, 0.0, 0.0, 0.0, 0.0, 0.0, 0.0, 1.6541565400586689E9, 0.0, 2022-06-02 09:55:40.058
15.0, 23671.123227014927, 833.6977164384981, -75184.71928652756, -54296.343540709444, -39763.194592379885, -39721.9779756043, -8249.827712753739, -46241.914777984, 0.004, 0.79, 0.64, 192.0, 0.0, 0.0, 0.0, 0.0, 0.0, 0.0, 0.0, 0.0, 0.0, 1.6541565400586743E9, 0.0, 2022-06-02 09:55:40.058
16.0, 23687.484703956212, 859.0445946508163, -75142.74271044049, -54262.391240881836, -39731.656280953444, -39685.81285307561, -8211.42741577952, -46197.68067570695, 0.004, 0.79, 0.64, 192.0, 0.0, 0.0, 0.0, 0.0, 0.0, 0.0, 0.0, 0.0, 0.0, 1.6541565400586798E9, 0.0, 2022-06-02 09:55:40.058
17.0, 23672.30786947106, 841.6102339756768, -75165.11680664025, -54282.373700424876, -39747.190743349885, -39692.317210712106, -8233.779160234828, -46210.46587353538, 0.004, 0.79, 0.64, 192.0, 0.0, 0.0, 0.0, 0.0, 0.0, 0.0, 0.0, 0.0, 0.0, 1.6541565400586853E9, 0.0, 2022-06-02 09:55:40.058
18.0, 23680.913291086352, 834.703544938987, -75192.85532150928, -54306.24536350315, -39768.5366593047, -39713.66312666692, -8261.227102425946, -46247.569769331196, 0.002, 0.796, 0.634, 192.0, 0.0, 16.0, 24.0, 224.0, 19.0, 208.0, 0.0, 0.0, 0.0, 1.6541565400586908E9, 0.0, 2022-06-02 09:55:40.058
19.0, 23687.4400004673, 833.9435856275065, -75195.91751049967, -54312.28033450608, -39781.03128445522, -39729.46580999682, -8284.4058614261, -46261.94194101595, 0.002, 0.796, 0.634, 192.0, 0.0, 0.0, 0.0, 0.0, 0.0, 0.0, 0.0, 0.0, 0.0, 1.6541565400586965E9, 0.0, 2022-06-02 09:55:40.058
20.0, 23690.032802824117, 841.5655304867662, -75175.26449862296, -54297.77405235459, -39766.39089183699, -39720.256891281235, -8278.72851833445, -46254.34234790115, 0.002, 0.796, 0.634, 192.0, 0.0, 0.0, 0.0, 0.0, 0.0, 0.0, 0.0, 0.0, 0.0, 1.654156540058702E9, 0.0, 2022-06-02 09:55:40.058
21.0, 23677.180549762317, 841.0290886198388, -75167.28492585241, -54286.2629039601, -39754.61152250905, -39703.403675961934, -8254.655689556086, -46215.271498593276, 0.002, 0.796, 0.634, 192.0, 0.0, 0.0, 0.0, 0.0, 0.0, 0.0, 0.0, 0.0, 0.0, 1.6541565400587077E9, 0.0, 2022-06-02 09:55:40.058
22.0, 23688.222311523237, 856.7423649719198, -75155.70672222457, -54270.99666249713, -39733.80204842115, -39684.7176175973, -8230.426398566533, -46198.686504207435, 0.002, 0.796, 0.634, 192.0, 0.0, 0.0, 0.0, 0.0, 0.0, 0.0, 0.0, 0.0, 0.0, 1.6541565400587232E9, 0.0, 2022-06-02 09:55:40.058
23.0, 23683.21552076525, 840.5820537307327, -75187.17797841763, -54305.865383847406, -39759.77477547822, -39715.85359762354, -8273.520561876365, -46264.199467205945, 0.002, 0.796, 0.634, 192.0, 0.0, 0.0, 0.0, 0.0, 0.0, 0.0, 0.0, 0.0, 0.0, 1.6541565400587287E9, 0.0, 2022-06-02 09:55:40.058
24.0, 23688.87051211244, 841.1184955976601, -75186.50742608398, -54311.3192094945, -39760.601790023065, -39734.04791761016, -8283.891771303626, -46284.338388960176, 0.002, 0.796, 0.634, 192.0, 0.0, 0.0, 0.0, 0.0, 0.0, 0.0, 0.0, 0.0, 0.0, 1.6541565400587337E9, 0.0, 2022-06-02 09:55:40.058
25.0, 23675.504168928168, 834.6811931945316, -75178.05846667987, -54304.85955534691, -39758.52307778872, -39725.017812850216, -8276.269826444368, -46247.39095537555, 0.002, 0.796, 0.634, 192.0, 0.0, 0.0, 0.0, 0.0, 0.0, 0.0, 0.0, 0.0, 0.0, 1.654156540058739E9, 0.0, 2022-06-02 09:55:40.058
26.0, 23652.236002950194, 820.3313732542246, -75175.57742304534, -54304.814851858006, -39757.40549056596, -39711.53971094367, -8250.230044153934, -46194.88670765003, 0.002, 0.796, 0.634, 192.0, 0.0, 0.0, 0.0, 0.0, 0.0, 0.0, 0.0, 0.0, 0.0, 1.654156540058744E9, 0.0, 2022-06-02 09:55:40.058
27.0, 23647.452729636756, 822.7230099109423, -75176.13621665671, -54306.89356409235, -39746.20726659385, -39712.70200165534, -8225.576070019732, -46191.489242492826, 0.002, 0.796, 0.646, 192.0, 0.0, 16.0, 24.0, 224.0, 20.0, 48.0, 0.0, 0.0, 0.0, 1.6541565400587494E9, 0.0, 2022-06-02 09:55:40.058
28.0, 23664.30594495606, 825.0028878453837, -75195.55988258838, -54320.72929391018, -39762.702854001865, -39725.42014425041, -8251.794666265807, -46229.017821433285, 0.002, 0.796, 0.646, 192.0, 0.0, 0.0, 0.0, 0.0, 0.0, 0.0, 0.0, 0.0, 0.0, 1.6541565400587547E9, 0.0, 2022-06-02 09:55:40.058
29.0, 23651.856023294455, 799.2536782328699, -75222.02434802346, -54349.272471579614, -39791.6930665604, -39759.01481616674, -8286.283407960345, -46254.476458367884, 0.002, 0.796, 0.646, 192.0, 0.0, 0.0, 0.0, 0.0, 0.0, 0.0, 0.0, 0.0, 0.0, 1.6541565400587597E9, 0.0, 2022-06-02 09:55:40.058
30.0, 23646.983343003198, 802.6734951345319, -75200.41021113518, -54336.062590606525, -39774.48222332981, -39746.475487527314, -8270.994814752914, -46240.350155872125, 0.002, 0.796, 0.646, 192.0, 0.0, 0.0, 0.0, 0.0, 0.0, 0.0, 0.0, 0.0, 0.0, 1.6541565400587647E9, 0.0, 2022-06-02 09:55:40.058
31.0, 23641.596572589468, 808.5073004373671, -75186.5968330618, -54320.79634914355, -39762.211115623846, -39734.89728389946, -8265.988023994925, -46240.61837680559, 0.002, 0.796, 0.646, 192.0, 0.0, 0.0, 0.0, 0.0, 0.0, 0.0, 0.0, 0.0, 0.0, 1.65415654005877E9, 0.0, 2022-06-02 09:55:40.058
32.0, 23637.752072543153, 806.4062364585682, -75198.17503668964, -54325.69138117926, -39777.29854313118, -39738.47356301231, -8305.371797725176, -46264.78061256178, 0.002, 0.796, 0.646, 192.0, 0.0, 0.0, 0.0, 0.0, 0.0, 0.0, 0.0, 0.0, 0.0, 1.6541565400587752E9, 0.0, 2022-06-02 09:55:40.058
33.0, 23659.54502338708, 818.0291435753279, -75206.89221702721, -54328.82062540301, -39771.2859238727, -39742.29571131417, -8294.151222008613, -46275.509449900324, 0.002, 0.796, 0.646, 192.0, 0.0, 0.0, 0.0, 0.0, 0.0, 0.0, 0.0, 0.0, 0.0, 1.6541565400587804E9, 0.0, 2022-06-02 09:55:40.058
34.0, 23670.25150898117, 823.9523558559843, -75204.2994146704, -54329.08884633647, -39770.50361281677, -39751.2811125852, -8271.218332197468, -46271.21791496491, 0.002, 0.796, 0.646, 192.0, 0.0, 0.0, 0.0, 0.0, 0.0, 0.0, 0.0, 0.0, 0.0, 1.6541565400587857E9, 0.0, 2022-06-02 09:55:40.058
35.0, 23663.45657866676, 826.1428268126043, -75191.33540288633, -54316.1695380413, -39769.16250814945, -39737.177161833904, -8249.53714007582, -46223.34047834164, 0.002, 0.796, 0.646, 192.0, 0.0, 0.0, 0.0, 0.0, 0.0, 0.0, 0.0, 0.0, 0.0, 1.6541565400587907E9, 0.0, 2022-06-02 09:55:40.058
36.0, 23665.82586357902, 836.8046089177858, -75166.36850432974, -54295.53887790905, -39753.404528308456, -39715.294804012156, -8240.551738804787, -46199.51351875228, 0.002, 0.796, 0.646, 192.0, 0.0, 0.0, 0.0, 0.0, 0.0, 0.0, 0.0, 0.0, 0.0, 1.654156540058796E9, 0.0, 2022-06-02 09:55:40.058
37.0, 23664.82003507853, 841.4314200200344, -75168.26840260845, -54290.822659828984, -39754.54446727568, -39707.69521089736, -8243.859796984172, -46207.24722233382, 0.004, 0.794, 0.642, 192.0, 0.0, 32.0, 24.0, 208.0, 20.0, 16.0, 0.0, 0.0, 0.0, 1.6541565400588012E9, 0.0, 2022-06-02 09:55:40.058
38.0, 23659.477968153715, 826.0981233236937, -75199.8961210127, -54315.40957872982, -39780.29367688819, -39728.638795451974, -8272.984120009438, -46245.37929837457, 0.004, 0.794, 0.642, 192.0, 0.0, 0.0, 0.0, 0.0, 0.0, 0.0, 0.0, 0.0, 0.0, 1.6541565400588067E9, 0.0, 2022-06-02 09:55:40.058
39.0, 23671.234985737203, 823.2371000334144, -75200.92430125765, -54322.159805555326, -39789.189671181404, -39750.20822885135, -8292.363082452188, -46269.45212715294, 0.004, 0.794, 0.642, 192.0, 0.0, 0.0, 0.0, 0.0, 0.0, 0.0, 0.0, 0.0, 0.0, 1.6541565400588117E9, 0.0, 2022-06-02 09:55:40.058
40.0, 23684.82484636603, 842.1690275870595, -75175.26449862296, -54301.819718101, -39766.34618834808, -39740.10524035755, -8283.40003292561, -46273.16251673252, 0.004, 0.794, 0.642, 192.0, 0.0, 0.0, 0.0, 0.0, 0.0, 0.0, 0.0, 0.0, 0.0, 1.654156540058817E9, 0.0, 2022-06-02 09:55:40.058
41.0, 23674.96772706124, 846.5276177558444, -75167.50844329697, -54297.327017465475, -39761.69702550137, -39733.556179232146, -8290.172611495569, -46270.68147309798, 0.004, 0.794, 0.642, 192.0, 0.0, 0.0, 0.0, 0.0, 0.0, 0.0, 0.0, 0.0, 0.0, 1.6541565400588222E9, 0.0, 2022-06-02 09:55:40.058
42.0, 23661.914308299343, 837.9445478850065, -75180.07012368085, -54304.63603790236, -39772.04588318418, -39727.34239427357, -8296.587562154242, -46253.11300195611, 0.004, 0.794, 0.642, 192.0, 0.0, 0.0, 0.0, 0.0, 0.0, 0.0, 0.0, 0.0, 0.0, 1.654156540058828E9, 0.0, 2022-06-02 09:55:40.058
43.0, 23660.282630954105, 827.7521524133864, -75213.57538861936, -54330.42995100379, -39797.504520118775, -39745.82728693811, -8320.705094421517, -46287.467633183915, 0.004, 0.794, 0.642, 192.0, 0.0, 0.0, 0.0, 0.0, 0.0, 0.0, 0.0, 0.0, 0.0, 1.654156540058836E9, 0.0, 2022-06-02 09:55:40.058
44.0, 23672.218462493238, 829.9426233700066, -75213.79890606391, -54331.63694520437, -39790.664886315455, -39753.44923179737, -8284.159992237092, -46261.53960961576, 0.004, 0.794, 0.642, 192.0, 0.0, 0.0, 0.0, 0.0, 0.0, 0.0, 0.0, 0.0, 0.0, 1.6541565400588412E9, 0.0, 2022-06-02 09:55:40.058
45.0, 23670.363267703447, 827.2380622909144, -75189.07787669633, -54313.64379091785, -39763.2839993577, -39730.80691466414, -8228.593555521198, -46204.58736474364, 0.004, 0.794, 0.642, 192.0, 0.0, 0.0, 0.0, 0.0, 0.0, 0.0, 0.0, 0.0, 0.0, 1.6541565400588465E9, 0.0, 2022-06-02 09:55:40.058
46.0, 23660.97553503222, 828.6462221915988, -75171.39764683219, -54293.214296485705, -39744.374423548514, -39712.14320804396, -8210.756863445862, -46184.984884856334, 0.004, 0.794, 0.642, 192.0, 0.0, 0.0, 0.0, 0.0, 0.0, 0.0, 0.0, 0.0, 0.0, 1.6541565400588517E9, 0.0, 2022-06-02 09:55:40.058
47.0, 23654.53823262909, 830.4567134924786, -75172.76110324396, -54293.50486916362, -39747.36955730552, -39711.942042343864, -8228.906479943571, -46208.92360316797, 0.004, 0.794, 0.642, 192.0, 0.0, 0.0, 24.0, 192.0, 19.0, 208.0, 0.0, 0.0, 0.0, 1.6541565400588567E9, 0.0, 2022-06-02 09:55:40.058
48.0, 23650.29140118258, 817.604460430677, -75207.8533420388, -54323.43385498928, -39777.790281509195, -39738.31710080113, -8265.339823405722, -46253.00124323383, 0.004, 0.794, 0.642, 192.0, 0.0, 0.0, 0.0, 0.0, 0.0, 0.0, 0.0, 0.0, 0.0, 1.654156540058862E9, 0.0, 2022-06-02 09:55:40.058
49.0, 23666.54111940159, 827.8192076467524, -75204.5005803705, -54325.26669803461, -39781.05363619967, -39749.80589745115, -8284.517620148375, -46264.6688538395, 0.004, 0.794, 0.642, 192.0, 0.0, 0.0, 0.0, 0.0, 0.0, 0.0, 0.0, 0.0, 0.0, 1.6541565400588672E9, 0.0, 2022-06-02 09:55:40.058
50.0, 23671.905538070863, 835.9999461173948, -75186.37331561725, -54307.27354374809, -39766.56970579263, -39736.975996133806, -8279.44377415702, -46251.57073158869, 0.004, 0.794, 0.642, 192.0, 0.0, 0.0, 0.0, 0.0, 0.0, 0.0, 0.0, 0.0, 0.0, 1.6541565400588722E9, 0.0, 2022-06-02 09:55:40.058
51.0, 23662.517805399635, 835.9552426284841, -75177.72319051305, -54297.99756979914, -39758.81365046664, -39729.39875476346, -8274.54874212131, -46247.01097571981, 0.004, 0.794, 0.642, 192.0, 0.0, 0.0, 0.0, 0.0, 0.0, 0.0, 0.0, 0.0, 0.0, 1.6541565400588777E9, 0.0, 2022-06-02 09:55:40.058
52.0, 23671.88318632641, 848.3604608011796, -75171.17412938764, -54287.84987781643, -39751.70579572985, -39715.719487156806, -8265.429230383543, -46249.58142633217, 0.004, 0.794, 0.642, 192.0, 0.0, 0.0, 0.0, 0.0, 0.0, 0.0, 0.0, 0.0, 0.0, 1.6541565400588827E9, 0.0, 2022-06-02 09:55:40.058
53.0, 23686.54593068909, 851.3332428137354, -75188.96611797407, -54298.42225294379, -39765.89915345897, -39712.210263277324, -8280.248436957412, -46243.09942044013, 0.004, 0.794, 0.642, 192.0, 0.0, 0.0, 0.0, 0.0, 0.0, 0.0, 0.0, 0.0, 0.0, 1.6541565400588882E9, 0.0, 2022-06-02 09:55:40.058
54.0, 23667.368133946435, 835.1952833170037, -75208.501542628, -54320.23755553217, -39783.802900767674, -39740.7310892023, -8275.554570621798, -46248.19561817594, 0.004, 0.794, 0.642, 192.0, 0.0, 0.0, 0.0, 0.0, 0.0, 0.0, 0.0, 0.0, 0.0, 1.6541565400588932E9, 0.0, 2022-06-02 09:55:40.058
55.0, 23670.7879508481, 839.1738938300483, -75187.66971679566, -54304.65838964682, -39770.168336649935, -39730.65045245295, -8254.163951178069, -46236.84093199264, 0.004, 0.794, 0.642, 192.0, 0.0, 0.0, 0.0, 0.0, 0.0, 0.0, 0.0, 0.0, 0.0, 1.6541565400588984E9, 0.0, 2022-06-02 09:55:40.058
56.0, 23665.848215323476, 837.6092717181768, -75173.67752476664, -54293.10253776342, -39757.69606324388, -39723.900225627454, -8246.653765041085, -46239.07610643817, 0.004, 0.794, 0.642, 192.0, 0.0, 0.0, 0.0, 0.0, 0.0, 0.0, 0.0, 0.0, 0.0, 1.6541565400589037E9, 0.0, 2022-06-02 09:55:40.058
57.0, 23678.745171874187, 849.3215858127578, -75160.22177460454, -54279.26680794559, -39738.67472871241, -39710.399771976445, -8236.327259102734, -46234.98573720286, 0.002, 0.794, 0.634, 192.0, 0.0, 16.0, 24.0, 208.0, 19.0, 208.0, 0.0, 0.0, 0.0, 1.6541565400589087E9, 0.0, 2022-06-02 09:55:40.058
58.0, 23688.35642198997, 848.2263503344477, -75182.57351905985, -54295.47182267569, -39759.86418245604, -39717.66408892442, -8261.674137315053, -46253.26946416729, 0.002, 0.794, 0.634, 192.0, 0.0, 0.0, 0.0, 0.0, 0.0, 0.0, 0.0, 0.0, 0.0, 1.654156540058914E9, 0.0, 2022-06-02 09:55:40.058
59.0, 23680.533311430612, 837.0951815957048, -75196.0963244553, -54308.12291003739, -39783.24410715629, -39731.097487342064, -8278.996739267915, -46233.912853469, 0.002, 0.794, 0.634, 192.0, 0.0, 0.0, 0.0, 0.0, 0.0, 0.0, 0.0, 0.0, 0.0, 1.6541565400589194E9, 0.0, 2022-06-02 09:55:40.058
60.0, 23681.203863764273, 849.2545305793918, -75171.41999857665, -54284.43006091477, -39758.54542953318, -39708.61163242002, -8248.643070297609, -46198.50769025179, 0.002, 0.794, 0.634, 192.0, 0.0, 0.0, 0.0, 0.0, 0.0, 0.0, 0.0, 0.0, 0.0, 1.6541565400589247E9, 0.0, 2022-06-02 09:55:40.058
61.0, 23683.506093443168, 858.4634492949783, -75154.23150709052, -54270.75079330812, -39743.189781092384, -39692.80894909012, -8241.848139983194, -46197.077178606654, 0.002, 0.794, 0.634, 192.0, 0.0, 0.0, 0.0, 0.0, 0.0, 0.0, 0.0, 0.0, 0.0, 1.65415654005893E9, 0.0, 2022-06-02 09:55:40.058
62.0, 23682.321450987038, 858.2846353393359, -75158.63480074822, -54275.91404627729, -39745.87199042702, -39694.30651596862, -8249.224215653447, -46218.110170139094, 0.002, 0.794, 0.634, 192.0, 0.0, 0.0, 0.0, 0.0, 0.0, 0.0, 0.0, 0.0, 0.0, 1.6541565400589352E9, 0.0, 2022-06-02 09:55:40.058
63.0, 23672.129055515416, 840.0009083748947, -75189.86018775227, -54303.65256114633, -39768.49195581579, -39717.21705403532, -8269.050212985303, -46248.37443213158, 0.002, 0.794, 0.634, 192.0, 0.0, 0.0, 0.0, 0.0, 0.0, 0.0, 0.0, 0.0, 0.0, 1.6541565400589404E9, 0.0, 2022-06-02 09:55:40.058
64.0, 23675.68298288381, 839.1738938300483, -75190.91071974167, -54307.832337359476, -39766.480298814815, -39724.168446560914, -8267.597349595708, -46226.46972256538, 0.002, 0.794, 0.634, 192.0, 0.0, 0.0, 0.0, 0.0, 0.0, 0.0, 0.0, 0.0, 0.0, 1.6541565400589476E9, 0.0, 2022-06-02 09:55:40.058
65.0, 23684.377811476927, 850.3721178021572, -75165.63089676273, -54290.88971506235, -39755.17031612043, -39710.17625453189, -8246.989041207915, -46203.73799845434, 0.002, 0.794, 0.634, 192.0, 0.0, 0.0, 0.0, 0.0, 0.0, 0.0, 0.0, 0.0, 0.0, 1.6541565400589528E9, 0.0, 2022-06-02 09:55:40.058
66.0, 23690.032802824117, 857.412917305579, -75143.2344488185, -54274.192961954235, -39738.11593510103, -39695.938193313865, -8225.307849086268, -46198.08300710714, 0.002, 0.794, 0.634, 192.0, 0.0, 0.0, 0.0, 0.0, 0.0, 0.0, 0.0, 0.0, 0.0, 1.654156540058958E9, 0.0, 2022-06-02 09:55:40.058
67.0, 23692.804419136577, 860.4080510625901, -75147.88361166521, -54276.428136399765, -39738.11593510103, -39700.967335816305, -8241.602270794187, -46230.068353422685, 0.004, 0.79, 0.636, 192.0, 0.0, 32.0, 24.0, 176.0, 19.0, 224.0, 0.0, 0.0, 0.0, 1.6541565400589633E9, 0.0, 2022-06-02 09:55:40.058
68.0, 23690.50218945768, 848.4945712679114, -75179.01959169145, -54305.79832861404, -39762.769909235234, -39717.887606368975, -8280.851934057706, -46254.18588568996, 0.004, 0.79, 0.636, 192.0, 0.0, 0.0, 0.0, 0.0, 0.0, 0.0, 0.0, 0.0, 0.0, 1.6541565400589683E9, 0.0, 2022-06-02 09:55:40.058
69.0, 23699.755811662177, 851.959091658484, -75183.26642313796, -54313.8673083624, -39764.9827319363, -39735.14315308847, -8286.216352726979, -46264.78061256178, 0.004, 0.79, 0.636, 192.0, 0.0, 0.0, 0.0, 0.0, 0.0, 0.0, 0.0, 0.0, 0.0, 1.6541565400589736E9, 0.0, 2022-06-02 09:55:40.058
70.0, 23689.228140023726, 848.9192544125623, -75168.8942514532, -54303.9207820798, -39749.20240035086, -39717.731144157784, -8238.048343425793, -46187.28711453523, 0.004, 0.79, 0.636, 192.0, 0.0, 0.0, 0.0, 0.0, 0.0, 0.0, 0.0, 0.0, 0.0, 1.6541565400589788E9, 0.0, 2022-06-02 09:55:40.058
71.0, 23682.477913198225, 849.0980683682047, -75159.90885018217, -54293.88484881936, -39746.67665322741, -39708.76809463121, -8252.755791277385, -46194.81965241667, 0.004, 0.79, 0.636, 192.0, 0.0, 0.0, 0.0, 0.0, 0.0, 0.0, 0.0, 0.0, 0.0, 1.654156540058984E9, 0.0, 2022-06-02 09:55:40.058
72.0, 23682.25439575367, 849.2992340683024, -75165.38502757372, -54296.85763083192, -39756.131441132005, -39711.874987110496, -8279.466125901476, -46228.883710966555, 0.004, 0.79, 0.636, 192.0, 0.0, 0.0, 0.0, 0.0, 0.0, 0.0, 0.0, 0.0, 0.0, 1.6541565400589893E9, 0.0, 2022-06-02 09:55:40.058
73.0, 23679.86275909695, 840.9396816420176, -75188.92141448516, -54315.56604094101, -39771.39768259498, -39723.43083899389, -8277.521524133865, -46229.57661504467, 0.004, 0.79, 0.636, 192.0, 0.0, 0.0, 0.0, 0.0, 0.0, 0.0, 0.0, 0.0, 0.0, 1.6541565400589943E9, 0.0, 2022-06-02 09:55:40.058
74.0, 23694.25728252617, 848.7180887124645, -75179.10899866927, -54308.39113097086, -39759.10422314456, -39730.404583263946, -8252.10759068818, -46229.800132489225, 0.004, 0.79, 0.636, 192.0, 0.0, 0.0, 0.0, 0.0, 0.0, 0.0, 0.0, 0.0, 0.0, 1.6541565400589995E9, 0.0, 2022-06-02 09:55:40.058
75.0, 23689.697526657288, 842.7948764318081, -75172.26936486595, -54305.97714256968, -39760.51238304524, -39731.164542575425, -8257.829637268738, -46230.29187086724, 0.004, 0.79, 0.636, 192.0, 0.0, 0.0, 0.0, 0.0, 0.0, 0.0, 0.0, 0.0, 0.0, 1.6541565400590048E9, 0.0, 2022-06-02 09:55:40.059
76.0, 23683.528445187625, 839.1291903411377, -75160.17707111563, -54296.65646513182, -39753.49393528628, -39719.65339418095, -8246.363192363166, -46209.5047485238, 0.004, 0.79, 0.636, 192.0, 0.0, 0.0, 0.0, 0.0, 0.0, 0.0, 0.0, 0.0, 0.0, 1.65415654005901E9, 0.0, 2022-06-02 09:55:40.059
77.0, 23673.134884015904, 835.8658356506629, -75162.70281823908, -54296.38824419836, -39745.916693915926, -39716.5241499572, -8232.192186378501, -46200.07231236366, 0.004, 0.786, 0.638, 192.0, 0.0, 32.0, 24.0, 144.0, 19.0, 240.0, 0.0, 0.0, 0.0, 1.6541565400590153E9, 0.0, 2022-06-02 09:55:40.059
78.0, 23688.244663267695, 849.7686207018639, -75169.90007995369, -54300.970351811695, -39748.75536546175, -39717.753495902245, -8247.503131330388, -46219.47362655087, 0.004, 0.786, 0.638, 192.0, 0.0, 0.0, 0.0, 0.0, 0.0, 0.0, 0.0, 0.0, 0.0, 1.6541565400590205E9, 0.0, 2022-06-02 09:55:40.059
79.0, 23687.21648302275, 840.0009083748947, -75185.65805979467, -54317.15301479734, -39771.12946166151, -39743.03331888119, -8275.375756666155, -46242.74179252885, 0.004, 0.786, 0.638, 192.0, 0.0, 0.0, 0.0, 0.0, 0.0, 0.0, 0.0, 0.0, 0.0, 1.6541565400590258E9, 0.0, 2022-06-02 09:55:40.059
80.0, 23678.00756430716, 830.2331960479255, -75181.3441731148, -54318.13649155337, -39778.93022047642, -39753.382176564, -8290.59729464022, -46253.15770544502, 0.004, 0.786, 0.638, 192.0, 0.0, 0.0, 0.0, 0.0, 0.0, 0.0, 0.0, 0.0, 0.0, 1.654156540059031E9, 0.0, 2022-06-02 09:55:40.059
81.0, 23681.427381208825, 848.3828125456349, -75156.10905362476, -54294.77891859757, -39758.14309813298, -39727.744725673765, -8287.222181227467, -46238.606719804615, 0.004, 0.786, 0.638, 192.0, 0.0, 0.0, 0.0, 0.0, 0.0, 0.0, 0.0, 0.0, 0.0, 1.6541565400590363E9, 0.0, 2022-06-02 09:55:40.059
82.0, 23686.277709755625, 859.9833679179393, -75144.93318139711, -54288.05104351653, -39743.882685170494, -39707.65050740844, -8265.429230383543, -46221.79820797422, 0.004, 0.786, 0.638, 192.0, 0.0, 0.0, 0.0, 0.0, 0.0, 0.0, 0.0, 0.0, 0.0, 1.6541565400590413E9, 0.0, 2022-06-02 09:55:40.059
83.0, 23684.869549854942, 843.4654287654673, -75175.15273990069, -54314.58256418497, -39765.25095286977, -39727.6776704404, -8278.214428211979, -46252.040118222256, 0.004, 0.786, 0.638, 192.0, 0.0, 0.0, 0.0, 0.0, 0.0, 0.0, 0.0, 0.0, 0.0, 1.6541565400590465E9, 0.0, 2022-06-02 09:55:40.059
84.0, 23680.153331774873, 826.3216407682468, -75195.00108897699, -54333.894471394364, -39781.075987944125, -39755.01385390924, -8294.151222008613, -46273.47544115489, 0.004, 0.786, 0.638, 192.0, 0.0, 0.0, 0.0, 0.0, 0.0, 0.0, 0.0, 0.0, 0.0, 1.6541565400590515E9, 0.0, 2022-06-02 09:55:40.059
85.0, 23683.6402039099, 836.2681670508584, -75171.8893852102, -54316.1695380413, -39759.35009233357, -39735.45607751085, -8263.68579431603, -46228.34726909963, 0.004, 0.786, 0.638, 192.0, 0.0, 0.0, 0.0, 0.0, 0.0, 0.0, 0.0, 0.0, 0.0, 1.6541565400590568E9, 0.0, 2022-06-02 09:55:40.059
86.0, 23678.00756430716, 843.2866148098249, -75158.99242865949, -54306.89356409235, -39745.44730728237, -39723.98963260528, -8251.749962776896, -46203.71564670988, 0.004, 0.786, 0.638, 192.0, 0.0, 0.0, 0.0, 0.0, 0.0, 0.0, 0.0, 0.0, 0.0, 1.654156540059064E9, 0.0, 2022-06-02 09:55:40.059
87.0, 23677.515825929146, 839.5985769746992, -75159.95355367108, -54309.30755249352, -39744.15090610396, -39718.4240482359, -8250.833541254227, -46207.18016710045, 0.002, 0.788, 0.646, 192.0, 0.0, 16.0, 24.0, 160.0, 20.0, 48.0, 0.0, 0.0, 0.0, 1.6541565400590692E9, 0.0, 2022-06-02 09:55:40.059
88.0, 23671.88318632641, 828.0427250913054, -75186.48507433952, -54333.536843483074, -39776.00214195277, -39732.148019331464, -8283.556495136798, -46238.42790584897, 0.002, 0.788, 0.646, 192.0, 0.0, 0.0, 0.0, 0.0, 0.0, 0.0, 0.0, 0.0, 0.0, 1.6541565400590744E9, 0.0, 2022-06-02 09:55:40.059
89.0, 23675.884148583908, 825.092294823205, -75189.88253949673, -54340.55529124204, -39786.328647891125, -39751.504630029754, -8295.49232667593, -46252.44244962245, 0.002, 0.788, 0.646, 192.0, 0.0, 0.0, 0.0, 0.0, 0.0, 0.0, 0.0, 0.0, 0.0, 1.6541565400590796E9, 0.0, 2022-06-02 09:55:40.059
90.0, 23667.54694790208, 819.6161174316546, -75185.56865281686, -54338.18600632978, -39780.89717398849, -39761.47350805682, -8282.148335236114, -46258.186847947465, 0.002, 0.788, 0.646, 192.0, 0.0, 0.0, 0.0, 0.0, 0.0, 0.0, 0.0, 0.0, 0.0, 1.654156540059085E9, 0.0, 2022-06-02 09:55:40.059
91.0, 23670.63148863691, 839.8220944192523, -75156.86901293624, -54310.08986354946, -39758.74659523328, -39734.2267315658, -8270.659538586086, -46236.14802791453, 0.002, 0.788, 0.646, 192.0, 0.0, 0.0, 0.0, 0.0, 0.0, 0.0, 0.0, 0.0, 0.0, 1.65415654005909E9, 0.0, 2022-06-02 09:55:40.059
92.0, 23679.907462585863, 853.7695829593639, -75146.5425069979, -54293.214296485705, -39747.9283509169, -39714.110161556026, -8266.032727483836, -46232.661155779504, 0.002, 0.788, 0.646, 192.0, 0.0, 0.0, 0.0, 0.0, 0.0, 0.0, 0.0, 0.0, 0.0, 1.6541565400590951E9, 0.0, 2022-06-02 09:55:40.059
93.0, 23672.6878491268, 842.4148967760678, -75171.53175729893, -54311.14039553886, -39760.37827257851, -39725.375440761505, -8257.896692502105, -46236.46095233691, 0.002, 0.788, 0.646, 192.0, 0.0, 0.0, 0.0, 0.0, 0.0, 0.0, 0.0, 0.0, 0.0, 1.6541565400591004E9, 0.0, 2022-06-02 09:55:40.059
94.0, 23676.15236951737, 840.0679636082607, -75175.10803641177, -54314.113177551415, -39768.44725232688, -39733.91380714343, -8273.721727576461, -46233.0634871797, 0.002, 0.788, 0.646, 192.0, 0.0, 0.0, 0.0, 0.0, 0.0, 0.0, 0.0, 0.0, 0.0, 1.6541565400591056E9, 0.0, 2022-06-02 09:55:40.059
95.0, 23674.54304391659, 845.2535683218919, -75161.58523101632, -54299.40572969982, -39755.66205449844, -39725.71071692833, -8263.395221638111, -46214.3103735817, 0.002, 0.788, 0.646, 192.0, 0.0, 0.0, 0.0, 0.0, 0.0, 0.0, 0.0, 0.0, 0.0, 1.6541565400591133E9, 0.0, 2022-06-02 09:55:40.059
96.0, 23677.135846273406, 858.2399318504253, -75143.21209707405, -54281.45727890221, -39736.35014728906, -39709.5727574316, -8248.285442386323, -46211.87403343607, 0.002, 0.788, 0.646, 192.0, 0.0, 0.0, 0.0, 0.0, 0.0, 0.0, 0.0, 0.0, 0.0, 1.6541565400591185E9, 0.0, 2022-06-02 09:55:40.059
97.0, 23683.059058554063, 860.3186440847688, -75147.05659712036, -54285.54764813753, -39733.31031004313, -39722.11208607103, -8263.149352449102, -46267.03813875176, 0.004, 0.796, 0.64, 192.0, 0.0, 32.0, 24.0, 224.0, 20.0, 0.0, 0.0, 0.0, 0.0, 1.6541565400591235E9, 0.0, 2022-06-02 09:55:40.059
98.0, 23674.833616594507, 839.2185973189589, -75177.79024574641, -54313.979067084685, -39764.91567670294, -39737.35597578955, -8291.69253011853, -46280.24801972485, 0.004, 0.796, 0.64, 192.0, 0.0, 0.0, 0.0, 0.0, 0.0, 0.0, 0.0, 0.0, 0.0, 1.6541565400591288E9, 0.0, 2022-06-02 09:55:40.059
99.0, 23675.615927650444, 830.9037483815847, -75187.06621969536, -54319.29878226505, -39782.21592691135, -39731.924501886904, -8289.457355673, -46224.256899864304, 0.004, 0.796, 0.64, 192.0, 0.0, 0.0, 0.0, 0.0, 0.0, 0.0, 0.0, 0.0, 0.0, 1.654156540059134E9, 0.0, 2022-06-02 09:55:40.059
100.0, 23685.763619633155, 850.2156555909701, -75159.77473971543, -54295.78474709806, -39756.690234743386, -39710.60093767654, -8261.741192548418, -46191.51159423728, 0.004, 0.796, 0.64, 192.0, 0.0, 0.0, 0.0, 0.0, 0.0, 0.0, 0.0, 0.0, 0.0, 1.6541565400591393E9, 0.0, 2022-06-02 09:55:40.059
101.0, 23682.232044009215, 856.183571360537, -75146.09547210878, -54283.46893590319, -39751.14700211847, -39696.832263092074, -8258.567244835764, -46183.19674529991, 0.004, 0.796, 0.64, 192.0, 0.0, 0.0, 0.0, 0.0, 0.0, 0.0, 0.0, 0.0, 0.0, 1.6541565400591445E9, 0.0, 2022-06-02 09:55:40.059
102.0, 23675.25829973916, 856.9435306720175, -75151.01285588896, -54287.55930513851, -39742.11689735853, -39699.62623114899, -8244.597404551198, -46191.690408192924, 0.004, 0.796, 0.64, 192.0, 0.0, 0.0, 0.0, 0.0, 0.0, 0.0, 0.0, 0.0, 0.0, 1.6541565400591495E9, 0.0, 2022-06-02 09:55:40.059
103.0, 23692.089163314005, 867.895885455118, -75157.18193735862, -54290.64384587334, -39731.4774669978, -39702.509606183725, -8231.320468344746, -46209.41534154598, 0.004, 0.796, 0.64, 192.0, 0.0, 0.0, 0.0, 0.0, 0.0, 0.0, 0.0, 0.0, 0.0, 1.6541565400591547E9, 0.0, 2022-06-02 09:55:40.059
104.0, 23678.521654429635, 844.5159607548668, -75187.22268190655, -54326.00430560164, -39773.5881535516, -39746.6319497385, -8293.190096997036, -46274.950656288944, 0.004, 0.796, 0.64, 192.0, 0.0, 0.0, 0.0, 0.0, 0.0, 0.0, 0.0, 0.0, 0.0, 1.65415654005916E9, 0.0, 2022-06-02 09:55:40.059
105.0, 23677.87345384043, 842.347841542702, -75172.53758579941, -54320.46107297672, -39767.84375522658, -39752.3316445746, -8280.337843935233, -46267.46282189641, 0.004, 0.796, 0.64, 192.0, 0.0, 0.0, 0.0, 0.0, 0.0, 0.0, 0.0, 0.0, 0.0, 1.6541565400591652E9, 0.0, 2022-06-02 09:55:40.059
106.0, 23688.512884201158, 856.2729783383583, -75147.34716979827, -54289.83918307295, -39744.44147878188, -39713.685478411375, -8261.428268126043, -46202.754521698305, 0.004, 0.796, 0.64, 192.0, 0.0, 0.0, 0.0, 0.0, 0.0, 0.0, 0.0, 0.0, 0.0, 1.6541565400591702E9, 0.0, 2022-06-02 09:55:40.059
107.0, 23680.175683519326, 852.1826091030371, -75151.39283554468, -54290.80030808453, -39745.067327626624, -39709.013963820216, -8262.679965815541, -46196.518384995274, 0.002, 0.798, 0.638, 192.0, 0.0, 16.0, 24.0, 240.0, 19.0, 240.0, 0.0, 0.0, 0.0, 1.6541565400591776E9, 0.0, 2022-06-02 09:55:40.059
108.0, 23680.086276541508, 843.1972078320036, -75167.37433283024, -54306.80415711453, -39751.59403700758, -39724.57077796111, -8256.712050045973, -46226.62618477657, 0.002, 0.798, 0.638, 192.0, 0.0, 0.0, 0.0, 0.0, 0.0, 0.0, 0.0, 0.0, 0.0, 1.654156540059183E9, 0.0, 2022-06-02 09:55:40.059
109.0, 23671.39144794839, 828.8920913806071, -75186.82035050636, -54325.445511990256, -39774.862202985554, -39755.05855739815, -8280.337843935233, -46256.39870839104, 0.002, 0.798, 0.638, 192.0, 0.0, 0.0, 0.0, 0.0, 0.0, 0.0, 0.0, 0.0, 0.0, 1.654156540059188E9, 0.0, 2022-06-02 09:55:40.059
110.0, 23675.325354972527, 839.8220944192523, -75172.2917166104, -54310.35808448292, -39766.8379267261, -39742.94391190337, -8279.801402068306, -46237.24326339284, 0.002, 0.798, 0.638, 192.0, 0.0, 0.0, 0.0, 0.0, 0.0, 0.0, 0.0, 0.0, 0.0, 1.6541565400591931E9, 0.0, 2022-06-02 09:55:40.059
111.0, 23680.153331774873, 848.4275160345455, -75153.58330650131, -54292.923723807784, -39733.265606554225, -39720.01102209223, -8229.82290146624, -46206.68842872244, 0.002, 0.798, 0.638, 192.0, 0.0, 0.0, 0.0, 0.0, 0.0, 0.0, 0.0, 0.0, 0.0, 1.6541565400591984E9, 0.0, 2022-06-02 09:55:40.059
112.0, 23695.777201149132, 864.3196063422688, -75137.9817888715, -54275.82463929947, -39706.39880971894, -39698.97803055978, -8198.57516271772, -46191.24337330382, 0.002, 0.798, 0.638, 192.0, 0.0, 0.0, 0.0, 0.0, 0.0, 0.0, 0.0, 0.0, 0.0, 1.6541565400592036E9, 0.0, 2022-06-02 09:55:40.059
113.0, 23678.521654429635, 845.0971061107048, -75179.48897832501, -54310.13456703837, -39746.140211360485, -39722.11208607103, -8246.474951085444, -46229.4648563224, 0.002, 0.798, 0.638, 192.0, 0.0, 0.0, 0.0, 0.0, 0.0, 0.0, 0.0, 0.0, 0.0, 1.6541565400592089E9, 0.0, 2022-06-02 09:55:40.059
114.0, 23664.104779255962, 820.0631523207609, -75207.60747284979, -54341.20349183125, -39785.12165369054, -39760.98176967881, -8294.106518519702, -46272.06728125421, 0.002, 0.798, 0.638, 192.0, 0.0, 0.0, 0.0, 0.0, 0.0, 0.0, 0.0, 0.0, 0.0, 1.654156540059214E9, 0.0, 2022-06-02 09:55:40.059
115.0, 23681.7403056312, 841.185550831026, -75174.81746373385, -54317.89062236436, -39764.28982785819, -39745.87199042702, -8286.864553316183, -46259.505600870325, 0.002, 0.798, 0.638, 192.0, 0.0, 0.0, 0.0, 0.0, 0.0, 0.0, 0.0, 0.0, 0.0, 1.6541565400592191E9, 0.0, 2022-06-02 09:55:40.059
116.0, 23701.231026796228, 865.057213909294, -75142.3403790403, -54282.12783123587, -39724.41431574993, -39701.05674279413, -8227.878299698628, -46196.317219295175, 0.004, 0.792, 0.636, 192.0, 0.0, 32.0, 24.0, 192.0, 19.0, 224.0, 0.0, 0.0, 0.0, 1.6541565400592244E9, 0.0, 2022-06-02 09:55:40.059
117.0, 23693.16204704786, 858.7093184839867, -75152.64453323418, -54289.19098248375, -39733.48912399878, -39699.55917591562, -8236.01433468036, -46199.02178037426, 0.004, 0.792, 0.636, 192.0, 0.0, 0.0, 0.0, 0.0, 0.0, 0.0, 0.0, 0.0, 0.0, 1.6541565400592294E9, 0.0, 2022-06-02 09:55:40.059
118.0, 23678.275785240625, 840.6491089640987, -75187.26738539546, -54319.58935494297, -39764.46864181384, -39722.492065726765, -8266.54681760631, -46230.3142226117, 0.004, 0.792, 0.636, 192.0, 0.0, 0.0, 0.0, 0.0, 0.0, 0.0, 0.0, 0.0, 0.0, 1.6541565400592346E9, 0.0, 2022-06-02 09:55:40.059
119.0, 23673.02312529363, 828.9814983584283, -75208.27802518345, -54337.0237156181, -39783.40056936748, -39746.58724624959, -8285.97048353797, -46250.207275176916, 0.004, 0.792, 0.636, 192.0, 0.0, 0.0, 0.0, 0.0, 0.0, 0.0, 0.0, 0.0, 0.0, 1.6541565400592399E9, 0.0, 2022-06-02 09:55:40.059
120.0, 23677.62758465142, 839.8891496526181, -75193.03413546493, -54319.94698285425, -39777.790281509195, -39739.412336279434, -8301.035559300848, -46238.316147126694, 0.004, 0.792, 0.636, 192.0, 0.0, 0.0, 0.0, 0.0, 0.0, 0.0, 0.0, 0.0, 0.0, 1.6541565400592456E9, 0.0, 2022-06-02 09:55:40.059
121.0, 23671.50320667067, 843.0407456208164, -75176.60560329027, -54305.50775593612, -39765.3850633365, -39720.77098140371, -8274.481686887942, -46208.78949270123, 0.004, 0.792, 0.636, 192.0, 0.0, 0.0, 0.0, 0.0, 0.0, 0.0, 0.0, 0.0, 0.0, 1.6541565405392988E9, 0.0, 2022-06-02 09:55:40.539
122.0, 23666.49641591268, 839.2633008078695, -75181.56769055936, -54309.82164261599, -39763.55222029117, -39724.39196400547, -8259.908349503083, -46220.702972495914, 0.004, 0.792, 0.636, 192.0, 0.0, 0.0, 0.0, 0.0, 0.0, 0.0, 0.0, 0.0, 0.0, 1.6541565405394182E9, 0.0, 2022-06-02 09:55:40.539
123.0, 23678.3875439629, 838.8162659187634, -75200.43256287964, -54321.578660199484, -39776.762101264256, -39740.70873745784, -8292.92187606357, -46258.030385736274, 0.004, 0.792, 0.636, 192.0, 0.0, 0.0, 0.0, 0.0, 0.0, 0.0, 0.0, 0.0, 0.0, 1.6541565405394769E9, 0.0, 2022-06-02 09:55:40.539
124.0, 23691.083334813517, 844.1806845880371, -75200.45491462409, -54323.836186389475, -39784.384046123516, -39753.739804475284, -8319.989838598947, -46276.358816189626, 0.004, 0.792, 0.636, 192.0, 0.0, 0.0, 0.0, 0.0, 0.0, 0.0, 0.0, 0.0, 0.0, 1.6541565405394824E9, 0.0, 2022-06-02 09:55:40.539
125.0, 23681.628546908923, 845.6335479776321, -75190.84366450831, -54318.78469214257, -39780.42778735492, -39756.17614462091, -8312.725521650973, -46274.54832488875, 0.004, 0.792, 0.636, 192.0, 0.0, 0.0, 0.0, 0.0, 0.0, 0.0, 0.0, 0.0, 0.0, 1.6541565405394893E9, 0.0, 2022-06-02 09:55:40.539
126.0, 23675.10183752797, 846.2593968223807, -75173.5434142999, -54306.04419780305, -39762.65815051296, -39735.2772635552, -8263.082297215737, -46218.534853283745, 0.006, 0.8, 0.636, 192.0, 0.0, 48.0, 25.0, 0.0, 19.0, 224.0, 0.0, 0.0, 0.0, 1.6541565405394948E9, 0.0, 2022-06-02 09:55:40.539
127.0, 23663.166005988838, 837.6539752070875, -75181.67944928163, -54315.36487524091, -39760.333569089606, -39740.19464733537, -8254.566282578264, -46230.00129818932, 0.006, 0.8, 0.636, 192.0, 0.0, 0.0, 0.0, 0.0, 0.0, 0.0, 0.0, 0.0, 0.0, 1.6541565405395007E9, 0.0, 2022-06-02 09:55:40.539
128.0, 23664.752979845165, 830.412010003568, -75202.06424022488, -54336.39786677335, -39771.844717484084, -39754.186839364396, -8271.039518241825, -46260.2208566929, 0.006, 0.8, 0.636, 192.0, 0.0, 0.0, 0.0, 0.0, 0.0, 0.0, 0.0, 0.0, 0.0, 1.6541565405395162E9, 0.0, 2022-06-02 09:55:40.539
129.0, 23668.083389769006, 824.0194110893502, -75213.32951943035, -54353.38519255939, -39778.32672337612, -39769.92246746093, -8281.477782902453, -46267.14989747404, 0.006, 0.8, 0.636, 192.0, 0.0, 0.0, 0.0, 0.0, 0.0, 0.0, 0.0, 0.0, 0.0, 1.6541565405395217E9, 0.0, 2022-06-02 09:55:40.539
130.0, 23668.17279674683, 828.1097803246714, -75198.06327796738, -54342.72341045421, -39779.757235021265, -39767.77669999322, -8298.666274388584, -46269.56388587521, 0.006, 0.8, 0.636, 192.0, 0.0, 0.0, 0.0, 0.0, 0.0, 0.0, 0.0, 0.0, 0.0, 1.654156540539527E9, 0.0, 2022-06-02 09:55:40.539
131.0, 23660.752017587667, 834.122399583149, -75182.01472544846, -54330.0723230925, -39767.35201684857, -39752.15283061896, -8289.680873117552, -46253.89531301204, 0.006, 0.8, 0.636, 192.0, 0.0, 0.0, 0.0, 0.0, 0.0, 0.0, 0.0, 0.0, 0.0, 1.6541565405395324E9, 0.0, 2022-06-02 09:55:40.539
132.0, 23667.904575813365, 851.6908707250203, -75170.90590845418, -54315.230764774176, -39758.858353955555, -39726.47067623981, -8282.930646292049, -46229.82248423368, 0.006, 0.8, 0.636, 192.0, 0.0, 0.0, 0.0, 0.0, 0.0, 0.0, 0.0, 0.0, 0.0, 1.6541565405395377E9, 0.0, 2022-06-02 09:55:40.539
133.0, 23676.15236951737, 847.8687224231628, -75187.55795807338, -54329.066494592014, -39767.64258952649, -39723.76611516072, -8286.59633238272, -46230.18011214496, 0.006, 0.8, 0.636, 192.0, 0.0, 0.0, 0.0, 0.0, 0.0, 0.0, 0.0, 0.0, 0.0, 1.654156540539543E9, 0.0, 2022-06-02 09:55:40.539
134.0, 23680.466256197247, 836.2681670508584, -75205.66287108218, -54346.38909654487, -39782.10416818907, -39752.01872015223, -8285.188172482034, -46261.53960961576, 0.006, 0.8, 0.636, 192.0, 0.0, 0.0, 0.0, 0.0, 0.0, 0.0, 0.0, 0.0, 0.0, 1.654156540539548E9, 0.0, 2022-06-02 09:55:40.539
135.0, 23687.88703535641, 845.5217892553555, -75185.50159758348, -54325.93725036827, -39765.34035984759, -39745.514362515736, -8270.346614163711, -46264.80296430623, 0.006, 0.8, 0.636, 192.0, 0.0, 0.0, 0.0, 0.0, 0.0, 0.0, 0.0, 0.0, 0.0, 1.6541565405395532E9, 0.0, 2022-06-02 09:55:40.539
136.0, 23681.025049808628, 846.1029346111935, -75161.24995484948, -54305.39599721385, -39741.53575200269, -39715.2724522677, -8234.025029423838, -46209.08006537915, 0.008, 0.794, 0.628, 192.0, 0.0, 64.0, 24.0, 208.0, 19.0, 160.0, 0.0, 0.0, 0.0, 1.6541565405395584E9, 0.0, 2022-06-02 09:55:40.539
137.0, 23668.329258958016, 838.2574723073808, -75167.66490550815, -54308.45818620422, -39744.21796133732, -39706.37645797449, -8233.130959645625, -46194.842004161124, 0.008, 0.794, 0.628, 192.0, 0.0, 0.0, 0.0, 0.0, 0.0, 0.0, 0.0, 0.0, 0.0, 1.654156540539564E9, 0.0, 2022-06-02 09:55:40.539
138.0, 23669.335087458505, 831.6637076930651, -75195.0457924659, -54328.46299749172, -39771.80001399518, -39721.665051181924, -8280.4048991686, -46243.01001346231, 0.008, 0.794, 0.628, 192.0, 0.0, 0.0, 0.0, 0.0, 0.0, 0.0, 0.0, 0.0, 0.0, 1.6541565405395694E9, 0.0, 2022-06-02 09:55:40.539
139.0, 23672.285517726603, 822.4547889774786, -75206.82516179385, -54339.974145886204, -39785.769854279744, -39738.89824615696, -8301.88492559015, -46266.63580735157, 0.008, 0.794, 0.628, 192.0, 0.0, 0.0, 0.0, 0.0, 0.0, 0.0, 0.0, 0.0, 0.0, 1.6541565405395749E9, 0.0, 2022-06-02 09:55:40.539
140.0, 23663.747151344676, 825.2711087788474, -75191.73773428652, -54328.46299749172, -39783.534679834214, -39730.09165884157, -8298.286294732845, -46238.182036659964, 0.008, 0.794, 0.628, 192.0, 0.0, 0.0, 0.0, 0.0, 0.0, 0.0, 0.0, 0.0, 0.0, 1.65415654053958E9, 0.0, 2022-06-02 09:55:40.539
141.0, 23676.77821836212, 847.3993357896013, -75158.94772517058, -54295.382415697866, -39757.40549056596, -39698.598050904046, -8273.185285709535, -46199.98290538584, 0.008, 0.794, 0.628, 192.0, 0.0, 0.0, 0.0, 0.0, 0.0, 0.0, 0.0, 0.0, 0.0, 1.654156540539585E9, 0.0, 2022-06-02 09:55:40.539
142.0, 23679.125151529926, 855.4683155379672, -75155.21498384656, -54290.64384587334, -39745.62612123801, -39696.60874564752, -8270.3019106748, -46219.47362655087, 0.008, 0.794, 0.628, 192.0, 0.0, 0.0, 0.0, 0.0, 0.0, 0.0, 0.0, 0.0, 0.0, 1.6541565405395904E9, 0.0, 2022-06-02 09:55:40.539
143.0, 23663.166005988838, 836.0446496063054, -75195.93986224412, -54325.82549164599, -39780.60660131057, -39725.46484773932, -8323.3649520117, -46267.127545729585, 0.008, 0.794, 0.628, 192.0, 0.0, 0.0, 0.0, 0.0, 0.0, 0.0, 0.0, 0.0, 0.0, 1.6541565405395966E9, 0.0, 2022-06-02 09:55:40.539
144.0, 23662.473101910724, 815.0340098183167, -75215.0506037534, -54343.93040465479, -39789.27907815923, -39740.06053686864, -8284.204695726, -46234.1140191691, 0.008, 0.794, 0.628, 192.0, 0.0, 0.0, 0.0, 0.0, 0.0, 0.0, 0.0, 0.0, 0.0, 1.654156540539602E9, 0.0, 2022-06-02 09:55:40.539
145.0, 23684.243701010193, 836.3575740286797, -75181.9476702151, -54313.80025312904, -39753.113955630535, -39723.38613550498, -8240.171759149047, -46212.90221368101, 0.008, 0.794, 0.628, 192.0, 0.0, 0.0, 0.0, 0.0, 0.0, 0.0, 0.0, 0.0, 0.0, 1.6541565405396073E9, 0.0, 2022-06-02 09:55:40.539
146.0, 23667.390485690892, 829.3614780141686, -75176.8961759682, -54311.252154261136, -39749.403566050954, -39723.43083899389, -8249.291270886812, -46212.656344492, 0.004, 0.794, 0.64, 192.0, 0.0, 32.0, 24.0, 208.0, 20.0, 0.0, 0.0, 0.0, 0.0, 1.6541565405396123E9, 0.0, 2022-06-02 09:55:40.539
147.0, 23666.5858228905, 827.7745041578418, -75170.12359739824, -54306.71475013671, -39747.41426079444, -39715.495969712254, -8256.712050045973, -46207.560146756194, 0.004, 0.794, 0.64, 192.0, 0.0, 0.0, 0.0, 0.0, 0.0, 0.0, 0.0, 0.0, 0.0, 1.6541565405396233E9, 0.0, 2022-06-02 09:55:40.539
148.0, 23664.328296700514, 820.4207802320458, -75195.4481238661, -54327.27835503559, -39770.50361281677, -39733.06444085413, -8289.949094051015, -46246.3180716417, 0.004, 0.794, 0.64, 192.0, 0.0, 0.0, 0.0, 0.0, 0.0, 0.0, 0.0, 0.0, 0.0, 1.6541565405396285E9, 0.0, 2022-06-02 09:55:40.539
149.0, 23666.339953701492, 816.8221493747413, -75204.81350479288, -54339.61651797492, -39785.34517113509, -39751.57168526312, -8294.710015619996, -46255.594045590646, 0.004, 0.794, 0.64, 192.0, 0.0, 0.0, 0.0, 0.0, 0.0, 0.0, 0.0, 0.0, 0.0, 1.6541565405396335E9, 0.0, 2022-06-02 09:55:40.539
150.0, 23664.976497289717, 815.5257481963334, -75198.21974017855, -54338.54363424106, -39788.47441535883, -39761.652322012465, -8322.381475255666, -46270.39090042006, 0.004, 0.794, 0.64, 192.0, 0.0, 0.0, 0.0, 0.0, 0.0, 0.0, 0.0, 0.0, 0.0, 1.6541565405396423E9, 0.0, 2022-06-02 09:55:40.539
151.0, 23658.62860186441, 820.1078558096715, -75180.8524347368, -54327.41246550232, -39766.36854009254, -39754.41035680895, -8295.760547609396, -46264.57944686168, 0.004, 0.794, 0.64, 192.0, 0.0, 0.0, 0.0, 0.0, 0.0, 0.0, 0.0, 0.0, 0.0, 1.6541565405396476E9, 0.0, 2022-06-02 09:55:40.539
152.0, 23664.26124146715, 834.92706238354, -75167.70960899706, -54316.68362816377, -39744.91086541544, -39737.043051367174, -8257.762582035373, -46239.14316167154, 0.004, 0.794, 0.64, 192.0, 0.0, 0.0, 0.0, 0.0, 0.0, 0.0, 0.0, 0.0, 0.0, 1.6541565405396528E9, 0.0, 2022-06-02 09:55:40.539
153.0, 23662.87543331092, 827.5062832243781, -75188.98846971852, -54328.79827365855, -39761.67467375692, -39732.23742630928, -8260.668308814564, -46225.24037662034, 0.004, 0.794, 0.64, 192.0, 0.0, 0.0, 0.0, 0.0, 0.0, 0.0, 0.0, 0.0, 0.0, 1.654156540539658E9, 0.0, 2022-06-02 09:55:40.539
154.0, 23669.849177580974, 821.1136843101602, -75200.65608032419, -54338.0742476075, -39773.945781462884, -39747.749536961266, -8282.550666636309, -46235.41042034751, 0.004, 0.794, 0.64, 192.0, 0.0, 0.0, 0.0, 0.0, 0.0, 0.0, 0.0, 0.0, 0.0, 1.6541565405396633E9, 0.0, 2022-06-02 09:55:40.539
155.0, 23692.893826114396, 841.6549374645874, -75170.07889390933, -54311.14039553886, -39746.74370846077, -39726.51537972872, -8254.543930833808, -46200.787568186235, 0.004, 0.794, 0.64, 192.0, 0.0, 0.0, 0.0, 0.0, 0.0, 0.0, 0.0, 0.0, 0.0, 1.6541565405396683E9, 0.0, 2022-06-02 09:55:40.539
156.0, 23683.439038209803, 838.8162659187634, -75163.6862949951, -54303.272581490586, -39740.30640605765, -39721.91092037093, -8255.862683756672, -46212.49988228082, 0.004, 0.794, 0.64, 192.0, 0.0, 32.0, 24.0, 208.0, 20.0, 0.0, 0.0, 0.0, 0.0, 1.6541565405396736E9, 0.0, 2022-06-02 09:55:40.539
157.0, 23676.10766602846, 839.1291903411377, -75162.74752172799, -54297.34936920994, -39733.824400165606, -39715.20539703434, -8249.224215653447, -46218.400742817015, 0.004, 0.794, 0.64, 192.0, 0.0, 0.0, 0.0, 0.0, 0.0, 0.0, 0.0, 0.0, 0.0, 1.6541565405397005E9, 0.0, 2022-06-02 09:55:40.539
158.0, 23671.97259330423, 832.4460187490009, -75184.74163827201, -54310.961581583215, -39751.929313174405, -39725.509551228235, -8268.960806007482, -46243.702917540424, 0.004, 0.794, 0.64, 192.0, 0.0, 0.0, 0.0, 0.0, 0.0, 0.0, 0.0, 0.0, 0.0, 1.6541565405397065E9, 0.0, 2022-06-02 09:55:40.539
159.0, 23678.566357918546, 830.5908239592104, -75191.98360347553, -54317.689456664266, -39762.65815051296, -39730.49399024177, -8281.030748013347, -46243.03236520677, 0.004, 0.794, 0.64, 192.0, 0.0, 0.0, 0.0, 0.0, 0.0, 0.0, 0.0, 0.0, 0.0, 1.6541565405397134E9, 0.0, 2022-06-02 09:55:40.539
160.0, 23666.384657190403, 822.2312715329256, -75190.24016740802, -54320.684590421275, -39770.10128141657, -39726.04599309516, -8290.619646384674, -46225.57565278717, 0.004, 0.794, 0.64, 192.0, 0.0, 0.0, 0.0, 0.0, 0.0, 0.0, 0.0, 0.0, 0.0, 1.6541565405397196E9, 0.0, 2022-06-02 09:55:40.539
161.0, 23660.282630954105, 825.315812267758, -75176.6503067792, -54308.41348271531, -39756.198496365374, -39717.395867990956, -8270.458372885987, -46214.1092078816, 0.004, 0.794, 0.64, 192.0, 0.0, 0.0, 0.0, 0.0, 0.0, 0.0, 0.0, 0.0, 0.0, 1.6541565405397253E9, 0.0, 2022-06-02 09:55:40.539
162.0, 23658.20391871976, 825.9863646014172, -75174.92922245614, -54305.708921636215, -39751.59403700758, -39714.15486504494, -8278.68381484554, -46222.82638821917, 0.004, 0.794, 0.64, 192.0, 0.0, 0.0, 0.0, 0.0, 0.0, 0.0, 0.0, 0.0, 0.0, 1.6541565405397313E9, 0.0, 2022-06-02 09:55:40.539
163.0, 23672.218462493238, 830.0096786033724, -75192.14006568672, -54320.01403808762, -39767.91081045995, -39729.64462395247, -8319.185175798557, -46272.69313009896, 0.004, 0.794, 0.64, 192.0, 0.0, 0.0, 0.0, 0.0, 0.0, 0.0, 0.0, 0.0, 0.0, 1.6541565405397372E9, 0.0, 2022-06-02 09:55:40.539
164.0, 23679.39337246339, 821.0689808212496, -75204.7464495595, -54333.71565743872, -39774.370464607535, -39749.694138728875, -8297.056948787804, -46267.97691201889, 0.004, 0.794, 0.64, 192.0, 0.0, 0.0, 0.0, 0.0, 0.0, 0.0, 0.0, 0.0, 0.0, 1.6541565405397427E9, 0.0, 2022-06-02 09:55:40.539
165.0, 23667.72576185772, 812.865890606152, -75199.18086519014, -54329.51352948112, -39778.4384820984, -39745.067327626624, -8278.3038351898, -46234.91868196949, 0.004, 0.794, 0.64, 192.0, 0.0, 0.0, 0.0, 0.0, 0.0, 0.0, 0.0, 0.0, 0.0, 1.654156540539749E9, 0.0, 2022-06-02 09:55:40.539
166.0, 23671.704372370765, 826.2545855348809, -75169.90007995369, -54305.79832861404, -39755.43853705389, -39727.52120822921, -8247.257262141378, -46217.216100360885, 0.004, 0.796, 0.64, 192.0, 0.0, 32.0, 24.0, 224.0, 20.0, 0.0, 0.0, 0.0, 0.0, 1.6541565405397546E9, 0.0, 2022-06-02 09:55:40.539
167.0, 23669.893881069886, 835.217635061459, -75164.31214383985, -54298.01992154359, -39745.15673460445, -39722.76028666023, -8255.750925034396, -46241.15481867252, 0.004, 0.796, 0.64, 192.0, 0.0, 0.0, 0.0, 0.0, 0.0, 0.0, 0.0, 0.0, 0.0, 1.6541565405397604E9, 0.0, 2022-06-02 09:55:40.539
168.0, 23666.49641591268, 825.9640128569619, -75192.85532150928, -54319.008209587126, -39768.58136279361, -39743.43565028139, -8307.3611029817, -46289.7251593739, 0.004, 0.796, 0.64, 192.0, 0.0, 0.0, 0.0, 0.0, 0.0, 0.0, 0.0, 0.0, 0.0, 1.6541565405397663E9, 0.0, 2022-06-02 09:55:40.539
169.0, 23685.49539869969, 833.3847920161238, -75187.55795807338, -54314.44845371824, -39768.20138313787, -39736.95364438935, -8299.11330927769, -46253.560036845214, 0.004, 0.796, 0.64, 192.0, 0.0, 0.0, 0.0, 0.0, 0.0, 0.0, 0.0, 0.0, 0.0, 1.654156540539772E9, 0.0, 2022-06-02 09:55:40.539
170.0, 23695.397221493393, 843.9571671434841, -75172.62699277724, -54304.43487220226, -39761.652322012465, -39730.91867338642, -8289.837335328739, -46246.04985070823, 0.004, 0.796, 0.64, 192.0, 0.0, 0.0, 0.0, 0.0, 0.0, 0.0, 0.0, 0.0, 0.0, 1.6541565405397778E9, 0.0, 2022-06-02 09:55:40.539
171.0, 23686.612985922457, 850.5509317577996, -75163.239260106, -54295.94120930925, -39751.72814747431, -39717.84290288006, -8282.573018380765, -46229.84483597813, 0.004, 0.796, 0.64, 192.0, 0.0, 0.0, 0.0, 0.0, 0.0, 0.0, 0.0, 0.0, 0.0, 1.654156540539786E9, 0.0, 2022-06-02 09:55:40.539
172.0, 23665.177662989816, 839.9338531415289, -75173.16343464416, -54305.97714256968, -39748.68831022839, -39722.492065726765, -8267.396183895611, -46236.52800757027, 0.004, 0.796, 0.64, 192.0, 0.0, 0.0, 0.0, 0.0, 0.0, 0.0, 0.0, 0.0, 0.0, 1.6541565405397918E9, 0.0, 2022-06-02 09:55:40.539
173.0, 23667.614003135444, 830.8590448926741, -75188.78730401842, -54321.93628811077, -39754.231542853304, -39730.538693730676, -8266.502114117398, -46245.803981519224, 0.004, 0.796, 0.64, 192.0, 0.0, 0.0, 0.0, 0.0, 0.0, 0.0, 0.0, 0.0, 0.0, 1.6541565405397975E9, 0.0, 2022-06-02 09:55:40.539
174.0, 23676.82292185103, 825.2934605233027, -75198.97969949004, -54329.4241225033, -39770.525964561224, -39737.08775485608, -8287.825678327761, -46234.44929533593, 0.004, 0.796, 0.64, 192.0, 0.0, 0.0, 0.0, 0.0, 0.0, 0.0, 0.0, 0.0, 0.0, 1.6541565405398207E9, 0.0, 2022-06-02 09:55:40.539
175.0, 23680.06392479705, 829.0038501028837, -75186.61918480626, -54322.986820100174, -39777.790281509195, -39739.01000487924, -8311.74204489494, -46250.073164710186, 0.004, 0.796, 0.64, 192.0, 0.0, 0.0, 0.0, 0.0, 0.0, 0.0, 0.0, 0.0, 0.0, 1.654156540539826E9, 0.0, 2022-06-02 09:55:40.539
176.0, 23672.129055515416, 833.1389228271155, -75171.241184621, -54312.25798276162, -39759.417147566935, -39734.67376645491, -8287.624512627663, -46258.030385736274, 0.004, 0.796, 0.64, 192.0, 0.0, 0.0, 24.0, 192.0, 19.0, 224.0, 0.0, 0.0, 0.0, 1.6541565405398307E9, 0.0, 2022-06-02 09:55:40.539
177.0, 23676.621756150933, 840.8279229197411, -75160.2888298379, -54298.9139913218, -39739.702908957355, -39714.37838248949, -8269.29608217431, -46224.18984463094, 0.004, 0.796, 0.64, 192.0, 0.0, 0.0, 0.0, 0.0, 0.0, 0.0, 0.0, 0.0, 0.0, 1.654156540539836E9, 0.0, 2022-06-02 09:55:40.539
178.0, 23669.40214269187, 826.8804343796295, -75191.40245811969, -54322.09275032196, -39762.16641213494, -39724.41431574993, -8291.06668127378, -46235.52217906978, 0.004, 0.796, 0.64, 192.0, 0.0, 0.0, 0.0, 0.0, 0.0, 0.0, 0.0, 0.0, 0.0, 1.6541565405398414E9, 0.0, 2022-06-02 09:55:40.539
179.0, 23661.623735621422, 810.0495708047832, -75216.95050203211, -54346.545558756065, -39784.60756356807, -39756.35495857656, -8303.650713402118, -46269.0721474972, 0.004, 0.796, 0.64, 192.0, 0.0, 0.0, 0.0, 0.0, 0.0, 0.0, 0.0, 0.0, 0.0, 1.654156540539847E9, 0.0, 2022-06-02 09:55:40.539
180.0, 23670.40797119236, 821.672477921543, -75194.26348140997, -54326.78661665757, -39767.307313359655, -39746.699004971866, -8299.78386161135, -46265.942903273455, 0.004, 0.796, 0.64, 192.0, 0.0, 0.0, 0.0, 0.0, 0.0, 0.0, 0.0, 0.0, 0.0, 1.654156540539852E9, 0.0, 2022-06-02 09:55:40.539
181.0, 23663.25541296666, 823.0806378222272, -75175.1974433896, -54312.48150020617, -39747.81659219463, -39734.33849028808, -8278.34853867871, -46247.23449316436, 0.004, 0.796, 0.64, 192.0, 0.0, 0.0, 0.0, 0.0, 0.0, 0.0, 0.0, 0.0, 0.0, 1.6541565405398571E9, 0.0, 2022-06-02 09:55:40.539
182.0, 23655.499357640667, 827.5286349688333, -75176.13621665671, -54309.08403504897, -39748.82242069512, -39728.929368129895, -8276.761564822384, -46242.00418496182, 0.004, 0.796, 0.64, 192.0, 0.0, 0.0, 0.0, 0.0, 0.0, 0.0, 0.0, 0.0, 0.0, 1.6541565405398624E9, 0.0, 2022-06-02 09:55:40.539
183.0, 23655.499357640667, 822.0524575772831, -75200.2984524129, -54325.37845675689, -39774.169298907436, -39739.702908957355, -8302.913105835094, -46267.64163585206, 0.004, 0.796, 0.64, 192.0, 0.0, 0.0, 0.0, 0.0, 0.0, 0.0, 0.0, 0.0, 0.0, 1.6541565405398676E9, 0.0, 2022-06-02 09:55:40.539
184.0, 23664.909442056352, 812.9552975839732, -75216.257597954, -54341.67287846481, -39794.62114508404, -39764.312179602646, -8317.397036242131, -46282.237324981375, 0.004, 0.796, 0.64, 192.0, 0.0, 0.0, 0.0, 0.0, 0.0, 0.0, 0.0, 0.0, 0.0, 1.654156540539873E9, 0.0, 2022-06-02 09:55:40.539
185.0, 23673.87249158293, 825.7628471568642, -75194.10701919878, -54321.35514275493, -39778.639647798496, -39752.130478874504, -8299.359178466699, -46261.2713886823, 0.004, 0.796, 0.64, 192.0, 0.0, 0.0, 0.0, 0.0, 0.0, 0.0, 0.0, 0.0, 0.0, 1.654156540539878E9, 0.0, 2022-06-02 09:55:40.539
186.0, 23665.177662989816, 828.7579809138753, -75179.8466062363, -54304.47957569118, -39765.228601125316, -39738.31710080113, -8299.292123233334, -46251.21310367741, 0.004, 0.796, 0.64, 192.0, 0.0, 0.0, 24.0, 192.0, 19.0, 224.0, 0.0, 0.0, 0.0, 1.6541565405398831E9, 0.0, 2022-06-02 09:55:40.539
187.0, 23668.753942102667, 836.0222978618501, -75174.81746373385, -54297.0140930431, -39757.09256614358, -39729.376403019, -8310.423291972076, -46250.16257168801, 0.004, 0.796, 0.64, 192.0, 0.0, 0.0, 0.0, 0.0, 0.0, 0.0, 0.0, 0.0, 0.0, 1.6541565405398884E9, 0.0, 2022-06-02 09:55:40.539
188.0, 23678.611061407457, 844.2477398214031, -75185.14396967221, -54299.629247144374, -39761.56291503464, -39726.80595240664, -8322.627344444674, -46273.006054521335, 0.004, 0.796, 0.64, 192.0, 0.0, 0.0, 0.0, 0.0, 0.0, 0.0, 0.0, 0.0, 0.0, 1.6541565405398936E9, 0.0, 2022-06-02 09:55:40.539
189.0, 23676.30883172856, 830.5908239592104, -75201.7513158025, -54315.230764774176, -39776.5385838197, -39745.02262413772, -8310.423291972076, -46269.80975506422, 0.004, 0.796, 0.64, 192.0, 0.0, 0.0, 0.0, 0.0, 0.0, 0.0, 0.0, 0.0, 0.0, 1.6541565405398989E9, 0.0, 2022-06-02 09:55:40.539
190.0, 23670.40797119236, 823.572376200244, -75195.47047561055, -54312.70501765073, -39777.99144720929, -39739.32292930161, -8291.424309185066, -46227.74377199933, 0.004, 0.796, 0.64, 192.0, 0.0, 0.0, 0.0, 0.0, 0.0, 0.0, 0.0, 0.0, 0.0, 1.654156540539904E9, 0.0, 2022-06-02 09:55:40.539
191.0, 23660.886128054397, 825.2264052899368, -75183.35583011578, -54303.898430335335, -39765.005083680764, -39729.91284488593, -8263.931663505038, -46215.740885226835, 0.004, 0.796, 0.64, 192.0, 0.0, 0.0, 0.0, 0.0, 0.0, 0.0, 0.0, 0.0, 0.0, 1.6541565405399091E9, 0.0, 2022-06-02 09:55:40.539
192.0, 23672.218462493238, 838.056306607283, -75170.6376875207, -54292.32022670749, -39739.61350197953, -39722.71558317132, -8258.097858202203, -46241.825371006176, 0.004, 0.796, 0.64, 192.0, 0.0, 0.0, 0.0, 0.0, 0.0, 0.0, 0.0, 0.0, 0.0, 1.6541565405399165E9, 0.0, 2022-06-02 09:55:40.539
193.0, 23670.139750258895, 832.7142396824646, -75186.01568770596, -54301.46209018971, -39752.555162019155, -39717.30646101313, -8274.124058976658, -46235.589234303145, 0.004, 0.796, 0.64, 192.0, 0.0, 0.0, 0.0, 0.0, 0.0, 0.0, 0.0, 0.0, 0.0, 1.6541565405399215E9, 0.0, 2022-06-02 09:55:40.539
194.0, 23656.281668696603, 811.0106958163615, -75218.47042065507, -54334.54267198357, -39785.389874624, -39752.62221725252, -8308.612800671197, -46261.338443915665, 0.004, 0.796, 0.64, 192.0, 0.0, 0.0, 0.0, 0.0, 0.0, 0.0, 0.0, 0.0, 0.0, 1.6541565405399268E9, 0.0, 2022-06-02 09:55:40.539
195.0, 23672.553738660066, 829.6073472031769, -75195.31401339937, -54318.56117469802, -39774.77279600773, -39742.38511829199, -8305.796480869827, -46247.145086186545, 0.002, 0.794, 0.636, 192.0, 0.0, 16.0, 24.0, 208.0, 19.0, 224.0, 0.0, 0.0, 0.0, 1.654156540539932E9, 0.0, 2022-06-02 09:55:40.539
196.0, 23674.140712516393, 841.9231583980511, -75167.4860915525, -54295.13654650886, -39750.118821873526, -39716.63590867948, -8279.39907066811, -46215.874995693564, 0.002, 0.794, 0.636, 192.0, 0.0, 0.0, 0.0, 0.0, 0.0, 0.0, 0.0, 0.0, 0.0, 1.6541565405399373E9, 0.0, 2022-06-02 09:55:40.539
197.0, 23669.178625247318, 844.538312499322, -75163.61923976174, -54289.928590050775, -39734.29378679917, -39706.063533552115, -8252.956956977481, -46194.88670765003, 0.002, 0.794, 0.636, 192.0, 0.0, 0.0, 0.0, 0.0, 0.0, 0.0, 0.0, 0.0, 0.0, 1.6541565405399425E9, 0.0, 2022-06-02 09:55:40.539
198.0, 23670.676192125822, 840.9396816420176, -75186.37331561725, -54307.00532281463, -39755.505592287256, -39713.93134760039, -8286.305759704801, -46225.21802487589, 0.002, 0.794, 0.636, 192.0, 0.0, 0.0, 0.0, 0.0, 0.0, 0.0, 0.0, 0.0, 0.0, 1.6541565405399475E9, 0.0, 2022-06-02 09:55:40.539
199.0, 23660.01441002064, 815.413989474057, -75222.96312129058, -54341.13643659788, -39795.96224975136, -39755.080909142605, -8347.393077301154, -46284.40544419354, 0.002, 0.794, 0.636, 192.0, 0.0, 0.0, 0.0, 0.0, 0.0, 0.0, 0.0, 0.0, 0.0, 1.6541565405399528E9, 0.0, 2022-06-02 09:55:40.539
200.0, 23664.462407167248, 820.1525592985821, -75206.06520248236, -54328.68651493627, -39783.24410715629, -39751.6834439854, -8319.565155454296, -46258.745641558846, 0.002, 0.794, 0.636, 192.0, 0.0, 0.0, 0.0, 0.0, 0.0, 0.0, 0.0, 0.0, 0.0, 1.654156540539958E9, 0.0, 2022-06-02 09:55:40.539
201.0, 23657.01927626363, 820.1525592985821, -75192.27417615344, -54320.7739973991, -39769.65424652747, -39744.933217159894, -8291.625474885162, -46243.92643498498, 0.002, 0.794, 0.636, 192.0, 0.0, 0.0, 0.0, 0.0, 0.0, 0.0, 0.0, 0.0, 0.0, 1.6541565405399632E9, 0.0, 2022-06-02 09:55:40.539
202.0, 23669.20097699177, 835.1505798280931, -75176.33738235681, -54302.60202915693, -39756.64553125448, -39730.35987977504, -8290.68670161804, -46251.77189728879, 0.002, 0.794, 0.636, 192.0, 0.0, 0.0, 0.0, 0.0, 0.0, 0.0, 0.0, 0.0, 0.0, 1.6541565405399687E9, 0.0, 2022-06-02 09:55:40.539
203.0, 23665.31177345655, 828.2662425358585, -75198.91264425668, -54318.06943632, -39766.748519748275, -39740.08288861309, -8297.079300532258, -46275.48709815587, 0.002, 0.794, 0.636, 192.0, 0.0, 0.0, 0.0, 0.0, 0.0, 0.0, 0.0, 0.0, 0.0, 1.654156540539974E9, 0.0, 2022-06-02 09:55:40.539
204.0, 23658.270973953127, 813.6258499176324, -75222.33727244583, -54337.6272127184, -39786.93214499142, -39757.941932432885, -8319.967486854493, -46277.38699643457, 0.002, 0.794, 0.636, 192.0, 0.0, 0.0, 0.0, 0.0, 0.0, 0.0, 0.0, 0.0, 0.0, 1.6541565405399792E9, 0.0, 2022-06-02 09:55:40.539
205.0, 23659.321505942527, 812.8211871172414, -75206.53458911594, -54323.45620673373, -39771.375330850526, -39744.88851367099, -8290.083204517747, -46238.80788550471, 0.006, 0.802, 0.638, 192.0, 0.0, 48.0, 25.0, 16.0, 19.0, 240.0, 0.0, 0.0, 0.0, 1.6541565405399847E9, 0.0, 2022-06-02 09:55:40.539
206.0, 23657.44395940828, 821.9630505994619, -75180.91948997015, -54305.373645469386, -39751.05759514065, -39725.46484773932, -8258.343727391211, -46204.0062193878, 0.006, 0.802, 0.638, 192.0, 0.0, 0.0, 0.0, 0.0, 0.0, 0.0, 0.0, 0.0, 0.0, 1.65415654053999E9, 0.0, 2022-06-02 09:55:40.539
207.0, 23658.047456508575, 825.2934605233027, -75175.82329223434, -54299.9645233112, -39745.559066004644, -39718.91578661392, -8266.680928073041, -46208.700085723416, 0.006, 0.802, 0.638, 192.0, 0.0, 0.0, 0.0, 0.0, 0.0, 0.0, 0.0, 0.0, 0.0, 1.654156540539995E9, 0.0, 2022-06-02 09:55:40.539
208.0, 23662.24958446617, 818.3644197421575, -75201.37133614675, -54323.59031720046, -39769.743653505284, -39739.32292930161, -8305.93059133656, -46257.60570259162, 0.006, 0.802, 0.638, 192.0, 0.0, 0.0, 0.0, 0.0, 0.0, 0.0, 0.0, 0.0, 0.0, 1.6541565405400004E9, 0.0, 2022-06-02 09:55:40.540
209.0, 23657.667476852832, 803.5675649127442, -75225.01948178047, -54350.77003845812, -39795.96224975136, -39772.559973306656, -8338.98882138596, -46294.91076408753, 0.006, 0.802, 0.638, 192.0, 0.0, 0.0, 0.0, 0.0, 0.0, 0.0, 0.0, 0.0, 0.0, 1.6541565405400057E9, 0.0, 2022-06-02 09:55:40.540
210.0, 23662.182529232807, 816.866852863652, -75198.8008855344, -54330.16173007032, -39775.44334834139, -39759.43949931139, -8306.22116401448, -46270.05562425323, 0.006, 0.802, 0.638, 192.0, 0.0, 0.0, 0.0, 0.0, 0.0, 0.0, 0.0, 0.0, 0.0, 1.6541565405400112E9, 0.0, 2022-06-02 09:55:40.540
211.0, 23659.388561175892, 824.0864663227161, -75180.33834461431, -54317.667104919805, -39760.668845256434, -39752.04107189668, -8296.2075824985, -46274.99535977785, 0.006, 0.802, 0.638, 192.0, 0.0, 0.0, 0.0, 0.0, 0.0, 0.0, 0.0, 0.0, 0.0, 1.6541565405400164E9, 0.0, 2022-06-02 09:55:40.540
212.0, 23656.594593118978, 820.5548906987776, -75181.45593183707, -54309.84399436045, -39757.740766732786, -39740.753440946755, -8292.363082452188, -46261.36079566012, 0.006, 0.802, 0.638, 192.0, 0.0, 0.0, 0.0, 0.0, 0.0, 0.0, 0.0, 0.0, 0.0, 1.6541565405400217E9, 0.0, 2022-06-02 09:55:40.540
213.0, 23646.804529047553, 801.1759282560264, -75210.69201358462, -54331.7710556711, -39782.73001703382, -39743.65916772594, -8305.707073892007, -46244.619339063094, 0.006, 0.802, 0.638, 192.0, 0.0, 0.0, 0.0, 0.0, 0.0, 0.0, 0.0, 0.0, 0.0, 1.654156540540027E9, 0.0, 2022-06-02 09:55:40.540
214.0, 23649.956125015753, 797.0855590207052, -75223.05252826841, -54342.008154631636, -39795.202290439884, -39758.18780162189, -8322.537937466854, -46261.316092171204, 0.006, 0.802, 0.638, 192.0, 0.0, 0.0, 0.0, 0.0, 0.0, 0.0, 0.0, 0.0, 0.0, 1.6541565405400343E9, 0.0, 2022-06-02 09:55:40.540
215.0, 23656.706351841254, 812.7317801394202, -75201.63955708023, -54321.80217764404, -39777.27619138672, -39752.979845163805, -8330.450455004031, -46270.68147309798, 0.008, 0.802, 0.64, 192.0, 0.0, 64.0, 25.0, 16.0, 20.0, 0.0, 0.0, 0.0, 0.0, 1.6541565405400395E9, 0.0, 2022-06-02 09:55:40.540
216.0, 23643.004732490153, 807.8814515926184, -75193.19059767612, -54312.59325892845, -39770.77183375023, -39733.3773652765, -8317.955829853516, -46237.15385641502, 0.008, 0.802, 0.64, 192.0, 0.0, 0.0, 0.0, 0.0, 0.0, 0.0, 0.0, 0.0, 0.0, 1.654156540540045E9, 0.0, 2022-06-02 09:55:40.540
217.0, 23623.53636306958, 792.8387275741968, -75202.6006820918, -54325.87019513491, -39771.10710991706, -39743.72622295931, -8294.3076842198, -46245.24518790784, 0.008, 0.802, 0.64, 192.0, 0.0, 0.0, 0.0, 0.0, 0.0, 0.0, 0.0, 0.0, 0.0, 1.6541565405400505E9, 0.0, 2022-06-02 09:55:40.540
218.0, 23635.829822519998, 799.6336578886102, -75213.37422291926, -54334.05093360555, -39777.25383964227, -39746.25197008276, -8315.944172852538, -46280.560944147226, 0.008, 0.802, 0.64, 192.0, 0.0, 0.0, 0.0, 0.0, 0.0, 0.0, 0.0, 0.0, 0.0, 1.6541565405400555E9, 0.0, 2022-06-02 09:55:40.540
219.0, 23652.124244227918, 799.700713121976, -75221.13027824525, -54344.33273605499, -39788.005028725274, -39751.996368407774, -8318.626382187174, -46266.1217172291, 0.008, 0.802, 0.64, 192.0, 0.0, 0.0, 0.0, 0.0, 0.0, 0.0, 0.0, 0.0, 0.0, 1.6541565405400612E9, 0.0, 2022-06-02 09:55:40.540
220.0, 23651.11841572743, 804.7298556244202, -75200.36550764627, -54334.83324466148, -39773.185822151405, -39743.63681598149, -8274.392279910122, -46225.173321386974, 0.008, 0.802, 0.64, 192.0, 0.0, 0.0, 0.0, 0.0, 0.0, 0.0, 0.0, 0.0, 0.0, 1.6541565405400665E9, 0.0, 2022-06-02 09:55:40.540
221.0, 23648.43620639279, 813.4023324730794, -75181.59004230381, -54320.79634914355, -39759.126574889015, -39739.18881883488, -8262.009413481881, -46222.98285043035, 0.008, 0.802, 0.64, 192.0, 0.0, 0.0, 0.0, 0.0, 0.0, 0.0, 0.0, 0.0, 0.0, 1.654156540540072E9, 0.0, 2022-06-02 09:55:40.540
222.0, 23659.74618908718, 829.6073472031769, -75166.50261479648, -54305.373645469386, -39748.06246138364, -39727.72237392931, -8264.758678049884, -46232.795266246234, 0.008, 0.802, 0.64, 192.0, 0.0, 0.0, 0.0, 0.0, 0.0, 0.0, 0.0, 0.0, 0.0, 1.6541565405400772E9, 0.0, 2022-06-02 09:55:40.540
223.0, 23662.338991443994, 827.282765779825, -75180.40539984767, -54315.320171752, -39760.668845256434, -39729.59992046355, -8273.632320598641, -46245.87103675259, 0.008, 0.802, 0.64, 192.0, 0.0, 0.0, 0.0, 0.0, 0.0, 0.0, 0.0, 0.0, 0.0, 1.6541565405400853E9, 0.0, 2022-06-02 09:55:40.540
224.0, 23665.66940136783, 817.4032947305793, -75197.81740877837, -54329.51352948112, -39780.83011875512, -39747.63777823899, -8302.555477923808, -46256.24224617985, 0.008, 0.802, 0.64, 192.0, 0.0, 0.0, 0.0, 0.0, 0.0, 0.0, 0.0, 0.0, 0.0, 1.65415654054009E9, 0.0, 2022-06-02 09:55:40.540
225.0, 23677.35936371796, 831.216672803959, -75174.32572535584, -54307.49706119264, -39761.093528401085, -39738.25004556776, -8283.221218969968, -46236.48330408136, 0.01, 0.792, 0.64, 192.0, 0.0, 80.0, 24.0, 192.0, 20.0, 0.0, 0.0, 0.0, 0.0, 1.6541565405400958E9, 0.0, 2022-06-02 09:55:40.540
226.0, 23675.057134039063, 836.9163676400624, -75152.57747800082, -54284.474764403676, -39737.91476940093, -39722.290900026666, -8261.651785570597, -46225.48624580935, 0.01, 0.792, 0.64, 192.0, 0.0, 0.0, 0.0, 0.0, 0.0, 0.0, 0.0, 0.0, 0.0, 1.6541565405401013E9, 0.0, 2022-06-02 09:55:40.540
227.0, 23674.7889131056, 841.3867165311237, -75151.21402158905, -54274.43883114324, -39726.91771112892, -39712.61259467752, -8247.39137260811, -46227.073219665675, 0.01, 0.792, 0.64, 192.0, 0.0, 0.0, 0.0, 0.0, 0.0, 0.0, 0.0, 0.0, 0.0, 1.6541565405401068E9, 0.0, 2022-06-02 09:55:40.540
228.0, 23670.296212470083, 829.83086464773, -75184.16049291617, -54294.533049408565, -39746.18491484939, -39724.01198434973, -8277.20859971149, -46246.80981001971, 0.01, 0.792, 0.64, 192.0, 0.0, 0.0, 0.0, 0.0, 0.0, 0.0, 0.0, 0.0, 0.0, 1.654156540540112E9, 0.0, 2022-06-02 09:55:40.540
229.0, 23657.220441963727, 807.188547514504, -75215.94467353162, -54328.507700980634, -39789.614354326055, -39762.412281323945, -8338.675896963585, -46296.0283513103, 0.01, 0.792, 0.64, 192.0, 0.0, 0.0, 0.0, 0.0, 0.0, 0.0, 0.0, 0.0, 0.0, 1.6541565405401173E9, 0.0, 2022-06-02 09:55:40.540
230.0, 23651.6325058499, 805.0651317912498, -75203.87473152575, -54325.73608466818, -39784.80872926817, -39763.619275524536, -8319.07341707628, -46282.7737668483, 0.01, 0.792, 0.64, 192.0, 0.0, 0.0, 0.0, 0.0, 0.0, 0.0, 0.0, 0.0, 0.0, 1.6541565405401225E9, 0.0, 2022-06-02 09:55:40.540
231.0, 23655.097026240473, 818.6326406756211, -75177.45496957957, -54300.612723900405, -39758.81365046664, -39728.035298351686, -8271.508904875387, -46217.506673038806, 0.01, 0.792, 0.64, 192.0, 0.0, 0.0, 0.0, 0.0, 0.0, 0.0, 0.0, 0.0, 0.0, 1.6541565405401275E9, 0.0, 2022-06-02 09:55:40.540
232.0, 23650.403159904858, 818.6326406756211, -75174.07985616683, -54296.432947687266, -39751.39287130748, -39720.14513255896, -8258.455486113487, -46213.12573112556, 0.01, 0.792, 0.64, 192.0, 0.0, 0.0, 0.0, 0.0, 0.0, 0.0, 0.0, 0.0, 0.0, 1.6541565405401332E9, 0.0, 2022-06-02 09:55:40.540
233.0, 23659.835596064997, 820.4654837209564, -75188.80965576287, -54311.81094787252, -39762.81461272414, -39734.04791761016, -8291.69253011853, -46262.657196838525, 0.01, 0.792, 0.64, 192.0, 0.0, 0.0, 0.0, 0.0, 0.0, 0.0, 0.0, 0.0, 0.0, 1.6541565405401385E9, 0.0, 2022-06-02 09:55:40.540
234.0, 23665.803511834565, 817.5821086862218, -75199.6502518237, -54320.259907276624, -39783.333514134116, -39731.81274316463, -8309.439815216043, -46236.90798722601, 0.01, 0.792, 0.64, 192.0, 0.0, 0.0, 0.0, 0.0, 0.0, 0.0, 0.0, 0.0, 0.0, 1.6541565405401437E9, 0.0, 2022-06-02 09:55:40.540
235.0, 23674.49834042768, 826.5451582127998, -75170.70474275408, -54295.449470931235, -39766.34618834808, -39711.38324873248, -8279.466125901476, -46195.557259983696, 0.006, 0.786, 0.64, 192.0, 0.0, 48.0, 24.0, 144.0, 20.0, 0.0, 0.0, 0.0, 0.0, 1.654156540540152E9, 0.0, 2022-06-02 09:55:40.540
236.0, 23675.235947994704, 837.5869199737216, -75143.65913196316, -54274.77410731007, -39730.605748964044, -39698.866271837505, -8230.560509033265, -46183.71083542238, 0.006, 0.786, 0.64, 192.0, 0.0, 0.0, 0.0, 0.0, 0.0, 0.0, 0.0, 0.0, 0.0, 1.6541565405401573E9, 0.0, 2022-06-02 09:55:40.540
237.0, 23677.381715462416, 841.6549374645874, -75139.70287319456, -54269.432040385254, -39720.43570523688, -39694.395922946445, -8231.566337533754, -46191.10926283709, 0.006, 0.786, 0.64, 192.0, 0.0, 0.0, 0.0, 0.0, 0.0, 0.0, 0.0, 0.0, 0.0, 1.6541565405401623E9, 0.0, 2022-06-02 09:55:40.540
238.0, 23678.141674773895, 835.7093734394757, -75163.239260106, -54283.87126730338, -39740.97695839131, -39701.66023989442, -8262.836428026727, -46214.17626311496, 0.006, 0.786, 0.64, 192.0, 0.0, 0.0, 0.0, 0.0, 0.0, 0.0, 0.0, 0.0, 0.0, 1.6541565405401676E9, 0.0, 2022-06-02 09:55:40.540
239.0, 23672.084352026504, 822.9018238665848, -75186.28390863942, -54304.27840999108, -39759.886534200494, -39727.118876829016, -8286.842201571728, -46238.182036659964, 0.006, 0.786, 0.64, 192.0, 0.0, 0.0, 0.0, 0.0, 0.0, 0.0, 0.0, 0.0, 0.0, 1.6541565405401728E9, 0.0, 2022-06-02 09:55:40.540
240.0, 23668.95510780276, 820.9348703545178, -75177.0973416683, -54298.08697677696, -39751.10229862956, -39730.91867338642, -8266.54681760631, -46219.317164339685, 0.006, 0.786, 0.64, 192.0, 0.0, 0.0, 0.0, 0.0, 0.0, 0.0, 0.0, 0.0, 0.0, 1.654156540540178E9, 0.0, 2022-06-02 09:55:40.540
241.0, 23672.86666308244, 837.7210304404534, -75153.71741696804, -54275.04232824354, -39733.891455398974, -39716.85942612403, -8250.408858109577, -46213.14808287002, 0.006, 0.786, 0.64, 192.0, 0.0, 0.0, 0.0, 0.0, 0.0, 0.0, 0.0, 0.0, 0.0, 1.654156541018777E9, 0.0, 2022-06-02 09:55:41.018
242.0, 23671.413799692848, 838.1457135851042, -75151.79516694488, -54273.16478170929, -39723.36378376053, -39713.52901620019, -8241.021125438348, -46219.40657131751, 0.006, 0.786, 0.64, 192.0, 0.0, 0.0, 0.0, 0.0, 0.0, 0.0, 0.0, 0.0, 0.0, 1.654156541019018E9, 0.0, 2022-06-02 09:55:41.019
243.0, 23672.26316598215, 830.0990855811937, -75176.40443759019, -54294.13071800837, -39739.211170579336, -39724.459019238835, -8261.227102425946, -46235.030440691764, 0.006, 0.786, 0.64, 192.0, 0.0, 0.0, 0.0, 0.0, 0.0, 0.0, 0.0, 0.0, 0.0, 1.6541565410190463E9, 0.0, 2022-06-02 09:55:41.019
244.0, 23664.551814145067, 812.4859109504117, -75202.66773732516, -54326.42898874629, -39775.46570008584, -39755.885571943, -8309.864498360694, -46270.10032774214, 0.006, 0.786, 0.64, 192.0, 0.0, 0.0, 0.0, 0.0, 0.0, 0.0, 0.0, 0.0, 0.0, 1.6541565410190606E9, 0.0, 2022-06-02 09:55:41.019
245.0, 23665.155311245362, 815.63750691861, -75189.48020809653, -54321.8245293885, -39774.68338902991, -39766.01091218125, -8324.817815401295, -46292.04974079725, 0.004, 0.79, 0.638, 192.0, 0.0, 32.0, 24.0, 176.0, 19.0, 240.0, 0.0, 0.0, 0.0, 1.6541565410190668E9, 0.0, 2022-06-02 09:55:41.019
246.0, 23662.24958446617, 824.1311698116267, -75167.0390566634, -54301.79736635654, -39754.54446727568, -39737.601844978555, -8291.848992329717, -46237.31031862621, 0.004, 0.79, 0.638, 192.0, 0.0, 0.0, 0.0, 0.0, 0.0, 0.0, 0.0, 0.0, 0.0, 1.6541565410190737E9, 0.0, 2022-06-02 09:55:41.019
247.0, 23647.788005803588, 818.5655854422553, -75167.15081538568, -54301.529145423076, -39752.845734697075, -39727.43180125139, -8279.890809046126, -46212.09755088062, 0.004, 0.79, 0.638, 192.0, 0.0, 0.0, 0.0, 0.0, 0.0, 0.0, 0.0, 0.0, 0.0, 1.6541565410190797E9, 0.0, 2022-06-02 09:55:41.019
248.0, 23655.6334681074, 817.7832743863195, -75180.83008299232, -54315.99072408566, -39765.47447031432, -39748.26362708374, -8309.395111727132, -46270.94969403144, 0.004, 0.79, 0.638, 192.0, 0.0, 0.0, 0.0, 0.0, 0.0, 0.0, 0.0, 0.0, 0.0, 1.6541565410190854E9, 0.0, 2022-06-02 09:55:41.019
249.0, 23662.115473999438, 811.5024341943782, -75196.2974901554, -54329.44647424776, -39780.00310421027, -39756.51142078774, -8320.660390932608, -46268.75922307483, 0.004, 0.79, 0.638, 192.0, 0.0, 0.0, 0.0, 0.0, 0.0, 0.0, 0.0, 0.0, 0.0, 1.6541565410190911E9, 0.0, 2022-06-02 09:55:41.019
250.0, 23653.219479706226, 802.0029428008727, -75195.0457924659, -54329.08884633647, -39783.24410715629, -39750.4317462959, -8314.759530396406, -46235.96921395889, 0.004, 0.79, 0.638, 192.0, 0.0, 0.0, 0.0, 0.0, 0.0, 0.0, 0.0, 0.0, 0.0, 1.6541565410190969E9, 0.0, 2022-06-02 09:55:41.019
251.0, 23656.21461346324, 814.9222510960402, -75169.60950727576, -54304.59133441345, -39760.24416211178, -39741.71456595833, -8297.816908099283, -46243.94878672943, 0.004, 0.79, 0.638, 192.0, 0.0, 0.0, 0.0, 0.0, 0.0, 0.0, 0.0, 0.0, 0.0, 1.6541565410191026E9, 0.0, 2022-06-02 09:55:41.019
252.0, 23661.914308299343, 827.8415593912076, -75154.61148674626, -54286.24055221565, -39735.05374611065, -39712.61259467752, -8248.933642975528, -46202.66511472048, 0.004, 0.79, 0.638, 192.0, 0.0, 0.0, 0.0, 0.0, 0.0, 0.0, 0.0, 0.0, 0.0, 1.6541565410191083E9, 0.0, 2022-06-02 09:55:41.019
253.0, 23650.269049438128, 810.3401434827023, -75184.80869350537, -54308.94992458224, -39746.341377060584, -39723.564949460626, -8250.788837765318, -46218.42309456147, 0.004, 0.79, 0.638, 192.0, 0.0, 0.0, 0.0, 0.0, 0.0, 0.0, 0.0, 0.0, 0.0, 1.6541565410191138E9, 0.0, 2022-06-02 09:55:41.019
254.0, 23637.90853475434, 788.3460269386801, -75219.07391775536, -54341.80698893154, -39783.57938332312, -39761.07117665663, -8292.050158029813, -46254.20823743442, 0.004, 0.79, 0.638, 192.0, 0.0, 0.0, 0.0, 0.0, 0.0, 0.0, 0.0, 0.0, 0.0, 1.6541565410191195E9, 0.0, 2022-06-02 09:55:41.019
255.0, 23641.887145267385, 790.3576839396577, -75207.13808621623, -54331.9722213712, -39781.12069143304, -39758.88070570001, -8312.189079784046, -46247.03332746426, 0.004, 0.788, 0.64, 192.0, 0.0, 32.0, 24.0, 160.0, 20.0, 0.0, 0.0, 0.0, 0.0, 1.6541565410191252E9, 0.0, 2022-06-02 09:55:41.019
0.0, 23632.43235736279, 792.6599136185544, -75193.88350175423, -54320.326962509986, -39767.62023778203, -39752.264589341234, -8317.777015897873, -46251.79424903324, 0.004, 0.788, 0.64, 192.0, 0.0, 0.0, 0.0, 0.0, 0.0, 0.0, 0.0, 0.0, 0.0, 1.6541565410191424E9, 0.0, 2022-06-02 09:55:41.019
1.0, 23625.503316581646, 796.34795145368, -75188.76495227397, -54315.49898570764, -39767.26260987075, -39741.781621191694, -8306.623495414675, -46241.62420530608, 0.004, 0.788, 0.64, 192.0, 0.0, 0.0, 0.0, 0.0, 0.0, 0.0, 0.0, 0.0, 0.0, 1.654156541019148E9, 0.0, 2022-06-02 09:55:41.019
2.0, 23648.369151159426, 811.5471376832888, -75184.22754814953, -54311.56507868351, -39758.18780162189, -39734.78552517718, -8280.606064868696, -46246.3180716417, 0.004, 0.788, 0.64, 192.0, 0.0, 0.0, 0.0, 0.0, 0.0, 0.0, 0.0, 0.0, 0.0, 1.6541565410191536E9, 0.0, 2022-06-02 09:55:41.019
3.0, 23646.15632845835, 799.0301607883168, -75208.99328100601, -54338.0742476075, -39777.790281509195, -39762.72520574632, -8301.862573845694, -46278.5716388907, 0.004, 0.788, 0.64, 192.0, 0.0, 0.0, 0.0, 0.0, 0.0, 0.0, 0.0, 0.0, 0.0, 1.6541565410191593E9, 0.0, 2022-06-02 09:55:41.019
4.0, 23635.96393298673, 787.7648815828421, -75206.53458911594, -54342.94692789876, -39779.39960710998, -39768.7378250048, -8286.484573660442, -46259.438545636964, 0.004, 0.788, 0.64, 192.0, 0.0, 0.0, 0.0, 0.0, 0.0, 0.0, 0.0, 0.0, 0.0, 1.654156541019165E9, 0.0, 2022-06-02 09:55:41.019
5.0, 23643.854098779455, 803.9028410795738, -75175.21979513405, -54316.348351996945, -39752.7339759748, -39745.5814177491, -8258.008451224381, -46226.29090860974, 0.004, 0.788, 0.64, 192.0, 0.0, 0.0, 0.0, 0.0, 0.0, 0.0, 0.0, 0.0, 0.0, 1.6541565410191705E9, 0.0, 2022-06-02 09:55:41.019
6.0, 23653.57710761751, 818.833806375719, -75165.42973106263, -54305.2171832582, -39743.45800202584, -39738.29474905667, -8270.927759519549, -46246.69805129743, 0.004, 0.788, 0.64, 192.0, 0.0, 0.0, 0.0, 0.0, 0.0, 0.0, 0.0, 0.0, 0.0, 1.6541565410191765E9, 0.0, 2022-06-02 09:55:41.019
7.0, 23652.54892737257, 814.028181317828, -75187.91558598467, -54319.56700319851, -39759.46185105584, -39747.526019516714, -8293.97240805297, -46267.30635968523, 0.004, 0.788, 0.64, 192.0, 0.0, 0.0, 0.0, 0.0, 0.0, 0.0, 0.0, 0.0, 0.0, 1.654156541019182E9, 0.0, 2022-06-02 09:55:41.019
8.0, 23664.663572867343, 816.1739487855374, -75194.93403374363, -54322.919764866805, -39767.01674068174, -39752.89043818598, -8294.106518519702, -46265.11588872861, 0.004, 0.788, 0.64, 192.0, 0.0, 0.0, 0.0, 0.0, 0.0, 0.0, 0.0, 0.0, 0.0, 1.6541565410191877E9, 0.0, 2022-06-02 09:55:41.019
9.0, 23675.817093350543, 827.3721727576462, -75178.28198412442, -54307.85468910393, -39765.87680171452, -39751.90696142995, -8305.751777380918, -46271.55319113174, 0.004, 0.79, 0.64, 192.0, 0.0, 32.0, 24.0, 176.0, 20.0, 0.0, 0.0, 0.0, 0.0, 1.6541565410191932E9, 0.0, 2022-06-02 09:55:41.019
10.0, 23670.96676480374, 831.0825623372272, -75160.95938217157, -54288.3639679389, -39747.81659219463, -39729.30934778564, -8282.193038725023, -46228.83900747765, 0.004, 0.79, 0.64, 192.0, 0.0, 0.0, 0.0, 0.0, 0.0, 0.0, 0.0, 0.0, 0.0, 1.654156541019199E9, 0.0, 2022-06-02 09:55:41.019
11.0, 23662.20488097726, 831.0155071038613, -75156.51138502496, -54281.79255506904, -39743.83798168159, -39714.2219202783, -8252.800494766296, -46195.73607393933, 0.004, 0.79, 0.64, 192.0, 0.0, 0.0, 0.0, 0.0, 0.0, 0.0, 0.0, 0.0, 0.0, 1.6541565410192044E9, 0.0, 2022-06-02 09:55:41.019
12.0, 23662.853081566464, 836.6034432176881, -75169.02836191993, -54291.42615692928, -39749.04593813967, -39716.5241499572, -8259.461314613976, -46216.456141049406, 0.004, 0.79, 0.64, 192.0, 0.0, 0.0, 0.0, 0.0, 0.0, 0.0, 0.0, 0.0, 0.0, 1.65415654101921E9, 0.0, 2022-06-02 09:55:41.019
13.0, 23654.270011695626, 814.4528644624787, -75200.63372857973, -54323.27739277809, -39780.83011875512, -39751.32581607412, -8301.97433256797, -46257.404536891525, 0.004, 0.79, 0.64, 192.0, 0.0, 0.0, 0.0, 0.0, 0.0, 0.0, 0.0, 0.0, 0.0, 1.6541565410192156E9, 0.0, 2022-06-02 09:55:41.019
14.0, 23668.217500235736, 828.8920913806071, -75173.7892834889, -54299.45043318873, -39760.64649351198, -39739.971129890815, -8273.967596765471, -46235.41042034751, 0.004, 0.79, 0.64, 192.0, 0.0, 0.0, 0.0, 0.0, 0.0, 0.0, 0.0, 0.0, 0.0, 1.6541565410192213E9, 0.0, 2022-06-02 09:55:41.019
15.0, 23665.758808345654, 834.4576757499785, -75154.99146640199, -54284.13948823685, -39745.33554856009, -39719.988670347775, -8264.512808860876, -46209.325934568165, 0.004, 0.79, 0.64, 192.0, 0.0, 0.0, 0.0, 0.0, 0.0, 0.0, 0.0, 0.0, 0.0, 1.6541565410192268E9, 0.0, 2022-06-02 09:55:41.019
16.0, 23656.996924519175, 834.0106408608724, -75159.35005657078, -54286.03938651555, -39747.63777823899, -39720.30159477015, -8298.822736599772, -46236.28213838126, 0.004, 0.79, 0.64, 192.0, 0.0, 0.0, 0.0, 0.0, 0.0, 0.0, 0.0, 0.0, 0.0, 1.6541565410192327E9, 0.0, 2022-06-02 09:55:41.019
17.0, 23661.690790854787, 829.5626437142663, -75168.2907543529, -54295.82945058697, -39750.54350501818, -39718.84873138055, -8273.028823498347, -46227.8108272327, 0.004, 0.79, 0.64, 192.0, 0.0, 0.0, 0.0, 0.0, 0.0, 0.0, 0.0, 0.0, 0.0, 1.6541565410192387E9, 0.0, 2022-06-02 09:55:41.019
18.0, 23669.96093630325, 819.1914342870039, -75187.51325458447, -54315.90131710784, -39771.934124461906, -39737.02069962272, -8294.59825689772, -46244.552283829726, 0.004, 0.79, 0.64, 192.0, 0.0, 0.0, 0.0, 0.0, 0.0, 0.0, 0.0, 0.0, 0.0, 1.6541565410192442E9, 0.0, 2022-06-02 09:55:41.019
19.0, 23687.238834767206, 834.2341583054255, -75165.11680664025, -54299.58454365547, -39759.260685355744, -39728.08000184059, -8286.953960294004, -46228.123751655075, 0.002, 0.792, 0.64, 192.0, 0.0, 16.0, 24.0, 192.0, 20.0, 0.0, 0.0, 0.0, 0.0, 1.65415654101925E9, 0.0, 2022-06-02 09:55:41.019
20.0, 23677.02408755113, 831.797818159797, -75155.08087337982, -54293.43781393026, -39742.54158050318, -39721.88856862648, -8261.607082081686, -46222.64757426352, 0.002, 0.792, 0.64, 192.0, 0.0, 0.0, 0.0, 0.0, 0.0, 0.0, 0.0, 0.0, 0.0, 1.6541565410192554E9, 0.0, 2022-06-02 09:55:41.019
21.0, 23659.612078620445, 829.9649751144618, -75154.74559721298, -54291.82848832947, -39737.803010678654, -39712.992574333264, -8259.617776825164, -46208.81184444569, 0.002, 0.792, 0.64, 192.0, 0.0, 0.0, 0.0, 0.0, 0.0, 0.0, 0.0, 0.0, 0.0, 1.6541565410192611E9, 0.0, 2022-06-02 09:55:41.019
22.0, 23659.12034024243, 827.1039518241826, -75172.06819916585, -54304.256058246625, -39746.18491484939, -39715.45126622335, -8257.472009357454, -46210.91290842449, 0.002, 0.792, 0.64, 192.0, 0.0, 0.0, 0.0, 0.0, 0.0, 0.0, 0.0, 0.0, 0.0, 1.6541565410192695E9, 0.0, 2022-06-02 09:55:41.019
23.0, 23673.380753204914, 831.3731350151462, -75182.90879522667, -54311.81094787252, -39753.06925214163, -39731.81274316463, -8268.49141937392, -46246.988623975354, 0.002, 0.792, 0.64, 192.0, 0.0, 0.0, 0.0, 0.0, 0.0, 0.0, 0.0, 0.0, 0.0, 1.654156541019275E9, 0.0, 2022-06-02 09:55:41.019
24.0, 23673.000773549174, 824.3099837672692, -75181.12065567025, -54314.64961941834, -39763.194592379885, -39746.833115438596, -8305.59531516973, -46268.49100214136, 0.002, 0.792, 0.64, 192.0, 0.0, 0.0, 0.0, 0.0, 0.0, 0.0, 0.0, 0.0, 0.0, 1.6541565410192807E9, 0.0, 2022-06-02 09:55:41.019
25.0, 23657.48866289719, 821.6948296659982, -75172.80580673288, -54303.7196163797, -39753.404528308456, -39737.35597578955, -8289.479707417453, -46237.15385641502, 0.002, 0.792, 0.64, 192.0, 0.0, 0.0, 0.0, 0.0, 0.0, 0.0, 0.0, 0.0, 0.0, 1.6541565410192862E9, 0.0, 2022-06-02 09:55:41.019
26.0, 23661.869604810432, 832.8036466602858, -75153.04686463438, -54283.40188066982, -39739.81466767963, -39714.93717610087, -8266.837390284229, -46221.46293180739, 0.002, 0.792, 0.64, 192.0, 0.0, 0.0, 0.0, 0.0, 0.0, 0.0, 0.0, 0.0, 0.0, 1.6541565410192919E9, 0.0, 2022-06-02 09:55:41.019
27.0, 23668.17279674683, 832.6248327046434, -75166.21204211855, -54292.18611624076, -39748.59890325057, -39713.93134760039, -8270.681890330541, -46219.54068178424, 0.002, 0.792, 0.64, 192.0, 0.0, 0.0, 0.0, 0.0, 0.0, 0.0, 0.0, 0.0, 0.0, 1.6541565410192976E9, 0.0, 2022-06-02 09:55:41.019
28.0, 23663.322468200025, 815.1010650516827, -75197.21391167807, -54320.550479954545, -39777.522060575735, -39744.62029273752, -8297.97337031047, -46244.2170076629, 0.008, 0.792, 0.64, 192.0, 0.0, 64.0, 24.0, 192.0, 20.0, 0.0, 0.0, 0.0, 0.0, 1.654156541019303E9, 0.0, 2022-06-02 09:55:41.019
29.0, 23681.15916027536, 828.2215390469479, -75174.37042884475, -54305.284238491564, -39762.30052260167, -39741.33458630259, -8280.695471846519, -46236.19273140344, 0.008, 0.792, 0.64, 192.0, 0.0, 0.0, 0.0, 0.0, 0.0, 0.0, 0.0, 0.0, 0.0, 1.6541565410193088E9, 0.0, 2022-06-02 09:55:41.019
30.0, 23680.957994575263, 834.4576757499785, -75158.56774551484, -54296.902334320825, -39755.416185309434, -39734.36084203253, -8278.236779956434, -46231.02947843426, 0.008, 0.792, 0.64, 192.0, 0.0, 0.0, 0.0, 0.0, 0.0, 0.0, 0.0, 0.0, 0.0, 1.6541565410193143E9, 0.0, 2022-06-02 09:55:41.019
31.0, 23669.379790947412, 835.1505798280931, -75161.7416932275, -54299.986875055656, -39760.042996411685, -39734.629062966, -8301.057911045304, -46242.40651636202, 0.008, 0.792, 0.64, 192.0, 0.0, 0.0, 0.0, 0.0, 0.0, 0.0, 0.0, 0.0, 0.0, 1.65415654101932E9, 0.0, 2022-06-02 09:55:41.019
32.0, 23672.196110748784, 836.7375536844199, -75177.83494923532, -54307.407654214825, -39766.748519748275, -39741.04401362467, -8305.461204702999, -46261.606664849125, 0.008, 0.792, 0.64, 192.0, 0.0, 0.0, 0.0, 0.0, 0.0, 0.0, 0.0, 0.0, 0.0, 1.6541565410193257E9, 0.0, 2022-06-02 09:55:41.019
33.0, 23678.45459919627, 836.156408328582, -75184.02638244943, -54319.67876192078, -39773.90107797398, -39748.55419976165, -8293.860649330694, -46252.21893217789, 0.008, 0.792, 0.64, 192.0, 0.0, 0.0, 0.0, 0.0, 0.0, 0.0, 0.0, 0.0, 0.0, 1.6541565410193315E9, 0.0, 2022-06-02 09:55:41.019
34.0, 23682.902596342876, 836.6928501955093, -75172.64934452169, -54319.65641017633, -39769.09545291608, -39754.38800506449, -8274.749907821406, -46243.211179162405, 0.008, 0.792, 0.64, 192.0, 0.0, 0.0, 0.0, 0.0, 0.0, 0.0, 0.0, 0.0, 0.0, 1.654156541019337E9, 0.0, 2022-06-02 09:55:41.019
35.0, 23678.16402651835, 836.8716641511518, -75159.88649843771, -54314.60491592943, -39757.49489754378, -39748.017757894726, -8268.44671588501, -46234.85162673612, 0.008, 0.792, 0.64, 192.0, 0.0, 0.0, 0.0, 0.0, 0.0, 0.0, 0.0, 0.0, 0.0, 1.6541565410193434E9, 0.0, 2022-06-02 09:55:41.019
36.0, 23672.084352026504, 841.2079025754813, -75156.37727455822, -54309.12873853788, -39751.05759514065, -39734.27143505472, -8268.87139902966, -46217.59608001663, 0.008, 0.792, 0.64, 192.0, 0.0, 0.0, 0.0, 0.0, 0.0, 0.0, 0.0, 0.0, 0.0, 1.6541565410193496E9, 0.0, 2022-06-02 09:55:41.019
37.0, 23666.54111940159, 829.6967541809981, -75184.16049291617, -54332.79923591605, -39771.80001399518, -39747.749536961266, -8297.124004021169, -46240.774839016776, 0.008, 0.792, 0.64, 192.0, 0.0, 0.0, 0.0, 0.0, 0.0, 0.0, 0.0, 0.0, 0.0, 1.6541565410193555E9, 0.0, 2022-06-02 09:55:41.019
38.0, 23673.470160182736, 820.0408005763055, -75201.46074312458, -54351.19472160277, -39785.278115901725, -39767.374368593024, -8314.558364696308, -46259.88558052607, 0.006, 0.794, 0.64, 192.0, 0.0, 48.0, 24.0, 208.0, 20.0, 0.0, 0.0, 0.0, 0.0, 1.6541565410193613E9, 0.0, 2022-06-02 09:55:41.019
39.0, 23680.93564283081, 826.5898617017104, -75184.42871384963, -54336.39786677335, -39770.54831630568, -39766.65911277045, -8304.321265735778, -46253.24711242284, 0.006, 0.794, 0.64, 192.0, 0.0, 0.0, 0.0, 0.0, 0.0, 0.0, 0.0, 0.0, 0.0, 1.6541565410193667E9, 0.0, 2022-06-02 09:55:41.019
40.0, 23689.809285379564, 835.9105391395735, -75157.71837922554, -54315.9683723412, -39750.029414895704, -39751.996368407774, -8289.613817884185, -46235.030440691764, 0.006, 0.794, 0.64, 192.0, 0.0, 0.0, 0.0, 0.0, 0.0, 0.0, 0.0, 0.0, 0.0, 1.6541565410193725E9, 0.0, 2022-06-02 09:55:41.019
41.0, 23680.913291086352, 833.9212338830512, -75154.38796930171, -54308.39113097086, -39746.564894505136, -39731.29865304216, -8280.248436957412, -46205.66024847749, 0.006, 0.794, 0.64, 192.0, 0.0, 0.0, 0.0, 0.0, 0.0, 0.0, 0.0, 0.0, 0.0, 1.654156541019378E9, 0.0, 2022-06-02 09:55:41.019
42.0, 23670.25150898117, 833.0718675937495, -75174.70570501157, -54322.11510206641, -39751.2811125852, -39740.68638571339, -8288.317416705779, -46240.48426633886, 0.006, 0.794, 0.64, 192.0, 0.0, 0.0, 0.0, 0.0, 0.0, 0.0, 0.0, 0.0, 0.0, 1.654156541019384E9, 0.0, 2022-06-02 09:55:41.019
43.0, 23654.649991351365, 813.670553406543, -75209.06033623939, -54354.659241993344, -39784.361694379055, -39774.95160996338, -8314.781882140862, -46273.006054521335, 0.006, 0.794, 0.64, 192.0, 0.0, 0.0, 0.0, 0.0, 0.0, 0.0, 0.0, 0.0, 0.0, 1.6541565410193923E9, 0.0, 2022-06-02 09:55:41.019
44.0, 23668.888052569397, 818.7443993978977, -75190.12840868573, -54340.93527089778, -39774.862202985554, -39770.48126107231, -8309.149242538124, -46259.88558052607, 0.006, 0.794, 0.64, 192.0, 0.0, 0.0, 0.0, 0.0, 0.0, 0.0, 0.0, 0.0, 0.0, 1.6541565410193977E9, 0.0, 2022-06-02 09:55:41.019
45.0, 23685.607157421968, 839.3527077856908, -75156.31021932486, -54308.27937224858, -39747.12368811652, -39739.546446746164, -8273.475858387454, -46228.682545266456, 0.006, 0.794, 0.64, 192.0, 0.0, 0.0, 0.0, 0.0, 0.0, 0.0, 0.0, 0.0, 0.0, 1.6541565410194035E9, 0.0, 2022-06-02 09:55:41.019
46.0, 23665.82586357902, 825.8075506457748, -75165.83206246282, -54316.12483455239, -39752.57751376361, -39744.307368315145, -8270.033689741336, -46220.971193429374, 0.006, 0.794, 0.64, 192.0, 0.0, 0.0, 0.0, 0.0, 0.0, 0.0, 0.0, 0.0, 0.0, 1.654156541019409E9, 0.0, 2022-06-02 09:55:41.019
47.0, 23656.371075674426, 819.5490621982888, -75185.25572839448, -54333.8721196499, -39772.425862839926, -39754.05272889766, -8294.59825689772, -46238.62907154907, 0.006, 0.794, 0.64, 192.0, 0.0, 0.0, 0.0, 0.0, 0.0, 0.0, 0.0, 0.0, 0.0, 1.654156541019415E9, 0.0, 2022-06-02 09:55:41.019
48.0, 23663.568337389035, 818.252661019881, -75199.56084484588, -54346.45615177824, -39789.480243859325, -39771.33062736161, -8313.060797817803, -46260.19850494844, 0.004, 0.796, 0.638, 192.0, 0.0, 32.0, 24.0, 224.0, 19.0, 240.0, 0.0, 0.0, 0.0, 1.6541565410194204E9, 0.0, 2022-06-02 09:55:41.019
49.0, 23669.02216303613, 820.1525592985821, -75185.07691443883, -54338.297765052055, -39781.27715364422, -39774.34811286308, -8309.618629171686, -46254.72232755689, 0.004, 0.796, 0.638, 192.0, 0.0, 0.0, 0.0, 0.0, 0.0, 0.0, 0.0, 0.0, 0.0, 1.654156541019426E9, 0.0, 2022-06-02 09:55:41.019
50.0, 23674.87832008342, 829.0038501028837, -75162.25578334997, -54319.87992762088, -39760.57943827861, -39756.824345210116, -8294.330035964256, -46240.79719076124, 0.004, 0.796, 0.638, 192.0, 0.0, 0.0, 0.0, 0.0, 0.0, 0.0, 0.0, 0.0, 0.0, 1.6541565410194316E9, 0.0, 2022-06-02 09:55:41.019
51.0, 23675.21359625025, 833.3624402716686, -75157.04782689188, -54314.537860696066, -39754.00802540875, -39750.92348467392, -8286.68573936054, -46245.37929837457, 0.004, 0.796, 0.638, 192.0, 0.0, 0.0, 0.0, 0.0, 0.0, 0.0, 0.0, 0.0, 0.0, 1.6541565410194376E9, 0.0, 2022-06-02 09:55:41.019
52.0, 23680.578014919523, 834.92706238354, -75175.08568466731, -54322.24921253315, -39766.748519748275, -39757.89722894398, -8322.493233977943, -46279.77863309129, 0.004, 0.796, 0.638, 192.0, 0.0, 0.0, 0.0, 0.0, 0.0, 0.0, 0.0, 0.0, 0.0, 1.6541565410194435E9, 0.0, 2022-06-02 09:55:41.019
53.0, 23667.748113602178, 815.6822104075206, -75198.10798145628, -54349.831265190995, -39786.70862754687, -39779.22079315434, -8320.302763021322, -46279.04102552427, 0.004, 0.796, 0.638, 192.0, 0.0, 0.0, 0.0, 0.0, 0.0, 0.0, 0.0, 0.0, 0.0, 1.6541565410194497E9, 0.0, 2022-06-02 09:55:41.019
54.0, 23675.280651483616, 818.3644197421575, -75181.3441731148, -54336.93430864028, -39776.42682509742, -39771.44238608389, -8283.936474792537, -46252.44244962245, 0.004, 0.796, 0.638, 192.0, 0.0, 0.0, 0.0, 0.0, 0.0, 0.0, 0.0, 0.0, 0.0, 1.6541565410194552E9, 0.0, 2022-06-02 09:55:41.019
55.0, 23681.337974231003, 835.8658356506629, -75155.14792861318, -54311.69918915024, -39759.14892663347, -39753.49393528628, -8288.540934150331, -46252.509504855814, 0.004, 0.796, 0.638, 192.0, 0.0, 0.0, 0.0, 0.0, 0.0, 0.0, 0.0, 0.0, 0.0, 1.654156541019461E9, 0.0, 2022-06-02 09:55:41.019
56.0, 23670.989116548197, 833.0718675937495, -75150.85639367776, -54306.04419780305, -39746.564894505136, -39733.44442050987, -8260.109515203181, -46212.879861936555, 0.004, 0.796, 0.638, 192.0, 0.0, 0.0, 0.0, 0.0, 0.0, 0.0, 0.0, 0.0, 0.0, 1.6541565410194664E9, 0.0, 2022-06-02 09:55:41.019
57.0, 23672.911366571352, 826.6569169350764, -75171.17412938764, -54321.0198665881, -39762.836964468595, -39735.25491181075, -8285.366986437677, -46228.03434467725, 0.004, 0.796, 0.638, 192.0, 0.0, 0.0, 0.0, 0.0, 0.0, 0.0, 0.0, 0.0, 0.0, 1.654156541019472E9, 0.0, 2022-06-02 09:55:41.019
58.0, 23674.386581705403, 812.4635592059565, -75203.47240012555, -54351.26177683613, -39795.73873230681, -39774.303409374166, -8343.883853421672, -46299.984610078885, 0.002, 0.794, 0.64, 192.0, 0.0, 16.0, 24.0, 208.0, 20.0, 0.0, 0.0, 0.0, 0.0, 1.6541565410194783E9, 0.0, 2022-06-02 09:55:41.019
59.0, 23683.953128332276, 818.6326406756211, -75189.63667030772, -54342.58929998748, -39780.248973399284, -39774.25870588526, -8320.928611866071, -46290.485118685385, 0.002, 0.794, 0.64, 192.0, 0.0, 0.0, 0.0, 0.0, 0.0, 0.0, 0.0, 0.0, 0.0, 1.654156541019484E9, 0.0, 2022-06-02 09:55:41.019
60.0, 23670.743247359187, 819.5267104538334, -75181.59004230381, -54331.99457311566, -39769.09545291608, -39750.319987573625, -8294.642960386629, -46236.25978663681, 0.002, 0.794, 0.64, 192.0, 0.0, 0.0, 0.0, 0.0, 0.0, 0.0, 0.0, 0.0, 0.0, 1.6541565410194895E9, 0.0, 2022-06-02 09:55:41.019
61.0, 23670.899709570374, 831.216672803959, -75172.60464103278, -54320.684590421275, -39758.657188255456, -39734.40554552145, -8305.617666914186, -46235.63393779206, 0.002, 0.794, 0.64, 192.0, 0.0, 0.0, 0.0, 0.0, 0.0, 0.0, 0.0, 0.0, 0.0, 1.6541565410194952E9, 0.0, 2022-06-02 09:55:41.019
62.0, 23658.67330535332, 817.4927017084005, -75193.25765290948, -54342.701058709754, -39771.0400546837, -39748.82242069512, -8320.593335699241, -46266.993435262855, 0.002, 0.794, 0.64, 192.0, 0.0, 0.0, 0.0, 0.0, 0.0, 0.0, 0.0, 0.0, 0.0, 1.6541565410195007E9, 0.0, 2022-06-02 09:55:41.019
63.0, 23645.888107524886, 793.576335141222, -75222.98547303503, -54371.087774167994, -39801.013743998265, -39770.6377232835, -8327.254155546923, -46261.94194101595, 0.002, 0.794, 0.64, 192.0, 0.0, 0.0, 0.0, 0.0, 0.0, 0.0, 0.0, 0.0, 0.0, 1.6541565410195065E9, 0.0, 2022-06-02 09:55:41.019
64.0, 23656.169909974327, 805.8250911027302, -75207.76393506098, -54355.910939682835, -39795.694028817896, -39762.88166795751, -8318.671085676086, -46242.09359193964, 0.002, 0.794, 0.64, 192.0, 0.0, 0.0, 0.0, 0.0, 0.0, 0.0, 0.0, 0.0, 0.0, 1.6541565410195148E9, 0.0, 2022-06-02 09:55:41.019
65.0, 23668.999811291673, 824.2429285339033, -75175.13038815622, -54327.50187248014, -39773.454043084865, -39744.664996226435, -8307.539916937341, -46230.80596098971, 0.002, 0.794, 0.64, 192.0, 0.0, 0.0, 0.0, 0.0, 0.0, 0.0, 0.0, 0.0, 0.0, 1.6541565410195203E9, 0.0, 2022-06-02 09:55:41.019
66.0, 23651.185470960794, 811.8600621056631, -75177.38791434621, -54330.049971348046, -39767.84375522658, -39746.29667357167, -8272.4029746536, -46225.48624580935, 0.002, 0.794, 0.64, 192.0, 0.0, 0.0, 0.0, 0.0, 0.0, 0.0, 0.0, 0.0, 0.0, 1.654156541019526E9, 0.0, 2022-06-02 09:55:41.019
67.0, 23669.78212234761, 825.248757034392, -75173.20813813306, -54321.55630845503, -39756.64553125448, -39736.7301269448, -8251.839369754716, -46224.79334173124, 0.002, 0.794, 0.64, 192.0, 0.0, 0.0, 0.0, 0.0, 0.0, 0.0, 0.0, 0.0, 0.0, 1.6541565410195315E9, 0.0, 2022-06-02 09:55:41.019
68.0, 23691.105686557974, 834.6588414500764, -75181.9476702151, -54324.886718378875, -39767.0837959151, -39745.11203111554, -8282.528314891853, -46247.63682456456, 0.004, 0.796, 0.636, 192.0, 0.0, 32.0, 24.0, 224.0, 19.0, 224.0, 0.0, 0.0, 0.0, 1.6541565410195372E9, 0.0, 2022-06-02 09:55:41.019
69.0, 23701.946282618796, 842.1913793315148, -75173.7892834889, -54315.65544791883, -39763.99925518027, -39747.81659219463, -8297.682797632551, -46245.69222279695, 0.004, 0.796, 0.636, 192.0, 0.0, 0.0, 0.0, 0.0, 0.0, 0.0, 0.0, 0.0, 0.0, 1.6541565410195427E9, 0.0, 2022-06-02 09:55:41.019
70.0, 23707.40010826589, 857.0329376498387, -75146.94483839808, -54293.415462185796, -39738.6300252235, -39730.270472797216, -8274.459335143487, -46229.08487666665, 0.004, 0.796, 0.636, 192.0, 0.0, 0.0, 0.0, 0.0, 0.0, 0.0, 0.0, 0.0, 0.0, 1.6541565410195484E9, 0.0, 2022-06-02 09:55:41.019
71.0, 23704.248512297694, 863.9396266865286, -75130.87393413472, -54278.57390386747, -39719.832208136584, -39712.05380106614, -8244.373887106643, -46213.48335903685, 0.004, 0.796, 0.636, 192.0, 0.0, 0.0, 0.0, 0.0, 0.0, 0.0, 0.0, 0.0, 0.0, 1.654156541019554E9, 0.0, 2022-06-02 09:55:41.019
72.0, 23696.179532549326, 852.4731817809561, -75154.96911465754, -54295.49417442014, -39742.87685667001, -39727.90118788495, -8265.384526894633, -46241.66890879499, 0.004, 0.796, 0.636, 192.0, 0.0, 0.0, 0.0, 0.0, 0.0, 0.0, 0.0, 0.0, 0.0, 1.6541565410195596E9, 0.0, 2022-06-02 09:55:41.019
73.0, 23680.756828875165, 830.3896582591127, -75185.16632141666, -54320.952811354735, -39776.51623207524, -39753.22571435281, -8301.59435291223, -46255.97402524639, 0.004, 0.796, 0.636, 192.0, 0.0, 0.0, 0.0, 0.0, 0.0, 0.0, 0.0, 0.0, 0.0, 1.654156541019565E9, 0.0, 2022-06-02 09:55:41.019
74.0, 23671.21263399275, 822.6783064220317, -75182.1935394041, -54322.629192188884, -39779.93604897691, -39760.13240338951, -8310.40094022762, -46264.04300499475, 0.004, 0.796, 0.636, 192.0, 0.0, 0.0, 0.0, 0.0, 0.0, 0.0, 0.0, 0.0, 0.0, 1.6541565410195708E9, 0.0, 2022-06-02 09:55:41.019
75.0, 23669.558604903057, 829.4285332475345, -75162.3898938167, -54306.44652920324, -39762.59109527959, -39752.17518236342, -8306.869364603683, -46262.45603113843, 0.004, 0.796, 0.636, 192.0, 0.0, 0.0, 0.0, 0.0, 0.0, 0.0, 0.0, 0.0, 0.0, 1.6541565410195765E9, 0.0, 2022-06-02 09:55:41.019
76.0, 23669.78212234761, 833.7424199274087, -75153.58330650131, -54292.25317147412, -39749.94000791788, -39718.60286219155, -8284.383509681644, -46199.91585015248, 0.004, 0.796, 0.636, 192.0, 0.0, 0.0, 0.0, 0.0, 0.0, 0.0, 0.0, 0.0, 0.0, 1.6541565410195823E9, 0.0, 2022-06-02 09:55:41.019
77.0, 23670.609136892457, 828.2215390469479, -75170.23535612051, -54304.03254080207, -39752.845734697075, -39720.10042907005, -8272.313567675777, -46202.77687344276, 0.004, 0.796, 0.636, 192.0, 0.0, 0.0, 0.0, 0.0, 0.0, 0.0, 0.0, 0.0, 0.0, 1.654156541019588E9, 0.0, 2022-06-02 09:55:41.019
78.0, 23678.25343349617, 821.2924982658027, -75185.45689409458, -54322.428026488786, -39763.21694412434, -39741.20047583586, -8272.87236128716, -46225.24037662034, 0.006, 0.794, 0.634, 192.0, 0.0, 48.0, 24.0, 208.0, 19.0, 208.0, 0.0, 0.0, 0.0, 1.6541565410195937E9, 0.0, 2022-06-02 09:55:41.019
79.0, 23685.763619633155, 819.7949313872971, -75179.26546088046, -54320.23755553217, -39763.261647613246, -39749.87295268452, -8297.056948787804, -46239.031402949266, 0.006, 0.794, 0.634, 192.0, 0.0, 0.0, 0.0, 0.0, 0.0, 0.0, 0.0, 0.0, 0.0, 1.6541565410195992E9, 0.0, 2022-06-02 09:55:41.019
80.0, 23671.07852352602, 816.2410040189034, -75180.4501033366, -54318.583526442475, -39760.110051645046, -39747.01192939424, -8308.858669860205, -46235.00808894731, 0.006, 0.794, 0.634, 192.0, 0.0, 0.0, 0.0, 0.0, 0.0, 0.0, 0.0, 0.0, 0.0, 1.6541565410196047E9, 0.0, 2022-06-02 09:55:41.019
81.0, 23673.82778809402, 835.0164693613613, -75157.33839956981, -54298.93634306626, -39734.67376645491, -39722.71558317132, -8269.609006596686, -46211.38229505805, 0.006, 0.794, 0.634, 192.0, 0.0, 0.0, 0.0, 0.0, 0.0, 0.0, 0.0, 0.0, 0.0, 1.6541565410196104E9, 0.0, 2022-06-02 09:55:41.019
82.0, 23680.73447713071, 838.1904170740148, -75164.2897920954, -54304.99366581365, -39743.21213283684, -39722.60382444904, -8272.44767814251, -46224.56982428668, 0.006, 0.794, 0.634, 192.0, 0.0, 0.0, 0.0, 0.0, 0.0, 0.0, 0.0, 0.0, 0.0, 1.654156541019616E9, 0.0, 2022-06-02 09:55:41.019
83.0, 23686.68004115582, 829.83086464773, -75187.40149586218, -54326.496043979656, -39770.816537239145, -39745.17908634891, -8328.259984047412, -46259.32678691469, 0.006, 0.794, 0.634, 192.0, 0.0, 0.0, 0.0, 0.0, 0.0, 0.0, 0.0, 0.0, 0.0, 1.654156541019622E9, 0.0, 2022-06-02 09:55:41.019
84.0, 23680.73447713071, 821.1583877990709, -75188.56378657387, -54332.86629114942, -39774.236354140805, -39761.83113596811, -8336.910109151615, -46265.74173757336, 0.006, 0.794, 0.634, 192.0, 0.0, 0.0, 0.0, 0.0, 0.0, 0.0, 0.0, 0.0, 0.0, 1.6541565410196276E9, 0.0, 2022-06-02 09:55:41.019
85.0, 23688.401125478882, 830.3896582591127, -75168.62603051974, -54317.89062236436, -39757.181973121405, -39753.49393528628, -8292.363082452188, -46240.19369366094, 0.006, 0.794, 0.634, 192.0, 0.0, 0.0, 0.0, 0.0, 0.0, 0.0, 0.0, 0.0, 0.0, 1.6541565410196333E9, 0.0, 2022-06-02 09:55:41.019
86.0, 23702.84035239701, 851.2885393248248, -75141.64747496217, -54290.64384587334, -39726.47067623981, -39722.93910061588, -8228.191224121001, -46198.194765829416, 0.006, 0.794, 0.634, 192.0, 0.0, 0.0, 0.0, 0.0, 0.0, 0.0, 0.0, 0.0, 0.0, 1.6541565410196407E9, 0.0, 2022-06-02 09:55:41.019
87.0, 23673.648974138378, 826.3216407682468, -75176.27032712345, -54321.48925322166, -39759.66301675594, -39744.84381018207, -8269.318433918766, -46240.417211105494, 0.006, 0.794, 0.634, 192.0, 0.0, 0.0, 0.0, 0.0, 0.0, 0.0, 0.0, 0.0, 0.0, 1.6541565410196464E9, 0.0, 2022-06-02 09:55:41.019
88.0, 23670.519729914635, 815.7045621519759, -75199.15851344568, -54345.18210234429, -39781.701836788874, -39780.807767010665, -8321.040370588347, -46295.42485421, 0.008, 0.79, 0.64, 192.0, 0.0, 64.0, 24.0, 176.0, 20.0, 0.0, 0.0, 0.0, 0.0, 1.654156541019652E9, 0.0, 2022-06-02 09:55:41.019
89.0, 23684.891901599396, 828.8920913806071, -75178.3490393578, -54327.70303818024, -39765.94385694789, -39777.47735708682, -8311.272658261378, -46283.01963603731, 0.008, 0.79, 0.64, 192.0, 0.0, 0.0, 0.0, 0.0, 0.0, 0.0, 0.0, 0.0, 0.0, 1.6541565410196576E9, 0.0, 2022-06-02 09:55:41.019
90.0, 23675.906500328365, 825.8746058791406, -75171.17412938764, -54320.572831699, -39764.89332495849, -39761.62997026801, -8304.16480352459, -46243.1664756735, 0.008, 0.79, 0.64, 192.0, 0.0, 0.0, 0.0, 0.0, 0.0, 0.0, 0.0, 0.0, 0.0, 1.654156541019663E9, 0.0, 2022-06-02 09:55:41.019
91.0, 23667.77046534663, 826.8804343796295, -75161.18289961612, -54306.73710188116, -39753.22571435281, -39749.04593813967, -8286.26105621589, -46233.62228079108, 0.008, 0.79, 0.64, 192.0, 0.0, 0.0, 0.0, 0.0, 0.0, 0.0, 0.0, 0.0, 0.0, 1.654156541019669E9, 0.0, 2022-06-02 09:55:41.019
92.0, 23660.662610609845, 818.8561581201742, -75176.60560329027, -54318.24825027565, -39760.62414176752, -39750.744670718275, -8290.127908006658, -46240.4619145944, 0.008, 0.79, 0.64, 192.0, 0.0, 0.0, 0.0, 0.0, 0.0, 0.0, 0.0, 0.0, 0.0, 1.6541565410196748E9, 0.0, 2022-06-02 09:55:41.019
93.0, 23656.840462307988, 803.8804893351185, -75208.7027083281, -54344.46684652172, -39785.63574381301, -39768.559011049154, -8325.197795057034, -46256.354004902125, 0.008, 0.79, 0.64, 192.0, 0.0, 0.0, 0.0, 0.0, 0.0, 0.0, 0.0, 0.0, 0.0, 1.6541565410196805E9, 0.0, 2022-06-02 09:55:41.019
94.0, 23666.31760195704, 810.6530679050766, -75193.41411512067, -54328.35123876944, -39778.68435128741, -39760.95941793435, -8322.202661300023, -46235.05279243622, 0.008, 0.79, 0.64, 192.0, 0.0, 0.0, 0.0, 0.0, 0.0, 0.0, 0.0, 0.0, 0.0, 1.654156541019686E9, 0.0, 2022-06-02 09:55:41.019
95.0, 23668.01633453564, 818.7891028868083, -75168.22369911954, -54308.61464841541, -39752.264589341234, -39746.117859616024, -8275.711032832985, -46222.26759460779, 0.008, 0.79, 0.64, 192.0, 0.0, 0.0, 0.0, 0.0, 0.0, 0.0, 0.0, 0.0, 0.0, 1.6541565410196996E9, 0.0, 2022-06-02 09:55:41.019
96.0, 23676.755866617666, 830.6578791925764, -75153.62800999022, -54292.96842729669, -39729.30934778564, -39725.39779250596, -8247.592538308209, -46200.51934725277, 0.008, 0.79, 0.64, 192.0, 0.0, 0.0, 0.0, 0.0, 0.0, 0.0, 0.0, 0.0, 0.0, 1.6541565410197053E9, 0.0, 2022-06-02 09:55:41.019
97.0, 23670.63148863691, 824.1982250449927, -75171.6435160212, -54310.335732738466, -39742.563932247635, -39732.215074564825, -8264.512808860876, -46231.275347623276, 0.008, 0.79, 0.64, 192.0, 0.0, 0.0, 0.0, 0.0, 0.0, 0.0, 0.0, 0.0, 0.0, 1.654156541019711E9, 0.0, 2022-06-02 09:55:41.019
98.0, 23663.769503089134, 806.0486085472833, -75204.96996700406, -54341.98580288718, -39779.37725536552, -39766.748519748275, -8316.45826297501, -46294.530784431794, 0.006, 0.792, 0.638, 192.0, 0.0, 48.0, 24.0, 192.0, 19.0, 240.0, 0.0, 0.0, 0.0, 1.6541565410197167E9, 0.0, 2022-06-02 09:55:41.019
99.0, 23664.30594495606, 800.9971143003839, -75201.03605997993, -54338.81185517453, -39782.32768563362, -39768.67076977143, -8309.663332660595, -46271.48613589837, 0.006, 0.792, 0.638, 192.0, 0.0, 0.0, 0.0, 0.0, 0.0, 0.0, 0.0, 0.0, 0.0, 1.6541565410197225E9, 0.0, 2022-06-02 09:55:41.019
100.0, 23663.21070947775, 811.6365446611101, -75178.50550156897, -54316.54951769704, -39760.06534815614, -39745.223789837815, -8271.419497897567, -46223.96632718639, 0.006, 0.792, 0.638, 192.0, 0.0, 0.0, 0.0, 0.0, 0.0, 0.0, 0.0, 0.0, 0.0, 1.654156541019728E9, 0.0, 2022-06-02 09:55:41.019
101.0, 23665.378828689914, 822.8347686332189, -75168.40251307518, -54309.53106993808, -39755.01385390924, -39742.273359569714, -8275.599274110707, -46230.60479528961, 0.006, 0.792, 0.638, 192.0, 0.0, 0.0, 0.0, 0.0, 0.0, 0.0, 0.0, 0.0, 0.0, 1.6541565410197337E9, 0.0, 2022-06-02 09:55:41.019
102.0, 23677.694639884787, 826.1204750681491, -75174.77276024494, -54312.95088683974, -39758.791298722186, -39743.122725859015, -8286.462221915986, -46255.97402524639, 0.006, 0.792, 0.638, 192.0, 0.0, 0.0, 0.0, 0.0, 0.0, 0.0, 0.0, 0.0, 0.0, 1.6541565410197392E9, 0.0, 2022-06-02 09:55:41.019
103.0, 23661.668439110334, 800.9524108114733, -75205.998147249, -54339.907090652836, -39787.0439037137, -39762.121708646024, -8316.88294611966, -46273.564848132715, 0.006, 0.792, 0.638, 192.0, 0.0, 0.0, 0.0, 0.0, 0.0, 0.0, 0.0, 0.0, 0.0, 1.654156541019745E9, 0.0, 2022-06-02 09:55:41.019
104.0, 23657.645125108378, 796.0126752868504, -75200.2984524129, -54342.499893009655, -39791.17897643793, -39776.80680475316, -8339.07822836378, -46283.623133137604, 0.006, 0.792, 0.638, 192.0, 0.0, 0.0, 0.0, 0.0, 0.0, 0.0, 0.0, 0.0, 0.0, 1.6541565410197508E9, 0.0, 2022-06-02 09:55:41.019
105.0, 23669.089218269495, 810.8765853496296, -75173.9457457001, -54324.394980000856, -39770.168336649935, -39764.11101390255, -8327.477672991476, -46271.44143240946, 0.006, 0.792, 0.638, 192.0, 0.0, 0.0, 0.0, 0.0, 0.0, 0.0, 0.0, 0.0, 0.0, 1.6541565414991121E9, 0.0, 2022-06-02 09:55:41.499
106.0, 23664.238889722692, 811.8600621056631, -75167.26257410795, -54318.158843297824, -39754.74563297578, -39754.41035680895, -8294.218277241978, -46247.01097571981, 0.006, 0.792, 0.638, 192.0, 0.0, 0.0, 0.0, 0.0, 0.0, 0.0, 0.0, 0.0, 0.0, 1.6541565414992914E9, 0.0, 2022-06-02 09:55:41.499
107.0, 23686.121247544437, 825.5616814567663, -75167.32962934133, -54309.46401470471, -39754.522115531225, -39732.88562689848, -8277.230951455946, -46223.56399578619, 0.004, 0.796, 0.634, 192.0, 0.0, 32.0, 24.0, 224.0, 19.0, 208.0, 0.0, 0.0, 0.0, 1.654156541499311E9, 0.0, 2022-06-02 09:55:41.499
108.0, 23690.83746562451, 814.6763819070318, -75193.14589418721, -54333.55919522753, -39784.92048799044, -39756.51142078774, -8296.364044709688, -46248.24032166485, 0.004, 0.796, 0.634, 192.0, 0.0, 0.0, 0.0, 0.0, 0.0, 0.0, 0.0, 0.0, 0.0, 1.6541565414993176E9, 0.0, 2022-06-02 09:55:41.499
109.0, 23681.31562248655, 811.7259516389313, -75188.85435925178, -54337.56015748503, -39791.38014213803, -39773.72226401833, -8313.2619635179, -46265.33940617316, 0.004, 0.796, 0.634, 192.0, 0.0, 0.0, 0.0, 0.0, 0.0, 0.0, 0.0, 0.0, 0.0, 1.6541565414993253E9, 0.0, 2022-06-02 09:55:41.499
110.0, 23679.996869563685, 824.5335012118222, -75159.61827750424, -54312.302686250536, -39767.12849940402, -39752.353996319056, -8281.298968946812, -46233.28700462425, 0.004, 0.796, 0.634, 192.0, 0.0, 0.0, 0.0, 0.0, 0.0, 0.0, 0.0, 0.0, 0.0, 1.654156541499333E9, 0.0, 2022-06-02 09:55:41.499
111.0, 23683.371982976438, 835.2399868059143, -75145.44727151957, -54294.60010464193, -39747.749536961266, -39736.43955426688, -8265.429230383543, -46223.072257408174, 0.004, 0.796, 0.634, 192.0, 0.0, 0.0, 0.0, 0.0, 0.0, 0.0, 0.0, 0.0, 0.0, 1.6541565414993403E9, 0.0, 2022-06-02 09:55:41.499
112.0, 23673.35840146046, 825.7628471568642, -75160.53469902692, -54306.93826758126, -39755.974978920814, -39734.2267315658, -8270.458372885987, -46220.94884168492, 0.004, 0.796, 0.634, 192.0, 0.0, 0.0, 0.0, 0.0, 0.0, 0.0, 0.0, 0.0, 0.0, 1.6541565414993453E9, 0.0, 2022-06-02 09:55:41.499
113.0, 23665.892918812388, 804.9533730689733, -75191.98360347553, -54340.97997438669, -39785.32281939063, -39768.82723198262, -8314.603068185219, -46271.35202543164, 0.004, 0.796, 0.634, 192.0, 0.0, 0.0, 0.0, 0.0, 0.0, 0.0, 0.0, 0.0, 0.0, 1.6541565414993503E9, 0.0, 2022-06-02 09:55:41.499
114.0, 23683.55079693208, 819.0126203313614, -75173.65517302218, -54325.89254687936, -39770.12363316103, -39766.36854009254, -8312.837280373249, -46265.42881315098, 0.004, 0.796, 0.634, 192.0, 0.0, 0.0, 0.0, 0.0, 0.0, 0.0, 0.0, 0.0, 0.0, 1.6541565414993556E9, 0.0, 2022-06-02 09:55:41.499
115.0, 23693.765544148155, 835.4188007615568, -75142.09450985129, -54297.84110758795, -39736.75247868925, -39736.88658915598, -8273.29704443181, -46221.10530389611, 0.004, 0.796, 0.634, 192.0, 0.0, 0.0, 0.0, 0.0, 0.0, 0.0, 0.0, 0.0, 0.0, 1.6541565414993608E9, 0.0, 2022-06-02 09:55:41.499
116.0, 23692.916177858853, 840.8502746641964, -75135.52309698143, -54288.60983712791, -39719.29576626966, -39721.21801629281, -8254.92391048955, -46205.45908277739, 0.004, 0.796, 0.634, 192.0, 0.0, 0.0, 0.0, 0.0, 0.0, 0.0, 0.0, 0.0, 0.0, 1.654156541499366E9, 0.0, 2022-06-02 09:55:41.499
117.0, 23684.333107988015, 828.3332977692245, -75164.46860605104, -54314.381398484875, -39738.45121126786, -39739.43468802389, -8283.757660836895, -46237.22091164839, 0.004, 0.794, 0.632, 192.0, 0.0, 32.0, 24.0, 208.0, 19.0, 192.0, 0.0, 0.0, 0.0, 1.6541565414993713E9, 0.0, 2022-06-02 09:55:41.499
118.0, 23699.241721539704, 822.9688790999508, -75180.91948997015, -54326.965430613214, -39753.56099051965, -39751.83990619658, -8300.342655222734, -46253.492981611846, 0.004, 0.794, 0.632, 192.0, 0.0, 0.0, 0.0, 0.0, 0.0, 0.0, 0.0, 0.0, 0.0, 1.6541565414993763E9, 0.0, 2022-06-02 09:55:41.499
119.0, 23684.757791132666, 816.1963005299928, -75182.75233301548, -54326.272526535104, -39757.89722894398, -39758.34426383308, -8295.380567953654, -46247.145086186545, 0.004, 0.794, 0.632, 192.0, 0.0, 0.0, 0.0, 0.0, 0.0, 0.0, 0.0, 0.0, 0.0, 1.6541565414993825E9, 0.0, 2022-06-02 09:55:41.499
120.0, 23675.571224161533, 823.9300041115289, -75165.988524674, -54309.26284900461, -39743.01096713674, -39752.264589341234, -8281.343672435722, -46243.97113847389, 0.004, 0.794, 0.632, 192.0, 0.0, 0.0, 0.0, 0.0, 0.0, 0.0, 0.0, 0.0, 0.0, 1.6541565414993885E9, 0.0, 2022-06-02 09:55:41.499
121.0, 23677.091142784495, 832.7812949158306, -75149.35882679926, -54290.755604595615, -39722.983804104784, -39727.40944950694, -8247.659593541573, -46210.04119039073, 0.004, 0.794, 0.632, 192.0, 0.0, 0.0, 0.0, 0.0, 0.0, 0.0, 0.0, 0.0, 0.0, 1.6541565414993937E9, 0.0, 2022-06-02 09:55:41.499
122.0, 23683.93077658782, 836.1340565841266, -75160.06531239334, -54295.40476744232, -39732.17037107592, -39728.12470532951, -8273.811134554284, -46238.22674014887, 0.004, 0.794, 0.632, 192.0, 0.0, 0.0, 0.0, 0.0, 0.0, 0.0, 0.0, 0.0, 0.0, 1.6541565414993987E9, 0.0, 2022-06-02 09:55:41.499
123.0, 23674.632450894413, 810.3401434827023, -75204.81350479288, -54335.68261095078, -39774.61633379654, -39768.44725232688, -8334.138492839158, -46290.82039485221, 0.004, 0.794, 0.632, 192.0, 0.0, 0.0, 0.0, 0.0, 0.0, 0.0, 0.0, 0.0, 0.0, 1.654156541499404E9, 0.0, 2022-06-02 09:55:41.499
124.0, 23664.976497289717, 799.0078090438616, -75201.17017044665, -54336.66608770682, -39785.568688579646, -39769.25191512727, -8324.951925868027, -46242.49592333984, 0.004, 0.794, 0.632, 192.0, 0.0, 0.0, 0.0, 0.0, 0.0, 0.0, 0.0, 0.0, 0.0, 1.6541565414994092E9, 0.0, 2022-06-02 09:55:41.499
125.0, 23674.811264850054, 820.2643180208586, -75169.56480378685, -54306.37947396988, -39764.446290069376, -39745.514362515736, -8296.49815517642, -46217.43961780544, 0.004, 0.794, 0.632, 192.0, 0.0, 0.0, 0.0, 0.0, 0.0, 0.0, 0.0, 0.0, 0.0, 1.6541565414994144E9, 0.0, 2022-06-02 09:55:41.499
126.0, 23673.336049716003, 825.2934605233027, -75161.89815543868, -54299.9645233112, -39752.711624230345, -39744.329720059606, -8275.73338457744, -46228.97311794438, 0.004, 0.794, 0.632, 192.0, 0.0, 0.0, 0.0, 0.0, 0.0, 0.0, 0.0, 0.0, 0.0, 1.6541565414994197E9, 0.0, 2022-06-02 09:55:41.499
127.0, 23676.82292185103, 827.6627454355652, -75168.9389549421, -54303.831375101974, -39750.54350501818, -39735.232560066295, -8271.01716649737, -46219.33951608414, 0.002, 0.794, 0.632, 192.0, 0.0, 16.0, 24.0, 208.0, 19.0, 192.0, 0.0, 0.0, 0.0, 1.6541565414994247E9, 0.0, 2022-06-02 09:55:41.499
128.0, 23684.534273688114, 821.0689808212496, -75193.30235639839, -54330.02761960359, -39774.526926818726, -39755.840868454085, -8299.381530211154, -46249.04498446524, 0.002, 0.794, 0.632, 192.0, 0.0, 0.0, 0.0, 0.0, 0.0, 0.0, 0.0, 0.0, 0.0, 1.654156541499437E9, 0.0, 2022-06-02 09:55:41.499
129.0, 23690.904520857875, 822.7006581664871, -75184.02638244943, -54326.071360835005, -39766.904981959466, -39761.33939759009, -8295.939361565037, -46241.7136122839, 0.002, 0.794, 0.632, 192.0, 0.0, 0.0, 0.0, 0.0, 0.0, 0.0, 0.0, 0.0, 0.0, 1.654156541499442E9, 0.0, 2022-06-02 09:55:41.499
130.0, 23695.754849404675, 834.122399583149, -75158.88066993722, -54303.98783731316, -39745.13438285999, -39744.57558924861, -8278.773221823361, -46220.8594347071, 0.002, 0.794, 0.632, 192.0, 0.0, 0.0, 0.0, 0.0, 0.0, 0.0, 0.0, 0.0, 0.0, 1.6541565414994473E9, 0.0, 2022-06-02 09:55:41.499
131.0, 23703.667366941856, 848.2039985899925, -75139.76992842794, -54286.575828382476, -39727.744725673765, -39721.463885481826, -8267.932625762538, -46210.06354213519, 0.002, 0.794, 0.632, 192.0, 0.0, 0.0, 0.0, 0.0, 0.0, 0.0, 0.0, 0.0, 0.0, 1.6541565414994526E9, 0.0, 2022-06-02 09:55:41.499
132.0, 23694.30198601508, 834.122399583149, -75162.03226590542, -54307.16178502581, -39743.189781092384, -39730.98572861979, -8269.407840896589, -46221.060600407196, 0.002, 0.794, 0.632, 192.0, 0.0, 0.0, 0.0, 0.0, 0.0, 0.0, 0.0, 0.0, 0.0, 1.6541565414994576E9, 0.0, 2022-06-02 09:55:41.499
133.0, 23677.247604995682, 807.1438440255934, -75204.7017460706, -54345.96441340022, -39782.618258311544, -39764.178069135916, -8314.64777167413, -46257.78451654727, 0.002, 0.794, 0.632, 192.0, 0.0, 0.0, 0.0, 0.0, 0.0, 0.0, 0.0, 0.0, 0.0, 1.6541565414994628E9, 0.0, 2022-06-02 09:55:41.499
134.0, 23683.997831821183, 810.9212888385402, -75193.95055698759, -54335.95083188425, -39779.466662343344, -39763.01577842424, -8321.59916419973, -46250.207275176916, 0.002, 0.794, 0.632, 192.0, 0.0, 0.0, 0.0, 0.0, 0.0, 0.0, 0.0, 0.0, 0.0, 1.654156541499468E9, 0.0, 2022-06-02 09:55:41.499
135.0, 23683.282575998615, 823.4159139890569, -75167.50844329697, -54316.191889785754, -39760.15475513396, -39749.135345117495, -8303.40484421311, -46233.376411602076, 0.002, 0.794, 0.632, 192.0, 0.0, 0.0, 0.0, 0.0, 0.0, 0.0, 0.0, 0.0, 0.0, 1.654156541499473E9, 0.0, 2022-06-02 09:55:41.499
136.0, 23666.49641591268, 821.6277744326323, -75163.14985312818, -54312.70501765073, -39756.44436555438, -39745.33554856009, -8304.142451780135, -46236.05862093671, 0.002, 0.794, 0.632, 192.0, 0.0, 0.0, 0.0, 0.0, 0.0, 0.0, 0.0, 0.0, 0.0, 1.6541565414994788E9, 0.0, 2022-06-02 09:55:41.499
137.0, 23665.401180434368, 820.2643180208586, -75177.23145213502, -54321.377494499386, -39761.20528712336, -39751.90696142995, -8299.82856510026, -46265.29470268425, 0.006, 0.8, 0.632, 192.0, 0.0, 48.0, 25.0, 0.0, 19.0, 192.0, 0.0, 0.0, 0.0, 1.6541565414994843E9, 0.0, 2022-06-02 09:55:41.499
138.0, 23665.31177345655, 805.5792219137219, -75206.73575481604, -54347.529035512096, -39783.333514134116, -39780.383083866014, -8322.806158400317, -46298.308229244736, 0.006, 0.8, 0.632, 192.0, 0.0, 0.0, 0.0, 0.0, 0.0, 0.0, 0.0, 0.0, 0.0, 1.6541565414994895E9, 0.0, 2022-06-02 09:55:41.499
139.0, 23673.134884015904, 810.3401434827023, -75190.32957438583, -54334.83324466148, -39774.72809251882, -39769.1848598939, -8308.143414037635, -46262.098403227144, 0.006, 0.8, 0.632, 192.0, 0.0, 0.0, 0.0, 0.0, 0.0, 0.0, 0.0, 0.0, 0.0, 1.654156541499495E9, 0.0, 2022-06-02 09:55:41.499
140.0, 23665.49058741219, 813.961126084462, -75174.77276024494, -54317.51064270862, -39767.91081045995, -39746.20726659385, -8308.143414037635, -46227.274385365774, 0.006, 0.8, 0.632, 192.0, 0.0, 0.0, 0.0, 0.0, 0.0, 0.0, 0.0, 0.0, 0.0, 1.6541565414995005E9, 0.0, 2022-06-02 09:55:41.499
141.0, 23665.26706996764, 819.4820069649228, -75167.35198108578, -54304.83720360246, -39751.035243396196, -39731.74568793127, -8310.959733839003, -46223.787513230745, 0.006, 0.8, 0.632, 192.0, 0.0, 0.0, 0.0, 0.0, 0.0, 0.0, 0.0, 0.0, 0.0, 1.6541565414995055E9, 0.0, 2022-06-02 09:55:41.499
142.0, 23664.507110656155, 814.6763819070318, -75177.36556260176, -54312.772072884094, -39749.5823800066, -39734.65141471045, -8283.288274203334, -46227.90023421052, 0.006, 0.8, 0.632, 192.0, 0.0, 0.0, 0.0, 0.0, 0.0, 0.0, 0.0, 0.0, 0.0, 1.6541565414995108E9, 0.0, 2022-06-02 09:55:41.499
143.0, 23660.841424565486, 800.7065416224649, -75202.71244081408, -54337.91778539632, -39780.49484258829, -39759.08187140011, -8289.725576606463, -46253.13535370056, 0.006, 0.8, 0.632, 192.0, 0.0, 0.0, 0.0, 0.0, 0.0, 0.0, 0.0, 0.0, 0.0, 1.654156541499516E9, 0.0, 2022-06-02 09:55:41.499
144.0, 23651.096063982972, 792.3916926850907, -75206.48988562703, -54346.99259364517, -39798.979735252826, -39779.86899374354, -8324.773111912384, -46274.816545822214, 0.006, 0.8, 0.632, 192.0, 0.0, 0.0, 0.0, 0.0, 0.0, 0.0, 0.0, 0.0, 0.0, 1.6541565414995213E9, 0.0, 2022-06-02 09:55:41.499
145.0, 23657.645125108378, 802.4946811788894, -75183.17701616013, -54328.91003238082, -39780.83011875512, -39764.647455769475, -8312.926687351071, -46253.73885080086, 0.006, 0.8, 0.632, 192.0, 0.0, 0.0, 0.0, 0.0, 0.0, 0.0, 0.0, 0.0, 0.0, 1.6541565414995267E9, 0.0, 2022-06-02 09:55:41.499
146.0, 23653.35359017296, 807.6355824036101, -75177.07498992384, -54320.79634914355, -39762.836964468595, -39761.04882491217, -8296.140527265135, -46259.48324912587, 0.006, 0.8, 0.632, 192.0, 0.0, 0.0, 0.0, 0.0, 0.0, 0.0, 0.0, 0.0, 0.0, 1.654156541499532E9, 0.0, 2022-06-02 09:55:41.499
147.0, 23651.92307852782, 810.608364416166, -75186.19450166161, -54323.16563405581, -39762.68050225741, -39759.57360977812, -8296.475803431966, -46267.619284107604, 0.008, 0.796, 0.628, 192.0, 0.0, 64.0, 24.0, 224.0, 19.0, 160.0, 0.0, 0.0, 0.0, 1.6541565414995375E9, 0.0, 2022-06-02 09:55:41.499
148.0, 23639.070825466017, 788.0107507718504, -75222.22551372356, -54351.5299977696, -39797.34805790759, -39786.038075213204, -8326.762417168906, -46287.199412250455, 0.008, 0.796, 0.628, 192.0, 0.0, 0.0, 0.0, 0.0, 0.0, 0.0, 0.0, 0.0, 0.0, 1.6541565414995427E9, 0.0, 2022-06-02 09:55:41.499
149.0, 23650.24669769367, 792.1011200071716, -75212.41309790767, -54344.310384310535, -39795.85049102909, -39791.06721771565, -8334.3173067948, -46280.04685402475, 0.008, 0.796, 0.628, 192.0, 0.0, 0.0, 0.0, 0.0, 0.0, 0.0, 0.0, 0.0, 0.0, 1.654156541499548E9, 0.0, 2022-06-02 09:55:41.499
150.0, 23660.930831543308, 801.6229631451325, -75192.56474883137, -54330.966392870716, -39781.098339688586, -39784.786377523706, -8337.55830974082, -46280.270371469305, 0.008, 0.796, 0.628, 192.0, 0.0, 0.0, 0.0, 0.0, 0.0, 0.0, 0.0, 0.0, 0.0, 1.6541565414995556E9, 0.0, 2022-06-02 09:55:41.499
151.0, 23653.35359017296, 803.8804893351185, -75182.9982022045, -54322.04804683305, -39767.91081045995, -39770.54831630568, -8317.084111819759, -46255.75050780184, 0.008, 0.796, 0.628, 192.0, 0.0, 0.0, 0.0, 0.0, 0.0, 0.0, 0.0, 0.0, 0.0, 1.654156541499561E9, 0.0, 2022-06-02 09:55:41.499
152.0, 23667.703410113267, 813.7376086399089, -75181.2994696259, -54315.99072408566, -39761.87583945702, -39756.28790334319, -8311.65263791712, -46249.804943776726, 0.008, 0.796, 0.628, 192.0, 0.0, 0.0, 0.0, 0.0, 0.0, 0.0, 0.0, 0.0, 0.0, 1.6541565414995663E9, 0.0, 2022-06-02 09:55:41.499
153.0, 23675.325354972527, 806.7638643698531, -75202.13129545824, -54338.18600632978, -39782.14887167798, -39774.57163030763, -8335.41254227311, -46279.44335692446, 0.008, 0.796, 0.628, 192.0, 0.0, 0.0, 0.0, 0.0, 0.0, 0.0, 0.0, 0.0, 0.0, 1.6541565414995716E9, 0.0, 2022-06-02 09:55:41.499
154.0, 23693.83259938152, 824.8464256341965, -75175.8903474677, -54322.65154393334, -39769.16250814945, -39769.341322105094, -8325.376609012677, -46259.639711337055, 0.008, 0.796, 0.628, 192.0, 0.0, 0.0, 0.0, 0.0, 0.0, 0.0, 0.0, 0.0, 0.0, 1.6541565414995768E9, 0.0, 2022-06-02 09:55:41.499
155.0, 23686.434171966812, 824.1311698116267, -75162.74752172799, -54313.91201185132, -39755.23737135379, -39758.433670810904, -8290.887867318139, -46229.598966789126, 0.008, 0.796, 0.628, 192.0, 0.0, 0.0, 0.0, 0.0, 0.0, 0.0, 0.0, 0.0, 0.0, 1.6541565414995825E9, 0.0, 2022-06-02 09:55:41.499
156.0, 23682.142637031393, 823.9747076004396, -75160.06531239334, -54310.84982286094, -39754.8350399536, -39753.49393528628, -8294.285332475345, -46231.45416157891, 0.008, 0.796, 0.628, 192.0, 0.0, 0.0, 0.0, 0.0, 0.0, 0.0, 0.0, 0.0, 0.0, 1.654156541499588E9, 0.0, 2022-06-02 09:55:41.499
157.0, 23676.800570106578, 822.0971610661937, -75173.65517302218, -54319.41054098732, -39767.01674068174, -39757.53960103269, -8319.252231031924, -46259.25973168132, 0.006, 0.796, 0.632, 192.0, 0.0, 48.0, 24.0, 224.0, 19.0, 192.0, 0.0, 0.0, 0.0, 1.6541565414995935E9, 0.0, 2022-06-02 09:55:41.499
