%OpenBCI Raw EEG Data
%Number of channels = 8
%Sample Rate = 250 Hz
%Board = OpenBCI_GUI$BoardCytonSerial
Sample Index, EXG Channel 0, EXG Channel 1, EXG Channel 2, EXG Channel 3, EXG Channel 4, EXG Channel 5, EXG Channel 6, EXG Channel 7, Accel Channel 0, Accel Channel 1, Accel Channel 2, Other, Other, Other, Other, Other, Other, Other, Analog Channel 0, Analog Channel 1, Analog Channel 2, Timestamp, Other, Timestamp (Formatted)
0.0, 0.0, 0.0, 0.0, 0.0, 0.0, 0.0, 0.0, 0.0, 0.004, 0.988, 0.304, 192.0, 0.0, 32.0, 30.0, 224.0, 9.0, 128.0, 0.0, 0.0, 0.0, 1.653905069583852E9, 0.0, 2022-05-30 12:04:29.583
1.0, 12139.187710188355, 19592.041622643665, -63916.60140950697, -46772.45578437517, -25862.063570268583, -34968.20896484959, -9525.911155451675, -11286.602769685123, 0.004, 0.988, 0.304, 192.0, 0.0, 0.0, 0.0, 0.0, 0.0, 0.0, 0.0, 0.0, 0.0, 1.6539050700605123E9, 0.0, 2022-05-30 12:04:30.060
2.0, 12139.455931121818, 19578.429410270383, -63933.65579052637, -46786.87265954884, -25876.74866637572, -34981.172976633665, -9535.678867778644, -11295.297598278237, 0.004, 0.988, 0.304, 192.0, 0.0, 0.0, 0.0, 0.0, 0.0, 0.0, 0.0, 0.0, 0.0, 1.653905070060612E9, 0.0, 2022-05-30 12:04:30.060
3.0, 12145.69206782485, 19594.83559070058, -63920.64707525338, -46772.724005308635, -25867.807968593595, -34964.766796203476, -9526.916983952164, -11290.246104031337, 0.004, 0.988, 0.304, 192.0, 0.0, 0.0, 0.0, 0.0, 0.0, 0.0, 0.0, 0.0, 0.0, 1.6539050700606167E9, 0.0, 2022-05-30 12:04:30.060
4.0, 12148.821312048593, 19610.9288467084, -63906.856048924456, -46762.19633367018, -25860.811872579085, -34946.88540063923, -9509.63908548821, -11268.207283998405, 0.004, 0.988, 0.304, 192.0, 0.0, 0.0, 0.0, 0.0, 0.0, 0.0, 0.0, 0.0, 0.0, 1.6539050700606215E9, 0.0, 2022-05-30 12:04:30.060
5.0, 12130.716399039793, 19606.816125728623, -63905.00085413467, -46762.15163018127, -25859.783692334142, -34941.02924359193, -9491.556524223868, -11260.004193783307, 0.004, 0.988, 0.304, 192.0, 0.0, 0.0, 0.0, 0.0, 0.0, 0.0, 0.0, 0.0, 0.0, 1.6539050700606263E9, 0.0, 2022-05-30 12:04:30.060
6.0, 12129.01766646119, 19596.26610234572, -63915.19324960629, -46770.37707214082, -25867.673858126862, -34954.261476309475, -9505.16873659715, -11267.715545620387, 0.004, 0.988, 0.304, 192.0, 0.0, 0.0, 0.0, 0.0, 0.0, 0.0, 0.0, 0.0, 0.0, 1.6539050700606308E9, 0.0, 2022-05-30 12:04:30.060
7.0, 12123.452082091819, 19582.899759161446, -63935.6897992718, -46787.20793571567, -25886.248157769223, -34979.18367137715, -9547.480588851045, -11293.732976166366, 0.002, 0.976, 0.33, 192.0, 0.0, 16.0, 30.0, 128.0, 10.0, 80.0, 0.0, 0.0, 0.0, 1.6539050700606356E9, 0.0, 2022-05-30 12:04:30.060
8.0, 12135.522024097685, 19590.655814487436, -63926.302066600576, -46774.19922044268, -25882.49306470073, -34966.420825293164, -9542.98788821553, -11283.09354580564, 0.002, 0.976, 0.33, 192.0, 0.0, 0.0, 0.0, 0.0, 0.0, 0.0, 0.0, 0.0, 0.0, 1.65390507006064E9, 0.0, 2022-05-30 12:04:30.060
9.0, 12152.665812094905, 19608.20193388485, -63900.485801754694, -46751.333385864906, -25864.857538325494, -34943.33147327083, -9512.164832611661, -11263.915749062986, 0.002, 0.976, 0.33, 192.0, 0.0, 0.0, 0.0, 0.0, 0.0, 0.0, 0.0, 0.0, 0.0, 1.6539050700606444E9, 0.0, 2022-05-30 12:04:30.060
10.0, 12167.753239602238, 19620.49539333527, -63898.608255220446, -46746.93009220721, -25856.632096365942, -34942.19153430361, -9500.988960384007, -11258.37251643807, 0.002, 0.976, 0.33, 192.0, 0.0, 0.0, 0.0, 0.0, 0.0, 0.0, 0.0, 0.0, 0.0, 1.6539050700606492E9, 0.0, 2022-05-30 12:04:30.060
11.0, 12159.818370320603, 19627.60324807206, -63893.869685395926, -46740.60454852635, -25842.237572936723, -34932.021490576444, -9494.395195769692, -11252.829283813153, 0.002, 0.976, 0.33, 192.0, 0.0, 0.0, 0.0, 0.0, 0.0, 0.0, 0.0, 0.0, 0.0, 1.6539050700606537E9, 0.0, 2022-05-30 12:04:30.060
12.0, 12154.968041773802, 19620.450689846362, -63901.35751978845, -46746.79598174048, -25845.858555538485, -34926.85823760727, -9473.541018192891, -11240.535824362734, 0.002, 0.976, 0.33, 192.0, 0.0, 0.0, 0.0, 0.0, 0.0, 0.0, 0.0, 0.0, 0.0, 1.6539050700606582E9, 0.0, 2022-05-30 12:04:30.060
13.0, 12175.911626328425, 19606.704367006347, -63904.24089482318, -46748.651176530264, -25856.006247521193, -34928.55697018588, -9463.773305865921, -11247.509568632791, 0.002, 0.976, 0.33, 192.0, 0.0, 0.0, 0.0, 0.0, 0.0, 0.0, 0.0, 0.0, 0.0, 1.6539050700606625E9, 0.0, 2022-05-30 12:04:30.060
14.0, 12185.634635166483, 19621.635332302492, -63881.956205601244, -46730.143932121275, -25827.843049507508, -34915.05651653487, -9479.620692684734, -11239.597051095612, 0.002, 0.976, 0.33, 192.0, 0.0, 0.0, 0.0, 0.0, 0.0, 0.0, 0.0, 0.0, 0.0, 1.653905070060667E9, 0.0, 2022-05-30 12:04:30.060
15.0, 12162.277062210687, 19619.10958517904, -63890.852199894456, -46737.743525236074, -25825.183191917324, -34918.476333436534, -9495.266913803449, -11246.03435349874, 0.002, 0.976, 0.33, 192.0, 0.0, 0.0, 0.0, 0.0, 0.0, 0.0, 0.0, 0.0, 0.0, 1.6539050700606713E9, 0.0, 2022-05-30 12:04:30.060
16.0, 12136.147872942433, 19612.851096731556, -63908.64418848088, -46756.02725220052, -25839.890639768917, -34933.89903711069, -9493.501125991479, -11247.151940721506, 0.002, 0.976, 0.33, 192.0, 0.0, 0.0, 0.0, 0.0, 0.0, 0.0, 0.0, 0.0, 0.0, 1.6539050700606759E9, 0.0, 2022-05-30 12:04:30.060
17.0, 12137.69014330985, 19614.192201398873, -63908.21950533623, -46752.76389751004, -25849.144261973415, -34935.37425224474, -9497.63619871571, -11253.991574524829, 0.002, 0.974, 0.34600000000000003, 192.0, 0.0, 16.0, 30.0, 112.0, 10.0, 208.0, 0.0, 0.0, 0.0, 1.6539050700606804E9, 0.0, 2022-05-30 12:04:30.060
18.0, 12145.803826547126, 19607.911361206934, -63907.347787302475, -46747.44418232968, -25855.11217774298, -34933.80963013287, -9503.380597040725, -11257.254929215303, 0.002, 0.974, 0.34600000000000003, 192.0, 0.0, 0.0, 0.0, 0.0, 0.0, 0.0, 0.0, 0.0, 0.0, 1.6539050700606847E9, 0.0, 2022-05-30 12:04:30.060
19.0, 12172.625919893495, 19624.295189892673, -63882.26913002362, -46727.841702442376, -25831.218162920257, -34916.19645550209, -9494.439899258603, -11245.632022098545, 0.002, 0.974, 0.34600000000000003, 192.0, 0.0, 0.0, 0.0, 0.0, 0.0, 0.0, 0.0, 0.0, 0.0, 1.6539050700606892E9, 0.0, 2022-05-30 12:04:30.060
20.0, 12155.504483640729, 19624.138727681486, -63892.0815458395, -46733.94372867867, -25836.69434031181, -34921.85144684928, -9492.741166679998, -11256.047935014718, 0.002, 0.974, 0.34600000000000003, 192.0, 0.0, 0.0, 0.0, 0.0, 0.0, 0.0, 0.0, 0.0, 0.0, 1.6539050700606935E9, 0.0, 2022-05-30 12:04:30.060
21.0, 12175.039908294668, 19626.575067827114, -63883.52082771312, -46736.46947580212, -25837.45429962329, -34923.8407521058, -9481.274721774427, -11263.89339731853, 0.002, 0.974, 0.34600000000000003, 192.0, 0.0, 0.0, 0.0, 0.0, 0.0, 0.0, 0.0, 0.0, 0.0, 1.653905070060698E9, 0.0, 2022-05-30 12:04:30.060
22.0, 12160.108942998522, 19612.15819265344, -63897.53537148659, -46748.85234223036, -25847.35612241699, -34933.25083652149, -9483.97928285352, -11258.819551327177, 0.002, 0.974, 0.34600000000000003, 192.0, 0.0, 0.0, 0.0, 0.0, 0.0, 0.0, 0.0, 0.0, 0.0, 1.6539050700607083E9, 0.0, 2022-05-30 12:04:30.060
23.0, 12139.29946891063, 19614.41571884343, -63895.16608657433, -46744.91843520623, -25849.904221284894, -34927.417031218654, -9481.87821887472, -11248.671859344466, 0.002, 0.974, 0.34600000000000003, 192.0, 0.0, 0.0, 0.0, 0.0, 0.0, 0.0, 0.0, 0.0, 0.0, 1.6539050700607128E9, 0.0, 2022-05-30 12:04:30.060
24.0, 12152.17407371689, 19624.608114315048, -63882.71616491272, -46734.43546705669, -25832.447508865298, -34912.62017638924, -9451.748067348966, -11231.013981224774, 0.002, 0.974, 0.34600000000000003, 192.0, 0.0, 0.0, 0.0, 0.0, 0.0, 0.0, 0.0, 0.0, 0.0, 1.6539050700607169E9, 0.0, 2022-05-30 12:04:30.060
25.0, 12165.518065156706, 19627.536192838692, -63882.98438584619, -46735.08366764589, -25829.519430341654, -34919.07983053682, -9448.81998882532, -11229.449359112903, 0.002, 0.974, 0.34600000000000003, 192.0, 0.0, 0.0, 0.0, 0.0, 0.0, 0.0, 0.0, 0.0, 0.0, 1.653905070060721E9, 0.0, 2022-05-30 12:04:30.060
26.0, 12171.374222203996, 19624.764576526235, -63882.64910967936, -46737.52000779152, -25832.000473976193, -34927.95347308558, -9486.527381721424, -11245.497911631814, 0.002, 0.974, 0.34600000000000003, 192.0, 0.0, 0.0, 0.0, 0.0, 0.0, 0.0, 0.0, 0.0, 0.0, 1.6539050700607252E9, 0.0, 2022-05-30 12:04:30.060
27.0, 12198.263370783732, 19625.25631490425, -63886.40420274785, -46738.525836292014, -25832.49221235421, -34926.47825795153, -9496.183335326115, -11251.46582740138, 0.002, 0.964, 0.354, 192.0, 0.0, 16.0, 30.0, 32.0, 11.0, 16.0, 0.0, 0.0, 0.0, 1.6539050700607293E9, 0.0, 2022-05-30 12:04:30.060
28.0, 12178.616187407517, 19608.20193388485, -63887.85706613745, -46743.39851658327, -25843.06458748157, -34928.735784141514, -9487.332044521814, -11249.431818655947, 0.002, 0.964, 0.354, 192.0, 0.0, 0.0, 0.0, 0.0, 0.0, 0.0, 0.0, 0.0, 0.0, 1.6539050700607333E9, 0.0, 2022-05-30 12:04:30.060
29.0, 12161.382992432475, 19613.253428131753, -63871.85321710745, -46725.807693696945, -25839.91299151337, -34917.694022380594, -9470.344718735781, -11241.60870809659, 0.002, 0.964, 0.354, 192.0, 0.0, 0.0, 0.0, 0.0, 0.0, 0.0, 0.0, 0.0, 0.0, 1.6539050700607374E9, 0.0, 2022-05-30 12:04:30.060
30.0, 12169.876655325492, 19619.757785768245, -63868.9251385838, -46721.538510505976, -25833.989779232717, -34911.16731299965, -9469.852980357764, -11241.027562740752, 0.002, 0.964, 0.354, 192.0, 0.0, 0.0, 0.0, 0.0, 0.0, 0.0, 0.0, 0.0, 0.0, 1.6539050700607417E9, 0.0, 2022-05-30 12:04:30.060
31.0, 12156.957347030324, 19604.44684081636, -63886.80653414805, -46745.6336910288, -25842.952828759295, -34929.42868821963, -9461.828704098309, -11248.090713988628, 0.002, 0.964, 0.354, 192.0, 0.0, 0.0, 0.0, 0.0, 0.0, 0.0, 0.0, 0.0, 0.0, 1.6539050700607457E9, 0.0, 2022-05-30 12:04:30.060
32.0, 12159.036059264668, 19598.903608191446, -63894.07085109602, -46752.60743529886, -25853.368741675466, -34933.228484777035, -9496.563314981857, -11252.784580324244, 0.002, 0.964, 0.354, 192.0, 0.0, 0.0, 0.0, 0.0, 0.0, 0.0, 0.0, 0.0, 0.0, 1.6539050700607495E9, 0.0, 2022-05-30 12:04:30.060
33.0, 12178.772649618704, 19608.60426528505, -63884.906635869345, -46738.615243269836, -25853.97223877576, -34925.27126375095, -9494.886934147708, -11252.404600668502, 0.002, 0.964, 0.354, 192.0, 0.0, 0.0, 0.0, 0.0, 0.0, 0.0, 0.0, 0.0, 0.0, 1.6539050700607536E9, 0.0, 2022-05-30 12:04:30.060
34.0, 12185.36641423302, 19618.662550289937, -63876.83765612098, -46726.4782460306, -25836.87315426745, -34917.47050493604, -9479.173657795627, -11244.022696497763, 0.002, 0.964, 0.354, 192.0, 0.0, 0.0, 0.0, 0.0, 0.0, 0.0, 0.0, 0.0, 0.0, 1.6539050700607579E9, 0.0, 2022-05-30 12:04:30.060
35.0, 12200.632655695994, 19621.300056135664, -63864.09716178146, -46720.555033749944, -25826.41253786237, -34911.904920566674, -9476.111468805251, -11233.89735625951, 0.002, 0.964, 0.354, 192.0, 0.0, 0.0, 0.0, 0.0, 0.0, 0.0, 0.0, 0.0, 0.0, 1.653905070060762E9, 0.0, 2022-05-30 12:04:30.060
36.0, 12188.495658456763, 19612.627579287004, -63875.09422005346, -46729.45102804316, -25835.330883900035, -34922.3431852273, -9482.749936908476, -11242.011039496785, 0.002, 0.964, 0.354, 192.0, 0.0, 0.0, 0.0, 0.0, 0.0, 0.0, 0.0, 0.0, 0.0, 1.653905070060766E9, 0.0, 2022-05-30 12:04:30.060
37.0, 12176.738640873271, 19602.68105300439, -63886.515961470126, -46738.034097913995, -25843.48927062622, -34933.072022565844, -9499.804317927876, -11255.153865236505, 0.006, 0.962, 0.362, 192.0, 0.0, 48.0, 30.0, 16.0, 11.0, 80.0, 0.0, 0.0, 0.0, 1.6539050700607705E9, 0.0, 2022-05-30 12:04:30.060
38.0, 12191.893123613969, 19596.400212812452, -63891.2321795502, -46739.88929270379, -25853.011113764183, -34934.72605165554, -9497.16681208215, -11256.584376881645, 0.006, 0.962, 0.362, 192.0, 0.0, 0.0, 0.0, 0.0, 0.0, 0.0, 0.0, 0.0, 0.0, 1.6539050700607743E9, 0.0, 2022-05-30 12:04:30.060
39.0, 12168.289681469165, 19602.166962881918, -63883.74434515767, -46731.887368188785, -25851.468843396768, -34925.78535387342, -9486.236809043505, -11242.03339124124, 0.006, 0.962, 0.362, 192.0, 0.0, 0.0, 0.0, 0.0, 0.0, 0.0, 0.0, 0.0, 0.0, 1.6539050700607784E9, 0.0, 2022-05-30 12:04:30.060
40.0, 12173.40823094943, 19609.096003663064, -63880.03395557809, -46724.91362391873, -25841.656427580885, -34917.984595058515, -9469.852980357764, -11224.733141032833, 0.006, 0.962, 0.362, 192.0, 0.0, 0.0, 0.0, 0.0, 0.0, 0.0, 0.0, 0.0, 0.0, 1.6539050700607824E9, 0.0, 2022-05-30 12:04:30.060
41.0, 12174.928149572392, 19605.810297228134, -63891.768621417126, -46733.697859489665, -25847.333770672532, -34932.84850512129, -9482.347605508281, -11240.200548195906, 0.006, 0.962, 0.362, 192.0, 0.0, 0.0, 0.0, 0.0, 0.0, 0.0, 0.0, 0.0, 0.0, 1.6539050700607865E9, 0.0, 2022-05-30 12:04:30.060
42.0, 12188.36154799003, 19605.475021061306, -63898.42944126481, -46740.24692061507, -25855.201584720802, -34944.38200526023, -9502.106547606772, -11257.366687937581, 0.006, 0.962, 0.362, 192.0, 0.0, 0.0, 0.0, 0.0, 0.0, 0.0, 0.0, 0.0, 0.0, 1.6539050700607908E9, 0.0, 2022-05-30 12:04:30.060
43.0, 12203.247809797265, 19594.63442500048, -63900.10582209895, -46742.25857761605, -25859.940154545326, -34944.98550236053, -9495.870410903743, -11254.12568499156, 0.006, 0.962, 0.362, 192.0, 0.0, 0.0, 0.0, 0.0, 0.0, 0.0, 0.0, 0.0, 0.0, 1.6539050700607965E9, 0.0, 2022-05-30 12:04:30.060
44.0, 12163.461704666819, 19585.53726500717, -63901.826906422015, -46745.231359628604, -25863.516433658177, -34951.66867395266, -9500.139594094706, -11268.788429354243, 0.006, 0.962, 0.362, 192.0, 0.0, 0.0, 0.0, 0.0, 0.0, 0.0, 0.0, 0.0, 0.0, 1.6539050700608003E9, 0.0, 2022-05-30 12:04:30.060
45.0, 12169.11669601401, 19601.429355314893, -63900.44109826579, -46740.15751363725, -25857.347352188513, -34938.883476124225, -9526.69346650761, -11274.868103846085, 0.006, 0.962, 0.362, 192.0, 0.0, 0.0, 0.0, 0.0, 0.0, 0.0, 0.0, 0.0, 0.0, 1.6539050700608046E9, 0.0, 2022-05-30 12:04:30.060
46.0, 12167.373259946497, 19604.670358260915, -63897.08833659749, -46742.102115404865, -25858.44258766682, -34938.883476124225, -9522.066655405362, -11261.70292636191, 0.006, 0.962, 0.362, 192.0, 0.0, 0.0, 0.0, 0.0, 0.0, 0.0, 0.0, 0.0, 0.0, 1.6539050700608087E9, 0.0, 2022-05-30 12:04:30.060
47.0, 12154.766876073703, 19583.68207021738, -63912.55574376056, -46753.18858065469, -25867.94207906033, -34948.98646461803, -9501.905381906674, -11247.46486514388, 0.014, 0.962, 0.362, 192.0, 0.0, 112.0, 30.0, 16.0, 11.0, 80.0, 0.0, 0.0, 0.0, 1.6539050700608127E9, 0.0, 2022-05-30 12:04:30.060
48.0, 12179.912588585925, 19587.034831885678, -63902.720976200224, -46736.089496146385, -25859.537823145132, -34935.84363887831, -9503.246486573993, -11253.969222780373, 0.014, 0.962, 0.362, 192.0, 0.0, 0.0, 0.0, 0.0, 0.0, 0.0, 0.0, 0.0, 0.0, 1.6539050700608168E9, 0.0, 2022-05-30 12:04:30.060
49.0, 12174.861094339025, 19597.96483492432, -63897.334205786494, -46729.00399315405, -25844.942134015815, -34929.652205664184, -9489.477811989524, -11250.012964011785, 0.014, 0.962, 0.362, 192.0, 0.0, 0.0, 0.0, 0.0, 0.0, 0.0, 0.0, 0.0, 0.0, 1.6539050700608208E9, 0.0, 2022-05-30 12:04:30.060
50.0, 12167.306204713132, 19603.35160533805, -63890.919255127825, -46725.315955318925, -25838.50483161269, -34921.33735672681, -9486.54973346588, -11243.150978464006, 0.014, 0.962, 0.362, 192.0, 0.0, 0.0, 0.0, 0.0, 0.0, 0.0, 0.0, 0.0, 0.0, 1.6539050700608249E9, 0.0, 2022-05-30 12:04:30.060
51.0, 12158.432562164375, 19583.123276606, -63908.71124371425, -46743.48792356109, -25858.59904987801, -34936.42478423414, -9524.279478106437, -11267.156752009005, 0.014, 0.962, 0.362, 192.0, 0.0, 0.0, 0.0, 0.0, 0.0, 0.0, 0.0, 0.0, 0.0, 1.6539050700608287E9, 0.0, 2022-05-30 12:04:30.060
52.0, 12163.841684322559, 19577.78120968118, -63913.561572261046, -46750.14874340877, -25870.1549017614, -34945.20901980508, -9530.426207831646, -11278.444382958936, 0.014, 0.962, 0.362, 192.0, 0.0, 0.0, 0.0, 0.0, 0.0, 0.0, 0.0, 0.0, 0.0, 1.653905070060833E9, 0.0, 2022-05-30 12:04:30.060
53.0, 12174.123486772, 19591.236959843274, -63894.339072029485, -46732.82614145591, -25854.68749459833, -34928.98165333053, -9483.755765408965, -11251.46582740138, 0.014, 0.962, 0.362, 192.0, 0.0, 0.0, 0.0, 0.0, 0.0, 0.0, 0.0, 0.0, 0.0, 1.653905070060837E9, 0.0, 2022-05-30 12:04:30.060
54.0, 12186.260484011233, 19605.519724550217, -63881.37506024541, -46722.6784494732, -25842.237572936723, -34920.95737707107, -9473.965701337542, -11245.453208142902, 0.014, 0.962, 0.362, 192.0, 0.0, 0.0, 0.0, 0.0, 0.0, 0.0, 0.0, 0.0, 0.0, 1.653905070060841E9, 0.0, 2022-05-30 12:04:30.060
55.0, 12203.963065619835, 19618.014349700734, -63878.35757474394, -46717.93987964867, -25834.77209028865, -34911.16731299965, -9472.110506547751, -11235.618440582568, 0.014, 0.962, 0.362, 192.0, 0.0, 0.0, 0.0, 0.0, 0.0, 0.0, 0.0, 0.0, 0.0, 1.6539050700608451E9, 0.0, 2022-05-30 12:04:30.060
56.0, 12205.304170287154, 19611.88997171998, -63884.772525402615, -46722.320821561916, -25834.41446237737, -34918.81160960336, -9482.034681085906, -11240.424065640458, 0.014, 0.962, 0.362, 192.0, 0.0, 0.0, 0.0, 0.0, 0.0, 0.0, 0.0, 0.0, 0.0, 1.6539050700608492E9, 0.0, 2022-05-30 12:04:30.060
57.0, 12207.204068565854, 19600.132954136487, -63889.801667905056, -46731.954423422154, -25841.008226991682, -34926.85823760727, -9493.992864369497, -11247.196644210417, 0.006, 0.962, 0.362, 192.0, 0.0, 48.0, 30.0, 16.0, 11.0, 80.0, 0.0, 0.0, 0.0, 1.6539050700608537E9, 0.0, 2022-05-30 12:04:30.060
58.0, 12187.243960767266, 19598.948311680357, -63884.347842257965, -46731.038001899484, -25850.507718385186, -34926.18768527361, -9489.030777100417, -11251.287013445737, 0.006, 0.962, 0.362, 192.0, 0.0, 0.0, 0.0, 0.0, 0.0, 0.0, 0.0, 0.0, 0.0, 1.653905070060858E9, 0.0, 2022-05-30 12:04:30.060
59.0, 12172.514161171219, 19618.12610842301, -63874.69188865327, -46716.41996102571, -25830.458203608778, -34913.13426651171, -9467.34958497877, -11237.317173161171, 0.006, 0.962, 0.362, 192.0, 0.0, 0.0, 0.0, 0.0, 0.0, 0.0, 0.0, 0.0, 0.0, 1.653905070060862E9, 0.0, 2022-05-30 12:04:30.060
60.0, 12173.765858860716, 19617.589666556083, -63884.616063191424, -46728.467551287125, -25837.25313392319, -34925.42772596213, -9489.29899803388, -11253.902167547009, 0.006, 0.962, 0.362, 192.0, 0.0, 0.0, 0.0, 0.0, 0.0, 0.0, 0.0, 0.0, 0.0, 1.653905070060866E9, 0.0, 2022-05-30 12:04:30.060
61.0, 12171.329518715087, 19620.07071019062, -63878.894016610866, -46725.6288797413, -25836.157898444882, -34920.30917648187, -9491.914152135152, -11254.684478602943, 0.006, 0.962, 0.362, 192.0, 0.0, 0.0, 0.0, 0.0, 0.0, 0.0, 0.0, 0.0, 0.0, 1.6539050700608704E9, 0.0, 2022-05-30 12:04:30.060
62.0, 12173.072954782601, 19601.049375659153, -63894.16025807384, -46741.878597960305, -25848.4513578953, -34930.16629578666, -9487.488506733001, -11253.253966957804, 0.006, 0.962, 0.362, 192.0, 0.0, 0.0, 0.0, 0.0, 0.0, 0.0, 0.0, 0.0, 0.0, 1.6539050700608745E9, 0.0, 2022-05-30 12:04:30.060
63.0, 12175.151667016944, 19606.97258793981, -63889.1311155714, -46737.25178685806, -25850.910049785383, -34921.51617068245, -9485.29803577638, -11248.18012096645, 0.006, 0.962, 0.362, 192.0, 0.0, 0.0, 0.0, 0.0, 0.0, 0.0, 0.0, 0.0, 0.0, 1.6539050700608785E9, 0.0, 2022-05-30 12:04:30.060
64.0, 12177.252730995742, 19617.63437004499, -63875.78712413158, -46728.19933035366, -25837.20843043428, -34918.16340901416, -9486.169753810138, -11242.972164508363, 0.006, 0.962, 0.362, 192.0, 0.0, 0.0, 0.0, 0.0, 0.0, 0.0, 0.0, 0.0, 0.0, 1.653905070060884E9, 0.0, 2022-05-30 12:04:30.060
65.0, 12188.495658456763, 19622.9317334809, -63872.814342119025, -46724.9806791521, -25831.3969768759, -34919.75038287049, -9489.254294544971, -11250.83997855663, 0.006, 0.962, 0.362, 192.0, 0.0, 0.0, 0.0, 0.0, 0.0, 0.0, 0.0, 0.0, 0.0, 1.653905070060888E9, 0.0, 2022-05-30 12:04:30.060
66.0, 12198.486888228284, 19618.88606773449, -63874.80364737555, -46726.18767335268, -25831.48638385372, -34919.3927549592, -9477.720794406032, -11246.548443621212, 0.006, 0.962, 0.362, 192.0, 0.0, 0.0, 0.0, 0.0, 0.0, 0.0, 0.0, 0.0, 0.0, 1.653905070060892E9, 0.0, 2022-05-30 12:04:30.060
67.0, 12199.738585917781, 19614.706291521346, -63878.178760788294, -46729.24986234306, -25837.029616478638, -34922.164371271654, -9496.228038815027, -11249.007135511296, -0.002, 0.968, 0.358, 192.0, 255.0, 240.0, 30.0, 64.0, 11.0, 48.0, 0.0, 0.0, 0.0, 1.653905070060896E9, 0.0, 2022-05-30 12:04:30.060
68.0, 12221.196260594877, 19625.6809980489, -63865.79589436006, -46715.97292613661, -25828.87122975245, -34907.81455133135, -9494.149326580684, -11247.04018199923, -0.002, 0.968, 0.358, 192.0, 0.0, 0.0, 0.0, 0.0, 0.0, 0.0, 0.0, 0.0, 0.0, 1.6539050700609002E9, 0.0, 2022-05-30 12:04:30.060
69.0, 12228.572336265128, 19634.398178386473, -63850.14967324134, -46705.24408879806, -25813.15795340037, -34900.70669659456, -9462.20868375405, -11238.300649917204, -0.002, 0.968, 0.358, 192.0, 0.0, 0.0, 0.0, 0.0, 0.0, 0.0, 0.0, 0.0, 0.0, 1.6539050700609045E9, 0.0, 2022-05-30 12:04:30.060
70.0, 12212.076748857111, 19614.84040198808, -63868.45575195024, -46722.790208195474, -25830.63701756442, -34913.223673489534, -9470.523532691424, -11242.905109274998, -0.002, 0.968, 0.358, 192.0, 0.0, 0.0, 0.0, 0.0, 0.0, 0.0, 0.0, 0.0, 0.0, 1.6539050700609083E9, 0.0, 2022-05-30 12:04:30.060
71.0, 12202.264333041232, 19608.939541451877, -63877.08352530999, -46731.68620248869, -25843.042235737114, -34920.17506601514, -9484.001634597973, -11245.542615120723, -0.002, 0.968, 0.358, 192.0, 0.0, 0.0, 0.0, 0.0, 0.0, 0.0, 0.0, 0.0, 0.0, 1.6539050700609124E9, 0.0, 2022-05-30 12:04:30.060
72.0, 12210.109795345044, 19594.522666278204, -63893.95909237374, -46747.86886547433, -25856.96737253277, -34937.22944703454, -9505.347550552791, -11254.639775114034, -0.002, 0.968, 0.358, 192.0, 0.0, 0.0, 0.0, 0.0, 0.0, 0.0, 0.0, 0.0, 0.0, 1.653905070060917E9, 0.0, 2022-05-30 12:04:30.060
73.0, 12220.659818727949, 19607.486678062283, -63884.81722889152, -46736.80475196896, -25857.123834743958, -34928.4452114636, -9508.901477921187, -11258.819551327177, -0.002, 0.968, 0.358, 192.0, 0.0, 0.0, 0.0, 0.0, 0.0, 0.0, 0.0, 0.0, 0.0, 1.653905070060921E9, 0.0, 2022-05-30 12:04:30.060
74.0, 12212.188507579387, 19628.78789052819, -63855.71525761071, -46708.70860918863, -25829.564133830565, -34900.170254727636, -9492.472945746535, -11242.79335055272, -0.002, 0.968, 0.358, 192.0, 0.0, 0.0, 0.0, 0.0, 0.0, 0.0, 0.0, 0.0, 0.0, 1.6539050700609252E9, 0.0, 2022-05-30 12:04:30.060
75.0, 12198.665702183927, 19618.617846801026, -63865.035935048574, -46716.95640289264, -25836.06849146706, -34910.653222877176, -9468.981262324007, -11238.546519106212, -0.002, 0.968, 0.358, 192.0, 0.0, 0.0, 0.0, 0.0, 0.0, 0.0, 0.0, 0.0, 0.0, 1.6539050700609293E9, 0.0, 2022-05-30 12:04:30.060
76.0, 12218.111719860044, 19609.92301820791, -63872.74728688566, -46727.79699895346, -25842.796366548107, -34926.25474050698, -9474.703308904565, -11244.134455220039, -0.002, 0.968, 0.358, 192.0, 0.0, 0.0, 0.0, 0.0, 0.0, 0.0, 0.0, 0.0, 0.0, 1.653905070060933E9, 0.0, 2022-05-30 12:04:30.060
77.0, 12207.98637962179, 19613.36518685403, -63865.25945249313, -46724.15366460725, -25840.270619424657, -34925.40537421768, -9483.532247964413, -11246.74960932131, 0.006, 0.964, 0.352, 192.0, 0.0, 48.0, 30.0, 32.0, 11.0, 0.0, 0.0, 0.0, 0.0, 1.6539050700609374E9, 0.0, 2022-05-30 12:04:30.060
78.0, 12215.921248903423, 19616.69559677787, -63860.27501347959, -46716.15174009225, -25836.87315426745, -34917.73872586951, -9462.521608176423, -11233.27150741476, 0.006, 0.964, 0.352, 192.0, 0.0, 0.0, 0.0, 0.0, 0.0, 0.0, 0.0, 0.0, 0.0, 1.6539050700609415E9, 0.0, 2022-05-30 12:04:30.060
79.0, 12219.296362316176, 19620.093061935077, -63851.37901918638, -46706.31697253192, -25819.707014525775, -34905.467618163544, -9443.992012022974, -11219.212260152372, 0.006, 0.964, 0.352, 192.0, 0.0, 0.0, 0.0, 0.0, 0.0, 0.0, 0.0, 0.0, 0.0, 1.6539050700609455E9, 0.0, 2022-05-30 12:04:30.060
80.0, 12219.27401057172, 19614.572181054617, -63854.68707736577, -46715.23531856958, -25819.841124992505, -34913.46954267854, -9461.269910486926, -11227.303591645194, 0.006, 0.964, 0.352, 192.0, 0.0, 0.0, 0.0, 0.0, 0.0, 0.0, 0.0, 0.0, 0.0, 1.6539050700609498E9, 0.0, 2022-05-30 12:04:30.060
81.0, 12193.591856192572, 19600.289416347674, -63873.55194968605, -46731.68620248869, -25842.39403514791, -34929.83101961983, -9486.750899165976, -11245.810836054186, 0.006, 0.964, 0.352, 192.0, 0.0, 0.0, 0.0, 0.0, 0.0, 0.0, 0.0, 0.0, 0.0, 1.653905070060954E9, 0.0, 2022-05-30 12:04:30.060
82.0, 12200.36443476253, 19597.517800035217, -63884.68311842479, -46741.14099039328, -25854.68749459833, -34938.39173774621, -9495.624541714733, -11256.98670828184, 0.006, 0.964, 0.352, 192.0, 0.0, 0.0, 0.0, 0.0, 0.0, 0.0, 0.0, 0.0, 0.0, 1.653905070060958E9, 0.0, 2022-05-30 12:04:30.060
83.0, 12226.828900197614, 19607.73254725129, -63865.93000482679, -46730.769780966024, -25850.932401529837, -34927.81936261885, -9471.507009447458, -11240.334658662638, 0.006, 0.964, 0.352, 192.0, 0.0, 0.0, 0.0, 0.0, 0.0, 0.0, 0.0, 0.0, 0.0, 1.6539050700609622E9, 0.0, 2022-05-30 12:04:30.060
84.0, 12237.021295669234, 19617.880239234, -63855.73760935517, -46714.74358019156, -25837.834279279028, -34914.52007466794, -9462.700422132066, -11228.756455034787, 0.006, 0.964, 0.352, 192.0, 0.0, 0.0, 0.0, 0.0, 0.0, 0.0, 0.0, 0.0, 0.0, 1.6539050700609663E9, 0.0, 2022-05-30 12:04:30.060
85.0, 12221.75505420626, 19609.051300174153, -63866.89112983837, -46721.35969655034, -25841.477613625244, -34924.19838001709, -9484.82864914282, -11241.161673207484, 0.006, 0.964, 0.352, 192.0, 0.0, 0.0, 0.0, 0.0, 0.0, 0.0, 0.0, 0.0, 0.0, 1.6539050700609703E9, 0.0, 2022-05-30 12:04:30.060
86.0, 12235.881356702013, 19619.93659972389, -63851.691943608756, -46708.70860918863, -25826.323130884546, -34904.61825187424, -9467.215474512039, -11228.667048056966, 0.006, 0.964, 0.352, 192.0, 0.0, 0.0, 0.0, 0.0, 0.0, 0.0, 0.0, 0.0, 0.0, 1.6539050700609758E9, 0.0, 2022-05-30 12:04:30.060
87.0, 12225.912478674947, 19619.55662006815, -63850.12732149689, -46705.06527484242, -25822.43392734932, -34898.069190748836, -9451.144570248673, -11210.6962455149, 0.012, 0.976, 0.352, 192.0, 0.0, 96.0, 30.0, 128.0, 11.0, 0.0, 0.0, 0.0, 0.0, 1.6539050700609798E9, 0.0, 2022-05-30 12:04:30.060
88.0, 12227.499452531274, 19620.428338101905, -63855.335277954975, -46706.33932427637, -25835.286180411123, -34900.57258612783, -9463.952119821563, -11213.400806593992, 0.012, 0.976, 0.352, 192.0, 0.0, 0.0, 0.0, 0.0, 0.0, 0.0, 0.0, 0.0, 0.0, 1.653905070060984E9, 0.0, 2022-05-30 12:04:30.060
89.0, 12229.511109532252, 19615.35449211055, -63860.11855126841, -46714.92239414721, -25836.426119378346, -34909.53563565441, -9478.480753717513, -11228.264716656771, 0.012, 0.976, 0.352, 192.0, 0.0, 0.0, 0.0, 0.0, 0.0, 0.0, 0.0, 0.0, 0.0, 1.6539050700609882E9, 0.0, 2022-05-30 12:04:30.060
90.0, 12244.553833550674, 19625.591591071083, -63851.4684261642, -46710.832024911884, -25818.991758703203, -34904.2382722185, -9476.603207183267, -11231.684533558433, 0.012, 0.976, 0.352, 192.0, 0.0, 0.0, 0.0, 0.0, 0.0, 0.0, 0.0, 0.0, 0.0, 1.6539050700609925E9, 0.0, 2022-05-30 12:04:30.060
91.0, 12276.047441488201, 19639.047341233178, -63844.137053982864, -46701.421940496206, -25807.145334141893, -34888.61440284424, -9463.415677954636, -11214.183117649927, 0.012, 0.976, 0.352, 192.0, 0.0, 0.0, 0.0, 0.0, 0.0, 0.0, 0.0, 0.0, 0.0, 1.6539050700609968E9, 0.0, 2022-05-30 12:04:30.060
92.0, 12237.200109624877, 19606.860829217534, -63866.73466762718, -46725.24890008556, -25823.193886660803, -34914.207150245566, -9469.227131513017, -11229.114082946073, 0.012, 0.976, 0.352, 192.0, 0.0, 0.0, 0.0, 0.0, 0.0, 0.0, 0.0, 0.0, 0.0, 1.6539050700610008E9, 0.0, 2022-05-30 12:04:30.061
93.0, 12216.882373915003, 19606.436146072883, -63854.64237387686, -46721.38204829479, -25829.094747197003, -34914.00598454547, -9476.133820549705, -11240.625231340557, 0.012, 0.976, 0.352, 192.0, 0.0, 0.0, 0.0, 0.0, 0.0, 0.0, 0.0, 0.0, 0.0, 1.653905070061005E9, 0.0, 2022-05-30 12:04:30.061
94.0, 12215.027179125213, 19606.033814672686, -63858.93390881228, -46727.37231580881, -25834.16859318836, -34909.98267054351, -9488.650797444678, -11242.860405786087, 0.012, 0.976, 0.352, 192.0, 0.0, 0.0, 0.0, 0.0, 0.0, 0.0, 0.0, 0.0, 0.0, 1.6539050700610094E9, 0.0, 2022-05-30 12:04:30.061
95.0, 12219.60928673855, 19606.525553050706, -63862.26431873612, -46732.24499610007, -25840.717654313765, -34912.93310081161, -9510.644913988699, -11250.951737278907, 0.012, 0.976, 0.352, 192.0, 0.0, 0.0, 0.0, 0.0, 0.0, 0.0, 0.0, 0.0, 0.0, 1.653905070061016E9, 0.0, 2022-05-30 12:04:30.061
96.0, 12219.60928673855, 19604.893875705468, -63854.910594810324, -46725.740638463576, -25829.944113486305, -34904.12651349622, -9492.361187024258, -11242.480426130347, 0.004, 0.968, 0.358, 192.0, 0.0, 32.0, 30.0, 64.0, 11.0, 48.0, 0.0, 0.0, 0.0, 1.6539050700610209E9, 0.0, 2022-05-30 12:04:30.061
97.0, 12209.819222667125, 19592.555712766138, -63872.23319676318, -46744.24788287257, -25838.147203701403, -34918.610443903264, -9466.477866945013, -11238.680629572944, 0.004, 0.968, 0.358, 192.0, 0.0, 0.0, 0.0, 0.0, 0.0, 0.0, 0.0, 0.0, 0.0, 1.6539050700610263E9, 0.0, 2022-05-30 12:04:30.061
98.0, 12216.07771111461, 19602.01050067073, -63871.897920596355, -46741.38685958229, -25848.004323006193, -34921.2926532379, -9470.456477458058, -11248.113065733083, 0.004, 0.968, 0.358, 192.0, 0.0, 0.0, 0.0, 0.0, 0.0, 0.0, 0.0, 0.0, 0.0, 1.6539050700610313E9, 0.0, 2022-05-30 12:04:30.061
99.0, 12203.60543770855, 19595.193218611865, -63859.380943701384, -46724.66775472972, -25832.35810188748, -34905.02058327444, -9451.39043943768, -11232.243327169816, 0.004, 0.968, 0.358, 192.0, 0.0, 0.0, 0.0, 0.0, 0.0, 0.0, 0.0, 0.0, 0.0, 1.6539050700610359E9, 0.0, 2022-05-30 12:04:30.061
100.0, 12191.066109069123, 19573.556729979126, -63873.28372875258, -46739.66577525924, -25851.759416074685, -34917.828132847324, -9483.934579364608, -11248.26952794427, 0.004, 0.968, 0.358, 192.0, 0.0, 0.0, 0.0, 0.0, 0.0, 0.0, 0.0, 0.0, 0.0, 1.6539050700610406E9, 0.0, 2022-05-30 12:04:30.061
101.0, 12186.819277622615, 19565.621860697494, -63878.98342358869, -46746.2371881291, -25854.061645753583, -34926.07592655133, -9494.730471936522, -11262.507589162302, 0.004, 0.968, 0.358, 192.0, 0.0, 0.0, 0.0, 0.0, 0.0, 0.0, 0.0, 0.0, 0.0, 1.6539050700610452E9, 0.0, 2022-05-30 12:04:30.061
102.0, 12170.144876258955, 19546.77934012167, -63905.738461701694, -46769.81827852944, -25877.35216347601, -34950.282865796435, -9519.451501304091, -11287.675653418977, 0.004, 0.968, 0.358, 192.0, 0.0, 0.0, 0.0, 0.0, 0.0, 0.0, 0.0, 0.0, 0.0, 1.65390507006105E9, 0.0, 2022-05-30 12:04:30.061
103.0, 12185.41111772193, 19560.816235639602, -63892.372118517414, -46751.62395854282, -25874.804064608106, -34932.51322895446, -9518.468024548058, -11281.819496371687, 0.004, 0.968, 0.358, 192.0, 0.0, 0.0, 0.0, 0.0, 0.0, 0.0, 0.0, 0.0, 0.0, 1.6539050700610547E9, 0.0, 2022-05-30 12:04:30.061
104.0, 12190.08263231309, 19562.805540896123, -63883.990214346675, -46743.264406116534, -25859.44841616731, -34915.70471712407, -9482.124088063729, -11256.6067286261, 0.004, 0.968, 0.358, 192.0, 0.0, 0.0, 0.0, 0.0, 0.0, 0.0, 0.0, 0.0, 0.0, 1.6539050700610592E9, 0.0, 2022-05-30 12:04:30.061
105.0, 12211.629713968005, 19569.466360743805, -63884.3254905135, -46744.87373171732, -25861.16950049037, -34916.71054562456, -9495.78100392592, -11259.825379827666, 0.004, 0.968, 0.358, 192.0, 0.0, 0.0, 0.0, 0.0, 0.0, 0.0, 0.0, 0.0, 0.0, 1.6539050700610635E9, 0.0, 2022-05-30 12:04:30.061
106.0, 12225.063112385646, 19584.509084762227, -63872.50141769665, -46741.38685958229, -25856.900317299405, -34913.33543221181, -9496.518611492946, -11256.070286759174, 0.004, 0.968, 0.358, 192.0, 0.0, 0.0, 29.0, 208.0, 11.0, 96.0, 0.0, 0.0, 0.0, 1.6539050700610683E9, 0.0, 2022-05-30 12:04:30.061
107.0, 12198.531591717196, 19579.032907370678, -63881.330356756494, -46748.807638741455, -25858.39788417791, -34921.20324626008, -9484.605131698267, -11265.413315941492, 0.004, 0.968, 0.358, 192.0, 0.0, 0.0, 0.0, 0.0, 0.0, 0.0, 0.0, 0.0, 0.0, 1.6539050700610783E9, 0.0, 2022-05-30 12:04:30.061
108.0, 12209.573353478117, 19565.845378142047, -63883.94551085777, -46752.27215913203, -25871.183082006348, -34930.12159229775, -9498.35145453828, -11277.438554458447, 0.004, 0.968, 0.358, 192.0, 0.0, 0.0, 0.0, 0.0, 0.0, 0.0, 0.0, 0.0, 0.0, 1.6539050700610828E9, 0.0, 2022-05-30 12:04:30.061
109.0, 12211.450900012363, 19573.6684887014, -63872.657879907834, -46742.795019482975, -25860.566003390075, -34923.61723466125, -9522.871318205753, -11280.299577748727, 0.004, 0.968, 0.358, 192.0, 0.0, 0.0, 0.0, 0.0, 0.0, 0.0, 0.0, 0.0, 0.0, 1.6539050700610871E9, 0.0, 2022-05-30 12:04:30.061
110.0, 12196.095251571567, 19570.87452064449, -63865.1253420264, -46740.02340317052, -25848.83133755104, -34918.00694680297, -9494.082271347317, -11258.03724027124, 0.004, 0.968, 0.358, 192.0, 0.0, 0.0, 0.0, 0.0, 0.0, 0.0, 0.0, 0.0, 0.0, 1.653905070061092E9, 0.0, 2022-05-30 12:04:30.061
111.0, 12187.400422978453, 19571.656831700424, -63863.91834782581, -46738.81640896993, -25845.16565146037, -34914.90005432368, -9484.672186931633, -11246.973126765863, 0.004, 0.968, 0.358, 192.0, 0.0, 0.0, 0.0, 0.0, 0.0, 0.0, 0.0, 0.0, 0.0, 1.6539050700610974E9, 0.0, 2022-05-30 12:04:30.061
112.0, 12202.376091763508, 19568.907567132424, -63873.507246197136, -46743.30910960545, -25849.97127651826, -34916.15175201318, -9494.931637636619, -11250.102370989605, 0.004, 0.968, 0.358, 192.0, 0.0, 0.0, 0.0, 0.0, 0.0, 0.0, 0.0, 0.0, 0.0, 1.6539050700611022E9, 0.0, 2022-05-30 12:04:30.061
113.0, 12201.45967024084, 19573.10969509002, -63867.78519961658, -46734.413115312236, -25851.625305607955, -34907.16635074215, -9481.92292236363, -11243.061571486185, 0.004, 0.968, 0.358, 192.0, 0.0, 0.0, 0.0, 0.0, 0.0, 0.0, 0.0, 0.0, 0.0, 1.6539050700611067E9, 0.0, 2022-05-30 12:04:30.061
114.0, 12207.56169647714, 19578.138837592465, -63859.47035067921, -46726.075914630404, -25842.63990433692, -34897.53274888191, -9483.107564819762, -11235.260812671282, 0.004, 0.968, 0.358, 192.0, 0.0, 0.0, 0.0, 0.0, 0.0, 0.0, 0.0, 0.0, 0.0, 1.6539050700611117E9, 0.0, 2022-05-30 12:04:30.061
115.0, 12219.162251849444, 19574.74137243526, -63871.339126984974, -46732.222644355614, -25843.422215392857, -34901.86898730624, -9497.524439993434, -11241.876929030053, 0.004, 0.968, 0.358, 192.0, 0.0, 0.0, 0.0, 0.0, 0.0, 0.0, 0.0, 0.0, 0.0, 1.6539050700611174E9, 0.0, 2022-05-30 12:04:30.061
116.0, 12227.99119090929, 19580.597529482548, -63869.93096708429, -46733.273176345014, -25837.2978374121, -34899.81262681635, -9499.178469083128, -11247.218995954872, -0.004, 0.9580000000000001, 0.368, 192.0, 255.0, 224.0, 29.0, 240.0, 11.0, 128.0, 0.0, 0.0, 0.0, 1.6539050700611227E9, 0.0, 2022-05-30 12:04:30.061
117.0, 12212.501432001762, 19570.271023544195, -63882.44794397926, -46747.7347550076, -25848.004323006193, -34912.84369383379, -9497.680902204622, -11243.866234286575, -0.004, 0.9580000000000001, 0.368, 192.0, 0.0, 0.0, 0.0, 0.0, 0.0, 0.0, 0.0, 0.0, 0.0, 1.653905070061128E9, 0.0, 2022-05-30 12:04:30.061
118.0, 12209.729815689305, 19575.30016604664, -63879.69867941126, -46736.782400224496, -25856.78855857713, -34910.94379555509, -9509.236754088015, -11252.695173346421, -0.004, 0.9580000000000001, 0.368, 192.0, 0.0, 0.0, 0.0, 0.0, 0.0, 0.0, 0.0, 0.0, 0.0, 1.6539050700611324E9, 0.0, 2022-05-30 12:04:30.061
119.0, 12223.476138529319, 19589.135895864474, -63860.49853092415, -46722.49963551755, -25838.884811268428, -34902.22661521752, -9507.895649420698, -11258.66308911599, -0.004, 0.9580000000000001, 0.368, 192.0, 0.0, 0.0, 0.0, 0.0, 0.0, 0.0, 0.0, 0.0, 0.0, 1.653905070061138E9, 0.0, 2022-05-30 12:04:30.061
120.0, 12232.841519456091, 19599.998843669753, -63849.1214929964, -46719.59390873837, -25824.73615702822, -34898.02448725993, -9479.307768262359, -11252.248138457315, -0.004, 0.9580000000000001, 0.368, 192.0, 0.0, 0.0, 0.0, 0.0, 0.0, 0.0, 0.0, 0.0, 0.0, 1.653905070061145E9, 0.0, 2022-05-30 12:04:30.061
121.0, 12224.146690862977, 19593.136858121976, -63866.935833327276, -46729.87571118781, -25836.157898444882, -34899.99144077199, -9453.200930738562, -11223.637905554522, -0.004, 0.9580000000000001, 0.368, 192.0, 0.0, 0.0, 0.0, 0.0, 0.0, 0.0, 0.0, 0.0, 0.0, 1.6539050705416653E9, 0.0, 2022-05-30 12:04:30.541
122.0, 12210.46742325633, 19572.595604967548, -63883.96786260222, -46747.265368374035, -25851.89352654142, -34913.04485953389, -9475.105640304762, -11235.104350460095, -0.004, 0.9580000000000001, 0.368, 192.0, 0.0, 0.0, 0.0, 0.0, 0.0, 0.0, 0.0, 0.0, 0.0, 1.6539050705417705E9, 0.0, 2022-05-30 12:04:30.541
123.0, 12213.127280846511, 19561.196215295342, -63881.9785573457, -46743.37616483882, -25861.482424912745, -34908.32864145382, -9492.40589051317, -11243.910937775487, -0.004, 0.9580000000000001, 0.368, 192.0, 0.0, 0.0, 0.0, 0.0, 0.0, 0.0, 0.0, 0.0, 0.0, 1.653905070541782E9, 0.0, 2022-05-30 12:04:30.541
124.0, 12237.893013702991, 19578.742334692757, -63867.919310083314, -46728.71342047613, -25855.201584720802, -34894.738780825, -9490.997730612486, -11243.016867997274, -0.004, 0.9580000000000001, 0.368, 192.0, 0.0, 0.0, 0.0, 0.0, 0.0, 0.0, 0.0, 0.0, 0.0, 1.6539050705417893E9, 0.0, 2022-05-30 12:04:30.541
125.0, 12250.074714431134, 19580.30695680463, -63870.66857465132, -46732.66967924472, -25854.016942264672, -34897.063362248344, -9497.770309182442, -11246.41433315448, -0.004, 0.9580000000000001, 0.368, 192.0, 0.0, 0.0, 0.0, 0.0, 0.0, 0.0, 0.0, 0.0, 0.0, 1.6539050705417967E9, 0.0, 2022-05-30 12:04:30.541
126.0, 12232.349781078075, 19575.50133174674, -63872.4790659522, -46738.4811328031, -25848.697227084307, -34902.29367045089, -9489.567218967346, -11245.408504653991, -0.006, 0.96, 0.364, 192.0, 255.0, 208.0, 30.0, 0.0, 11.0, 96.0, 0.0, 0.0, 0.0, 1.6539050705418031E9, 0.0, 2022-05-30 12:04:30.541
127.0, 12216.971780892824, 19563.20787229632, -63885.35367075845, -46754.35087136637, -25856.02859926565, -34917.13522876921, -9486.683843932611, -11257.724315848865, -0.006, 0.96, 0.364, 192.0, 0.0, 0.0, 0.0, 0.0, 0.0, 0.0, 0.0, 0.0, 0.0, 1.6539050705418108E9, 0.0, 2022-05-30 12:04:30.541
128.0, 12213.686074457893, 19556.05531407062, -63890.583978960996, -46758.75416502407, -25865.751608103707, -34918.56574041435, -9499.536096994412, -11263.960452551897, -0.006, 0.96, 0.364, 192.0, 0.0, 0.0, 0.0, 0.0, 0.0, 0.0, 0.0, 0.0, 0.0, 1.6539050705418544E9, 0.0, 2022-05-30 12:04:30.541
129.0, 12213.708426202349, 19560.68212517287, -63879.676327666806, -46752.74154576559, -25855.06747425407, -34911.01085078846, -9489.701329434078, -11254.282147202748, -0.006, 0.96, 0.364, 192.0, 0.0, 0.0, 0.0, 0.0, 0.0, 0.0, 0.0, 0.0, 0.0, 1.6539050705418625E9, 0.0, 2022-05-30 12:04:30.541
130.0, 12217.32940880411, 19570.58394796657, -63875.69771715376, -46753.94853996617, -25854.12870098695, -34910.228539732525, -9480.626521185222, -11246.973126765863, -0.006, 0.96, 0.364, 192.0, 0.0, 0.0, 0.0, 0.0, 0.0, 0.0, 0.0, 0.0, 0.0, 1.6539050705418715E9, 0.0, 2022-05-30 12:04:30.541
131.0, 12212.859059913048, 19579.63640447097, -63872.523769441104, -46756.25076964507, -25851.26767769667, -34909.66974612114, -9492.763518424454, -11250.728219834355, -0.006, 0.96, 0.364, 192.0, 0.0, 0.0, 0.0, 0.0, 0.0, 0.0, 0.0, 0.0, 0.0, 1.6539050705418801E9, 0.0, 2022-05-30 12:04:30.541
132.0, 12234.964935179345, 19588.26417783072, -63876.234159020685, -46762.77747902602, -25845.143299715914, -34912.597824644785, -9490.573047467835, -11256.919653048475, -0.006, 0.96, 0.364, 192.0, 0.0, 0.0, 0.0, 0.0, 0.0, 0.0, 0.0, 0.0, 0.0, 1.6539050705418916E9, 0.0, 2022-05-30 12:04:30.541
133.0, 12244.687944017405, 19602.9269221934, -63876.83765612098, -46757.457763845654, -25858.196718477815, -34913.40248744518, -9478.905436862164, -11256.718487348377, -0.006, 0.96, 0.364, 192.0, 0.0, 0.0, 0.0, 0.0, 0.0, 0.0, 0.0, 0.0, 0.0, 1.6539050705419004E9, 0.0, 2022-05-30 12:04:30.541
134.0, 12223.163214106944, 19604.06686116062, -63865.59472865996, -46747.01949918503, -25856.766206832675, -34902.85246406227, -9486.057995087862, -11242.07809473015, -0.006, 0.96, 0.364, 192.0, 0.0, 0.0, 0.0, 0.0, 0.0, 0.0, 0.0, 0.0, 0.0, 1.6539050705419075E9, 0.0, 2022-05-30 12:04:30.541
135.0, 12208.120490088522, 19601.965797181823, -63873.28372875258, -46750.39461259778, -25863.628192380453, -34903.500664651474, -9479.911265362653, -11230.969277735863, -0.006, 0.96, 0.364, 192.0, 0.0, 0.0, 0.0, 0.0, 0.0, 0.0, 0.0, 0.0, 0.0, 1.6539050705419147E9, 0.0, 2022-05-30 12:04:30.541
136.0, 12218.89403091598, 19587.59362549706, -63882.827923635, -46754.35087136637, -25876.949832075818, -34917.80578110287, -9483.152268308671, -11239.887623773531, -0.014, 0.964, 0.368, 192.0, 255.0, 144.0, 30.0, 32.0, 11.0, 128.0, 0.0, 0.0, 0.0, 1.6539050705419245E9, 0.0, 2022-05-30 12:04:30.541
137.0, 12238.407103825462, 19588.152419108443, -63881.30800501204, -46751.668662031734, -25871.093675028525, -34917.17993225812, -9490.6401027012, -11243.307440675193, -0.014, 0.964, 0.368, 192.0, 0.0, 0.0, 0.0, 0.0, 0.0, 0.0, 0.0, 0.0, 0.0, 1.653905070541934E9, 0.0, 2022-05-30 12:04:30.541
138.0, 12221.620943739528, 19610.168887396918, -63872.63552816338, -46742.236225871595, -25870.02079129467, -34906.29463270839, -9501.950085395585, -11235.03729522673, -0.014, 0.964, 0.368, 192.0, 0.0, 0.0, 0.0, 0.0, 0.0, 0.0, 0.0, 0.0, 0.0, 1.6539050705419424E9, 0.0, 2022-05-30 12:04:30.541
139.0, 12229.064074643145, 19609.721852507813, -63876.390621231876, -46746.036022429, -25873.954698318805, -34908.753324598474, -9503.045320873896, -11229.203489923893, -0.014, 0.964, 0.368, 192.0, 0.0, 0.0, 0.0, 0.0, 0.0, 0.0, 0.0, 0.0, 0.0, 1.6539050705419512E9, 0.0, 2022-05-30 12:04:30.541
140.0, 12241.46929281584, 19607.576085040106, -63878.87166486641, -46747.82416198542, -25872.323020973567, -34916.91171132466, -9501.950085395585, -11240.89345227402, -0.014, 0.964, 0.368, 192.0, 0.0, 0.0, 0.0, 0.0, 0.0, 0.0, 0.0, 0.0, 0.0, 1.6539050705419607E9, 0.0, 2022-05-30 12:04:30.541
141.0, 12245.872586473535, 19633.347646397073, -63851.60253663094, -46722.8796151733, -25843.556325859587, -34896.07988549231, -9480.246541529483, -11226.454225355892, -0.014, 0.964, 0.368, 192.0, 0.0, 0.0, 0.0, 0.0, 0.0, 0.0, 0.0, 0.0, 0.0, 1.6539050705419698E9, 0.0, 2022-05-30 12:04:30.541
142.0, 12226.672437986426, 19618.662550289937, -63876.14475204286, -46748.71823176363, -25865.416331936878, -34921.113839282254, -9496.11628009275, -11236.13253070504, -0.014, 0.964, 0.368, 192.0, 0.0, 0.0, 0.0, 0.0, 0.0, 0.0, 0.0, 0.0, 0.0, 1.6539050705419776E9, 0.0, 2022-05-30 12:04:30.541
143.0, 12215.250696569765, 19607.59843678456, -63880.74921140066, -46754.21676089964, -25882.5601199341, -34928.2440457635, -9511.091948877805, -11245.564966865179, -0.014, 0.964, 0.368, 192.0, 0.0, 0.0, 0.0, 0.0, 0.0, 0.0, 0.0, 0.0, 0.0, 1.6539050705419855E9, 0.0, 2022-05-30 12:04:30.541
144.0, 12225.174871107922, 19612.046433931166, -63871.31677524052, -46745.320766606426, -25873.619422151976, -34922.29848173839, -9505.995751141996, -11244.760304064788, -0.014, 0.964, 0.368, 192.0, 0.0, 0.0, 0.0, 0.0, 0.0, 0.0, 0.0, 0.0, 0.0, 1.6539050705419984E9, 0.0, 2022-05-30 12:04:30.541
145.0, 12230.47223454383, 19618.841364245578, -63875.49655145366, -46743.286757860995, -25865.84101508153, -34922.745516627496, -9507.448614531591, -11243.106274975094, -0.014, 0.964, 0.368, 192.0, 0.0, 0.0, 0.0, 0.0, 0.0, 0.0, 0.0, 0.0, 0.0, 1.6539050705420108E9, 0.0, 2022-05-30 12:04:30.542
146.0, 12236.082522402112, 19611.532343808693, -63881.03978407857, -46750.282853875506, -25870.065494783583, -34930.3451097423, -9512.164832611661, -11248.090713988628, -0.008, 0.9560000000000001, 0.362, 192.0, 255.0, 192.0, 29.0, 224.0, 11.0, 80.0, 0.0, 0.0, 0.0, 1.6539050705420203E9, 0.0, 2022-05-30 12:04:30.542
147.0, 12247.32544986313, 19610.660625774937, -63875.45184796475, -46752.27215913203, -25872.345372718024, -34932.40147023219, -9522.066655405362, -11260.205359483405, -0.008, 0.9560000000000001, 0.362, 192.0, 0.0, 0.0, 0.0, 0.0, 0.0, 0.0, 0.0, 0.0, 0.0, 1.6539050705420296E9, 0.0, 2022-05-30 12:04:30.542
148.0, 12226.270106586231, 19608.671320518413, -63876.01064157613, -46743.264406116534, -25877.039239053636, -34930.88155160923, -9522.267821105459, -11260.093600761129, -0.008, 0.9560000000000001, 0.362, 192.0, 0.0, 0.0, 0.0, 0.0, 0.0, 0.0, 0.0, 0.0, 0.0, 1.6539050705420394E9, 0.0, 2022-05-30 12:04:30.542
149.0, 12211.495603501273, 19599.618864014014, -63879.29634801106, -46744.3819933393, -25880.056724555103, -34937.92235111265, -9527.36401884127, -11261.61351938409, -0.008, 0.9560000000000001, 0.362, 192.0, 0.0, 0.0, 0.0, 0.0, 0.0, 0.0, 0.0, 0.0, 0.0, 1.6539050705420485E9, 0.0, 2022-05-30 12:04:30.542
150.0, 12216.480042514808, 19602.50223904875, -63878.11170555493, -46743.845551472376, -25874.73700937474, -34939.241104035515, -9512.433053545124, -11257.500798404313, -0.008, 0.9560000000000001, 0.362, 192.0, 0.0, 0.0, 0.0, 0.0, 0.0, 0.0, 0.0, 0.0, 0.0, 1.6539050705420697E9, 0.0, 2022-05-30 12:04:30.542
151.0, 12213.887240157992, 19599.238884358274, -63886.247740536666, -46752.89800797677, -25880.79433212213, -34946.46071749458, -9510.26493433296, -11258.66308911599, -0.008, 0.9560000000000001, 0.362, 192.0, 0.0, 0.0, 0.0, 0.0, 0.0, 0.0, 0.0, 0.0, 0.0, 1.6539050705420828E9, 0.0, 2022-05-30 12:04:30.542
152.0, 12204.32069353112, 19585.626671984992, -63899.524676743116, -46768.74539479559, -25889.489160715242, -34962.28575256893, -9518.40096931469, -11275.449249201924, -0.008, 0.9560000000000001, 0.362, 192.0, 0.0, 0.0, 0.0, 0.0, 0.0, 0.0, 0.0, 0.0, 0.0, 1.653905070542093E9, 0.0, 2022-05-30 12:04:30.542
153.0, 12216.547097748173, 19592.175733110398, -63900.59756047697, -46763.71625229315, -25895.63589044045, -34961.16816534617, -9519.786777470921, -11277.37149922508, -0.008, 0.9560000000000001, 0.362, 192.0, 0.0, 0.0, 0.0, 0.0, 0.0, 0.0, 0.0, 0.0, 0.0, 1.6539050705421023E9, 0.0, 2022-05-30 12:04:30.542
154.0, 12241.178720137921, 19618.0814049341, -63883.31966201302, -46743.15264739426, -25876.659259397897, -34943.644397693206, -9513.997675656996, -11261.479408917357, -0.008, 0.9560000000000001, 0.362, 192.0, 0.0, 0.0, 0.0, 0.0, 0.0, 0.0, 0.0, 0.0, 0.0, 1.6539050705421147E9, 0.0, 2022-05-30 12:04:30.542
155.0, 12223.073807129122, 19622.060015447143, -63877.01647007662, -46741.72213574912, -25871.83128259555, -34940.358691258276, -9507.336855809315, -11252.851635557608, -0.008, 0.9560000000000001, 0.362, 192.0, 0.0, 0.0, 0.0, 0.0, 0.0, 0.0, 0.0, 0.0, 0.0, 1.6539050705421271E9, 0.0, 2022-05-30 12:04:30.542
156.0, 12217.642333226482, 19624.78692827069, -63878.64814742186, -46744.180827639204, -25875.631079152954, -34944.471412238054, -9510.913134922164, -11257.210225726394, 0.004, 0.9560000000000001, 0.352, 192.0, 0.0, 32.0, 29.0, 224.0, 11.0, 0.0, 0.0, 0.0, 0.0, 1.6539050705421371E9, 0.0, 2022-05-30 12:04:30.542
157.0, 12210.55683023415, 19609.11835540752, -63904.084432612, -46765.12441219383, -25894.160675306404, -34966.33141831534, -9530.672077020656, -11281.059537060206, 0.004, 0.9560000000000001, 0.352, 192.0, 0.0, 0.0, 0.0, 0.0, 0.0, 0.0, 0.0, 0.0, 0.0, 1.6539050705421531E9, 0.0, 2022-05-30 12:04:30.542
158.0, 12221.978571650812, 19624.921038737422, -63888.50526672665, -46744.85137997286, -25892.908977616906, -34943.86791513776, -9524.570050784356, -11269.123705521073, 0.004, 0.9560000000000001, 0.352, 192.0, 0.0, 0.0, 0.0, 0.0, 0.0, 0.0, 0.0, 0.0, 0.0, 1.6539050705421689E9, 0.0, 2022-05-30 12:04:30.542
159.0, 12234.51790029024, 19641.908364523457, -63867.09229553847, -46721.67262097271, -25867.986782549237, -34922.90197883868, -9483.420489242137, -11227.638867812022, 0.004, 0.9560000000000001, 0.352, 192.0, 0.0, 0.0, 0.0, 0.0, 0.0, 0.0, 0.0, 0.0, 0.0, 1.6539050705421796E9, 0.0, 2022-05-30 12:04:30.542
160.0, 12235.210804368355, 19635.806338287155, -63879.8774933669, -46728.53460652049, -25869.618459894475, -34928.6463771637, -9481.297073518881, -11222.520318331757, 0.004, 0.9560000000000001, 0.352, 192.0, 0.0, 0.0, 0.0, 0.0, 0.0, 0.0, 0.0, 0.0, 0.0, 1.6539050705421948E9, 0.0, 2022-05-30 12:04:30.542
161.0, 12232.0368566557, 19628.02793121671, -63880.860970122936, -46737.4306008137, -25876.391038464433, -34933.45200222159, -9488.851963144776, -11234.232632426338, 0.004, 0.9560000000000001, 0.352, 192.0, 0.0, 0.0, 0.0, 0.0, 0.0, 0.0, 0.0, 0.0, 0.0, 1.6539050705422068E9, 0.0, 2022-05-30 12:04:30.542
162.0, 12215.496565758773, 19622.663512547435, -63889.533446971596, -46749.075859674915, -25876.88277684245, -34942.795031403904, -9491.422413757136, -11239.485292373336, 0.004, 0.9560000000000001, 0.352, 192.0, 0.0, 0.0, 0.0, 0.0, 0.0, 0.0, 0.0, 0.0, 0.0, 1.653905070542224E9, 0.0, 2022-05-30 12:04:30.542
163.0, 12218.782272193703, 19625.0327974597, -63889.935778371786, -46740.850417715366, -25879.78850362164, -34943.778508159936, -9500.519573750445, -11245.564966865179, 0.004, 0.9560000000000001, 0.352, 192.0, 0.0, 0.0, 0.0, 0.0, 0.0, 0.0, 0.0, 0.0, 0.0, 1.6539050705422523E9, 0.0, 2022-05-30 12:04:30.542
164.0, 12233.824996212124, 19647.719818081834, -63869.19335951727, -46718.02928662649, -25856.654448110396, -34918.31987122534, -9471.797582125377, -11226.811853267176, 0.004, 0.9560000000000001, 0.352, 192.0, 0.0, 0.0, 0.0, 0.0, 0.0, 0.0, 0.0, 0.0, 0.0, 1.6539050705422645E9, 0.0, 2022-05-30 12:04:30.542
165.0, 12218.111719860044, 19630.933657995898, -63887.0300515926, -46739.59872002587, -25867.49504417122, -34932.49087721001, -9475.44091647159, -11220.665123541967, 0.004, 0.9560000000000001, 0.352, 192.0, 0.0, 0.0, 0.0, 0.0, 0.0, 0.0, 0.0, 0.0, 0.0, 1.6539050705422792E9, 0.0, 2022-05-30 12:04:30.542
166.0, 12222.604420495561, 19623.40112011446, -63891.79097316158, -46750.17109515323, -25869.73021861675, -34949.05351985139, -9490.841268401298, -11236.13253070504, 0.014, 0.962, 0.34400000000000003, 192.0, 0.0, 112.0, 30.0, 16.0, 10.0, 192.0, 0.0, 0.0, 0.0, 1.653905070542307E9, 0.0, 2022-05-30 12:04:30.542
167.0, 12220.011618138746, 19606.816125728623, -63902.89979015587, -46762.59866507038, -25879.78850362164, -34968.29837182741, -9528.638068275222, -11268.721374120876, 0.014, 0.962, 0.34400000000000003, 192.0, 0.0, 0.0, 0.0, 0.0, 0.0, 0.0, 0.0, 0.0, 0.0, 1.6539050705423195E9, 0.0, 2022-05-30 12:04:30.542
168.0, 12227.946487420379, 19622.194125913873, -63883.006737590644, -46742.45974331615, -25867.763265104684, -34952.40628151969, -9512.45540528958, -11263.200493240416, 0.014, 0.962, 0.34400000000000003, 192.0, 0.0, 0.0, 0.0, 0.0, 0.0, 0.0, 0.0, 0.0, 0.0, 1.6539050705423377E9, 0.0, 2022-05-30 12:04:30.542
169.0, 12226.94065891989, 19629.570201584127, -63875.317737498015, -46736.53653103549, -25860.230727223247, -34945.25372329399, -9484.49337297599, -11241.452245885403, 0.014, 0.962, 0.34400000000000003, 192.0, 0.0, 0.0, 0.0, 0.0, 0.0, 0.0, 0.0, 0.0, 0.0, 1.6539050705423489E9, 0.0, 2022-05-30 12:04:30.542
170.0, 12229.242888598787, 19634.711102808847, -63869.19335951727, -46735.86597870183, -25856.095654499015, -34941.78920290342, -9471.30584374736, -11238.7029813174, 0.014, 0.962, 0.34400000000000003, 192.0, 0.0, 0.0, 0.0, 0.0, 0.0, 0.0, 0.0, 0.0, 0.0, 1.6539050705423586E9, 0.0, 2022-05-30 12:04:30.542
171.0, 12225.0854641301, 19620.942428224378, -63887.85706613745, -46752.786249254495, -25863.717599358275, -34954.619104220765, -9483.487544475502, -11245.162635464983, 0.014, 0.962, 0.34400000000000003, 192.0, 0.0, 0.0, 0.0, 0.0, 0.0, 0.0, 0.0, 0.0, 0.0, 1.653905070542392E9, 0.0, 2022-05-30 12:04:30.542
172.0, 12229.153481620966, 19610.392404841474, -63899.14469708737, -46762.26338890355, -25880.190835021836, -34964.67738922565, -9510.555507010879, -11255.645603614523, 0.014, 0.962, 0.34400000000000003, 192.0, 0.0, 0.0, 0.0, 0.0, 0.0, 0.0, 0.0, 0.0, 0.0, 1.6539050705424323E9, 0.0, 2022-05-30 12:04:30.542
173.0, 12212.859059913048, 19603.01632917122, -63898.85412440946, -46758.55299932397, -25892.528997961166, -34961.83871767983, -9513.863565190264, -11263.08873451814, 0.014, 0.962, 0.34400000000000003, 192.0, 0.0, 0.0, 0.0, 0.0, 0.0, 0.0, 0.0, 0.0, 0.0, 1.6539050705424464E9, 0.0, 2022-05-30 12:04:30.542
174.0, 12224.258449585253, 19608.492506562772, -63889.64520569387, -46745.85720847335, -25886.203454280312, -34953.210944320075, -9515.584649513323, -11258.953661793908, 0.014, 0.962, 0.34400000000000003, 192.0, 0.0, 0.0, 0.0, 0.0, 0.0, 0.0, 0.0, 0.0, 0.0, 1.6539050705424583E9, 0.0, 2022-05-30 12:04:30.542
175.0, 12218.93873440489, 19627.044454460676, -63881.330356756494, -46733.80961821194, -25871.74187561773, -34937.274150523444, -9519.496204793002, -11240.021734240263, 0.014, 0.962, 0.338, 192.0, 0.0, 112.0, 30.0, 16.0, 10.0, 144.0, 0.0, 0.0, 0.0, 1.653905070542482E9, 0.0, 2022-05-30 12:04:30.542
176.0, 12215.541269247684, 19625.479832348807, -63879.96690034472, -46740.425734570716, -25869.17142500537, -34939.55402845789, -9525.21825137356, -11248.962432022385, 0.014, 0.962, 0.338, 192.0, 0.0, 0.0, 0.0, 0.0, 0.0, 0.0, 0.0, 0.0, 0.0, 1.653905070542502E9, 0.0, 2022-05-30 12:04:30.542
177.0, 12224.012580396246, 19628.31850389463, -63876.34591774296, -46741.051583415465, -25867.49504417122, -34939.21875229105, -9515.674056491143, -11259.490103660835, 0.014, 0.962, 0.338, 192.0, 0.0, 0.0, 0.0, 0.0, 0.0, 0.0, 0.0, 0.0, 0.0, 1.653905070542523E9, 0.0, 2022-05-30 12:04:30.542
178.0, 12223.118510618033, 19632.65474231896, -63879.92219685581, -46742.63855727179, -25873.3064977296, -34941.99036860352, -9511.471928533547, -11264.429839185457, 0.014, 0.962, 0.338, 192.0, 0.0, 0.0, 0.0, 0.0, 0.0, 0.0, 0.0, 0.0, 0.0, 1.6539050705425491E9, 0.0, 2022-05-30 12:04:30.542
179.0, 12231.969801422334, 19638.577954599616, -63878.69285091077, -46746.77362999602, -25880.4590559553, -34942.303293025885, -9514.176489612639, -11257.389039682037, 0.014, 0.962, 0.338, 192.0, 0.0, 0.0, 0.0, 0.0, 0.0, 0.0, 0.0, 0.0, 0.0, 1.6539050705425656E9, 0.0, 2022-05-30 12:04:30.542
180.0, 12236.484853802307, 19627.55854458315, -63882.805571890545, -46747.15360965176, -25879.430875710354, -34948.78529891793, -9497.83736441581, -11242.681591830444, 0.014, 0.962, 0.338, 192.0, 0.0, 0.0, 0.0, 0.0, 0.0, 0.0, 0.0, 0.0, 0.0, 1.6539050705425992E9, 0.0, 2022-05-30 12:04:30.542
181.0, 12232.930926433914, 19627.804413772155, -63875.72006889821, -46738.21291186964, -25864.03052378065, -34937.207095290076, -9475.776192638421, -11230.946925991408, 0.014, 0.962, 0.338, 192.0, 0.0, 0.0, 0.0, 0.0, 0.0, 0.0, 0.0, 0.0, 0.0, 1.653905070542624E9, 0.0, 2022-05-30 12:04:30.542
182.0, 12241.513996304751, 19631.82772777411, -63871.11560954042, -46732.647327500265, -25861.817701079573, -34930.12159229775, -9464.890893088686, -11231.975106236352, 0.014, 0.962, 0.338, 192.0, 0.0, 0.0, 0.0, 0.0, 0.0, 0.0, 0.0, 0.0, 0.0, 1.6539050705426483E9, 0.0, 2022-05-30 12:04:30.542
183.0, 12241.066961415645, 19626.776233527213, -63875.29538575356, -46734.16724612323, -25872.345372718024, -34931.552103942886, -9468.847151857275, -11240.379362151547, 0.014, 0.962, 0.338, 192.0, 0.0, 0.0, 0.0, 0.0, 0.0, 0.0, 0.0, 0.0, 0.0, 1.6539050705426674E9, 0.0, 2022-05-30 12:04:30.542
184.0, 12230.315772332642, 19628.36320738354, -63874.3789642309, -46728.311089075934, -25875.74283787523, -34927.975824830035, -9486.840306143798, -11243.910937775487, 0.014, 0.962, 0.338, 192.0, 0.0, 0.0, 0.0, 0.0, 0.0, 0.0, 0.0, 0.0, 0.0, 1.6539050705426743E9, 0.0, 2022-05-30 12:04:30.542
185.0, 12238.720028247837, 19642.288344179196, -63860.0738477795, -46714.140083091275, -25862.443549924323, -34915.391792701696, -9492.875277146732, -11236.98189699434, 0.008, 0.966, 0.34, 192.0, 0.0, 64.0, 30.0, 48.0, 10.0, 160.0, 0.0, 0.0, 0.0, 1.653905070542683E9, 0.0, 2022-05-30 12:04:30.542
186.0, 12249.962955708857, 19648.27861169322, -63858.39746694535, -46713.55893773543, -25854.843956809516, -34912.08373452231, -9483.644006686689, -11234.858481271087, 0.008, 0.966, 0.34, 192.0, 0.0, 0.0, 0.0, 0.0, 0.0, 0.0, 0.0, 0.0, 0.0, 1.6539050705426905E9, 0.0, 2022-05-30 12:04:30.542
187.0, 12250.544101064695, 19636.58864934309, -63873.19432177476, -46729.160455365236, -25861.16950049037, -34923.97486257253, -9487.555561966368, -11242.5027778748, 0.008, 0.966, 0.34, 192.0, 0.0, 0.0, 0.0, 0.0, 0.0, 0.0, 0.0, 0.0, 0.0, 1.6539050705426972E9, 0.0, 2022-05-30 12:04:30.542
188.0, 12245.023220184234, 19642.645972090482, -63869.90861533983, -46730.23333909909, -25862.622363879964, -34925.71829864005, -9493.411719013659, -11247.889548288531, 0.008, 0.966, 0.34, 192.0, 0.0, 0.0, 0.0, 0.0, 0.0, 0.0, 0.0, 0.0, 0.0, 1.6539050705427043E9, 0.0, 2022-05-30 12:04:30.542
189.0, 12239.390580581497, 19645.97638201432, -63870.80268511805, -46732.06618214443, -25858.755512089196, -34919.593920659296, -9499.625503972233, -11237.317173161171, 0.008, 0.966, 0.34, 192.0, 0.0, 0.0, 0.0, 0.0, 0.0, 0.0, 0.0, 0.0, 0.0, 1.6539050705427125E9, 0.0, 2022-05-30 12:04:30.542
190.0, 12254.746229022292, 19662.807245589167, -63852.69777210925, -46726.00885939704, -25844.964485760273, -34915.816475846346, -9499.06671036085, -11249.94590877842, 0.008, 0.966, 0.34, 192.0, 0.0, 0.0, 0.0, 0.0, 0.0, 0.0, 0.0, 0.0, 0.0, 1.6539050705427203E9, 0.0, 2022-05-30 12:04:30.542
191.0, 12264.312775649165, 19647.004562259266, -63865.460618193225, -46738.34702233637, -25853.54755563111, -34925.96416782906, -9504.989922641507, -11254.684478602943, 0.008, 0.966, 0.34, 192.0, 0.0, 0.0, 0.0, 0.0, 0.0, 0.0, 0.0, 0.0, 0.0, 1.6539050705427265E9, 0.0, 2022-05-30 12:04:30.542
192.0, 12263.57516808214, 19622.439995102883, -63881.08448756749, -46756.54134232299, -25861.88475631294, -34944.02437734895, -9503.559410996368, -11259.914786805486, 0.008, 0.966, 0.34, 192.0, 0.0, 0.0, 0.0, 0.0, 0.0, 0.0, 0.0, 0.0, 0.0, 1.6539050705427475E9, 0.0, 2022-05-30 12:04:30.542
193.0, 12258.90365349098, 19640.36609415604, -63860.34206871296, -46733.94372867867, -25842.349331659, -34918.3422229698, -9479.575989195822, -11231.885699258532, 0.008, 0.966, 0.34, 192.0, 0.0, 0.0, 0.0, 0.0, 0.0, 0.0, 0.0, 0.0, 0.0, 1.6539050705427551E9, 0.0, 2022-05-30 12:04:30.542
194.0, 12241.335182349108, 19651.16198672795, -63854.776484343594, -46727.95346116465, -25841.701131069796, -34902.450132662074, -9475.26210251595, -11217.848803740599, 0.008, 0.966, 0.34, 192.0, 0.0, 0.0, 0.0, 0.0, 0.0, 0.0, 0.0, 0.0, 0.0, 1.6539050705427651E9, 0.0, 2022-05-30 12:04:30.542
195.0, 12245.04557192869, 19656.213480974853, -63855.49174016616, -46729.96511816563, -25841.656427580885, -34905.132341996716, -9483.241675286494, -11227.79533002321, 0.008, 0.966, 0.34, 192.0, 0.0, 0.0, 30.0, 96.0, 11.0, 16.0, 0.0, 0.0, 0.0, 1.653905070542772E9, 0.0, 2022-05-30 12:04:30.542
196.0, 12243.592708539094, 19639.337913911095, -63862.21961524721, -46739.978699681604, -25849.613648606977, -34915.123571768236, -9460.308785475348, -11232.153920191995, 0.008, 0.966, 0.34, 192.0, 0.0, 0.0, 0.0, 0.0, 0.0, 0.0, 0.0, 0.0, 0.0, 1.6539050705427797E9, 0.0, 2022-05-30 12:04:30.542
197.0, 12240.84344397109, 19640.209631944854, -63864.05245829254, -46735.97773742411, -25847.624343350453, -34906.80872283086, -9450.764590592933, -11226.990667222819, 0.008, 0.966, 0.34, 192.0, 0.0, 0.0, 0.0, 0.0, 0.0, 0.0, 0.0, 0.0, 0.0, 1.6539050705427864E9, 0.0, 2022-05-30 12:04:30.542
198.0, 12234.27203110123, 19638.712065066346, -63863.73953387017, -46728.19933035366, -25856.095654499015, -34894.51526338044, -9470.903512347164, -11217.446472340402, 0.008, 0.966, 0.34, 192.0, 0.0, 0.0, 0.0, 0.0, 0.0, 0.0, 0.0, 0.0, 0.0, 1.6539050705427935E9, 0.0, 2022-05-30 12:04:30.542
199.0, 12265.586825083117, 19657.666344364447, -63841.47719639268, -46707.30044928795, -25835.21912517776, -34877.90791725015, -9472.088154803296, -11213.289047871715, 0.008, 0.966, 0.34, 192.0, 0.0, 0.0, 0.0, 0.0, 0.0, 0.0, 0.0, 0.0, 0.0, 1.6539050705428004E9, 0.0, 2022-05-30 12:04:30.542
200.0, 12279.1990374564, 19672.776123616233, -63837.61034460191, -46701.04196084046, -25825.317302384057, -34873.12464393671, -9477.452573472568, -11222.676780542944, 0.008, 0.966, 0.34, 192.0, 0.0, 0.0, 0.0, 0.0, 0.0, 0.0, 0.0, 0.0, 0.0, 1.6539050705428064E9, 0.0, 2022-05-30 12:04:30.542
201.0, 12260.021240713744, 19657.956917042367, -63851.0213912751, -46721.65026922825, -25845.59033460502, -34891.87775753472, -9492.808221913365, -11235.059646971184, 0.008, 0.966, 0.34, 192.0, 0.0, 0.0, 0.0, 0.0, 0.0, 0.0, 0.0, 0.0, 0.0, 1.653905070542816E9, 0.0, 2022-05-30 12:04:30.542
202.0, 12257.786066268214, 19650.044399505186, -63854.6200221324, -46723.55016750695, -25849.367779417968, -34901.846635561786, -9467.863675101242, -11234.74672254881, 0.008, 0.966, 0.34, 192.0, 0.0, 0.0, 0.0, 0.0, 0.0, 0.0, 0.0, 0.0, 0.0, 1.6539050705428295E9, 0.0, 2022-05-30 12:04:30.542
203.0, 12254.299194133186, 19650.37967567202, -63849.30030695204, -46714.900042402754, -25848.719578828764, -34893.643545346684, -9462.58866340979, -11232.153920191995, 0.008, 0.966, 0.34, 192.0, 0.0, 0.0, 0.0, 0.0, 0.0, 0.0, 0.0, 0.0, 0.0, 1.6539050705428393E9, 0.0, 2022-05-30 12:04:30.542
204.0, 12267.978461739835, 19669.959803814865, -63829.451957875724, -46694.694065415155, -25832.73808154322, -34869.03427470139, -9447.523587646912, -11201.889658199509, 0.008, 0.966, 0.34, 192.0, 0.0, 0.0, 0.0, 0.0, 0.0, 0.0, 0.0, 0.0, 0.0, 1.653905070542853E9, 0.0, 2022-05-30 12:04:30.542
205.0, 12269.81130478517, 19667.255242735773, -63829.78723404256, -46696.90688811623, -25832.894543754406, -34870.64360030217, -9455.838436584287, -11203.297818100193, -0.006, 0.968, 0.37, 192.0, 255.0, 208.0, 30.0, 64.0, 11.0, 144.0, 0.0, 0.0, 0.0, 1.6539050705428634E9, 0.0, 2022-05-30 12:04:30.542
206.0, 12285.166953225966, 19667.389353202507, -63830.077806720474, -46695.09639681535, -25830.279389653137, -34865.86032698874, -9450.898701059665, -11200.660312254467, -0.006, 0.968, 0.37, 192.0, 0.0, 0.0, 0.0, 0.0, 0.0, 0.0, 0.0, 0.0, 0.0, 1.6539050705428743E9, 0.0, 2022-05-30 12:04:30.542
207.0, 12288.296197449708, 19658.448655420383, -63834.34698991144, -46704.66294344222, -25830.43585186432, -34873.21405091453, -9450.384610937192, -11207.634056524523, -0.006, 0.968, 0.37, 192.0, 0.0, 0.0, 0.0, 0.0, 0.0, 0.0, 0.0, 0.0, 0.0, 1.6539050705428889E9, 0.0, 2022-05-30 12:04:30.542
208.0, 12261.161179680967, 19656.74992284178, -63841.99128651516, -46713.11190284633, -25843.3998636484, -34881.32773415181, -9459.146494763672, -11216.060664184173, -0.006, 0.968, 0.37, 192.0, 0.0, 0.0, 0.0, 0.0, 0.0, 0.0, 0.0, 0.0, 0.0, 1.653905070542899E9, 0.0, 2022-05-30 12:04:30.542
209.0, 12283.915255536469, 19668.149312513986, -63830.48013812067, -46704.707646931136, -25841.678779325342, -34876.70092304956, -9460.73346862, -11221.894469487008, -0.006, 0.968, 0.37, 192.0, 0.0, 0.0, 0.0, 0.0, 0.0, 0.0, 0.0, 0.0, 0.0, 1.65390507054291E9, 0.0, 2022-05-30 12:04:30.542
210.0, 12272.068830975155, 19672.351440471582, -63828.51318460861, -46705.109978331326, -25844.02571249315, -34879.42783587311, -9462.186332009594, -11229.002324223797, -0.006, 0.968, 0.37, 192.0, 0.0, 0.0, 0.0, 0.0, 0.0, 0.0, 0.0, 0.0, 0.0, 1.6539050705429208E9, 0.0, 2022-05-30 12:04:30.542
211.0, 12268.894883262503, 19667.724629369335, -63827.77557704158, -46704.64059169777, -25841.34350315851, -34878.95844923955, -9444.371991678714, -11226.208356166882, -0.006, 0.968, 0.37, 192.0, 0.0, 0.0, 0.0, 0.0, 0.0, 0.0, 0.0, 0.0, 0.0, 1.6539050705429308E9, 0.0, 2022-05-30 12:04:30.542
212.0, 12277.232083944331, 19646.17754771442, -63841.18662371476, -46719.05746687144, -25845.791500305117, -34888.74851331097, -9464.488561688491, -11228.488234101324, -0.006, 0.968, 0.37, 192.0, 0.0, 0.0, 0.0, 0.0, 0.0, 0.0, 0.0, 0.0, 0.0, 1.653905070542944E9, 0.0, 2022-05-30 12:04:30.542
213.0, 12250.789970253703, 19632.587687085594, -63846.84161506196, -46720.7785511945, -25858.82256732256, -34886.736856309995, -9493.746995180487, -11231.013981224774, -0.006, 0.968, 0.37, 192.0, 0.0, 0.0, 0.0, 0.0, 0.0, 0.0, 0.0, 0.0, 0.0, 1.6539050705429535E9, 0.0, 2022-05-30 12:04:30.542
214.0, 12242.296307360686, 19630.26310566224, -63837.498585879635, -46705.35584752034, -25852.944058530815, -34873.34816138127, -9481.274721774427, -11214.518393816757, -0.006, 0.968, 0.37, 192.0, 0.0, 0.0, 0.0, 0.0, 0.0, 0.0, 0.0, 0.0, 0.0, 1.6539050705429757E9, 0.0, 2022-05-30 12:04:30.542
215.0, 12244.240909128299, 19633.772329541724, -63831.77653929908, -46699.723207917596, -25845.232706693736, -34866.30736187784, -9457.87244532972, -11203.45428031138, -0.008, 0.9520000000000001, 0.376, 192.0, 255.0, 192.0, 29.0, 192.0, 11.0, 192.0, 0.0, 0.0, 0.0, 1.6539050705429883E9, 0.0, 2022-05-30 12:04:30.542
216.0, 12255.081505189122, 19642.198937201374, -63815.2138966577, -46694.35878924833, -25837.655465323387, -34861.4793850755, -9442.96383177803, -11197.084033141618, -0.008, 0.9520000000000001, 0.376, 192.0, 0.0, 0.0, 0.0, 0.0, 0.0, 0.0, 0.0, 0.0, 0.0, 1.6539050705429995E9, 0.0, 2022-05-30 12:04:30.542
217.0, 12237.647144513983, 19616.6285415445, -63831.977704999175, -46709.20034756665, -25848.697227084307, -34880.32190565132, -9464.913244833142, -11215.121890917051, -0.008, 0.9520000000000001, 0.376, 192.0, 0.0, 0.0, 0.0, 0.0, 0.0, 0.0, 0.0, 0.0, 0.0, 1.6539050705430117E9, 0.0, 2022-05-30 12:04:30.543
218.0, 12230.204013610366, 19601.65287275945, -63849.41206567432, -46722.276118073, -25874.178215763357, -34899.81262681635, -9507.292152320404, -11248.6048041111, -0.008, 0.9520000000000001, 0.376, 192.0, 0.0, 0.0, 0.0, 0.0, 0.0, 0.0, 0.0, 0.0, 0.0, 1.6539050705430205E9, 0.0, 2022-05-30 12:04:30.543
219.0, 12256.646127300994, 19625.412777115438, -63832.760016055116, -46698.136234061276, -25859.291953956123, -34874.89043174868, -9478.54780895088, -11236.534862105234, -0.008, 0.9520000000000001, 0.376, 192.0, 0.0, 0.0, 0.0, 0.0, 0.0, 0.0, 0.0, 0.0, 0.0, 1.6539050705430298E9, 0.0, 2022-05-30 12:04:30.543
220.0, 12239.971725937334, 19618.46138458984, -63827.32854215247, -46700.23729804007, -25847.713750328276, -34873.884603248196, -9441.86859629972, -11209.332789103126, -0.008, 0.9520000000000001, 0.376, 192.0, 0.0, 0.0, 0.0, 0.0, 0.0, 0.0, 0.0, 0.0, 0.0, 1.6539050705430417E9, 0.0, 2022-05-30 12:04:30.543
221.0, 12223.140862362488, 19600.088250647575, -63837.5209376241, -46710.4743970006, -25856.922669043863, -34882.57943184131, -9452.910358060642, -11210.293914114704, -0.008, 0.9520000000000001, 0.376, 192.0, 0.0, 0.0, 0.0, 0.0, 0.0, 0.0, 0.0, 0.0, 0.0, 1.6539050705430508E9, 0.0, 2022-05-30 12:04:30.543
222.0, 12237.75890323626, 19604.55859953864, -63828.96021949771, -46702.316010274415, -25843.69043632632, -34872.07411194732, -9450.58577663729, -11216.462995584368, -0.008, 0.9520000000000001, 0.376, 192.0, 0.0, 0.0, 0.0, 0.0, 0.0, 0.0, 0.0, 0.0, 0.0, 1.653905070543062E9, 0.0, 2022-05-30 12:04:30.543
223.0, 12237.982420680812, 19600.669396003414, -63832.134167210366, -46713.00014412405, -25850.64182885192, -34873.52697533691, -9459.63823314169, -11213.244344382805, -0.008, 0.9520000000000001, 0.376, 192.0, 0.0, 0.0, 0.0, 0.0, 0.0, 0.0, 0.0, 0.0, 0.0, 1.6539050705430808E9, 0.0, 2022-05-30 12:04:30.543
224.0, 12265.162141938466, 19628.474966105816, -63807.90487622081, -46679.33841697436, -25834.59327633301, -34849.00711166944, -9452.150398749161, -11186.042271380697, -0.008, 0.9520000000000001, 0.376, 192.0, 0.0, 0.0, 0.0, 0.0, 0.0, 0.0, 0.0, 0.0, 0.0, 1.6539050705430915E9, 0.0, 2022-05-30 12:04:30.543
225.0, 12286.932741037936, 19643.16006221295, -63799.4559168167, -46665.92737030117, -25819.3940901034, -34841.65338774364, -9442.717962589022, -11174.35230903057, -0.004, 0.9420000000000001, 0.386, 192.0, 255.0, 224.0, 29.0, 112.0, 12.0, 16.0, 0.0, 0.0, 0.0, 1.6539050705431004E9, 0.0, 2022-05-30 12:04:30.543
226.0, 12292.587732385127, 19646.378713414517, -63798.27127436057, -46666.441460423644, -25821.07047093755, -34844.17913486709, -9419.539203588869, -11177.079221854117, -0.004, 0.9420000000000001, 0.386, 192.0, 0.0, 0.0, 0.0, 0.0, 0.0, 0.0, 0.0, 0.0, 0.0, 1.6539050705431116E9, 0.0, 2022-05-30 12:04:30.543
227.0, 12275.063964732166, 19629.704312050857, -63816.756167025116, -46681.30537048643, -25834.21329667727, -34858.908934463136, -9435.230128196494, -11191.049062138685, -0.004, 0.9420000000000001, 0.386, 192.0, 0.0, 0.0, 0.0, 0.0, 0.0, 0.0, 0.0, 0.0, 0.0, 1.6539050705431287E9, 0.0, 2022-05-30 12:04:30.543
228.0, 12272.761735053271, 19632.69944580787, -63807.88252447636, -46678.57845766288, -25841.58937234752, -34858.975989696504, -9460.800523853364, -11198.894524442498, -0.004, 0.9420000000000001, 0.386, 192.0, 0.0, 0.0, 0.0, 0.0, 0.0, 0.0, 0.0, 0.0, 0.0, 1.6539050705431402E9, 0.0, 2022-05-30 12:04:30.543
229.0, 12289.458488161385, 19648.479777393317, -63795.43260281475, -46664.31804470039, -25828.468898352254, -34844.17913486709, -9437.44295089757, -11178.196809076884, -0.004, 0.9420000000000001, 0.386, 192.0, 0.0, 0.0, 0.0, 0.0, 0.0, 0.0, 0.0, 0.0, 0.0, 1.6539050705431492E9, 0.0, 2022-05-30 12:04:30.543
230.0, 12292.34186319612, 19649.396198915983, -63801.9593121957, -46668.81074533591, -25828.87122975245, -34845.497887789956, -9436.39241890817, -11176.475724753825, -0.004, 0.9420000000000001, 0.386, 192.0, 0.0, 0.0, 0.0, 0.0, 0.0, 0.0, 0.0, 0.0, 0.0, 1.65390507054316E9, 0.0, 2022-05-30 12:04:30.543
231.0, 12284.786973570226, 19635.73928305379, -63818.276085648075, -46686.021588566495, -25836.87315426745, -34864.787443254885, -9465.807314611355, -11198.581600020123, -0.004, 0.9420000000000001, 0.386, 192.0, 0.0, 0.0, 0.0, 0.0, 0.0, 0.0, 0.0, 0.0, 0.0, 1.6539050705431716E9, 0.0, 2022-05-30 12:04:30.543
232.0, 12259.127170935533, 19610.861791475036, -63834.77167305609, -46706.495786487554, -25850.507718385186, -34886.245117931976, -9503.157079596172, -11231.349257391603, -0.004, 0.9420000000000001, 0.386, 192.0, 0.0, 0.0, 0.0, 0.0, 0.0, 0.0, 0.0, 0.0, 0.0, 1.6539050705431864E9, 0.0, 2022-05-30 12:04:30.543
233.0, 12255.260319144765, 19601.228189614798, -63842.86300454891, -46715.41413252523, -25872.367724462478, -34893.55413836886, -9490.461288745557, -11235.886661516031, -0.004, 0.9420000000000001, 0.386, 192.0, 0.0, 0.0, 0.0, 0.0, 0.0, 0.0, 0.0, 0.0, 0.0, 1.653905070543202E9, 0.0, 2022-05-30 12:04:30.543
234.0, 12247.124284163034, 19606.682015261893, -63832.53649861056, -46702.316010274415, -25862.912936557885, -34879.49489110648, -9430.849186283254, -11206.047082668196, -0.004, 0.9420000000000001, 0.386, 192.0, 0.0, 0.0, 0.0, 0.0, 0.0, 0.0, 0.0, 0.0, 0.0, 1.6539050705432117E9, 0.0, 2022-05-30 12:04:30.543
235.0, 12239.927022448424, 19613.186372898384, -63827.55205959703, -46694.4705479706, -25847.49023288372, -34872.31998113632, -9418.466319855013, -11190.110288871561, -0.004, 0.9420000000000001, 0.396, 192.0, 255.0, 224.0, 29.0, 112.0, 12.0, 96.0, 0.0, 0.0, 0.0, 1.6539050705432577E9, 0.0, 2022-05-30 12:04:30.543
236.0, 12243.793874239193, 19609.65479727445, -63834.77167305609, -46701.399588751745, -25851.580602119044, -34879.249021917465, -9464.242692499482, -11213.579620549634, -0.004, 0.9420000000000001, 0.396, 192.0, 0.0, 0.0, 0.0, 0.0, 0.0, 0.0, 0.0, 0.0, 0.0, 1.6539050705432708E9, 0.0, 2022-05-30 12:04:30.543
237.0, 12253.405124354975, 19602.25636985974, -63843.75707432713, -46711.43552201218, -25857.97320103326, -34889.70963832255, -9478.458401973057, -11233.919708003963, -0.004, 0.9420000000000001, 0.396, 192.0, 0.0, 0.0, 0.0, 0.0, 0.0, 0.0, 0.0, 0.0, 0.0, 1.65390507054328E9, 0.0, 2022-05-30 12:04:30.543
238.0, 12248.934775463913, 19588.554750508636, -63857.79396984506, -46727.21585359763, -25879.006192565703, -34900.773751827925, -9473.362204237248, -11234.210280681882, -0.004, 0.9420000000000001, 0.396, 192.0, 0.0, 0.0, 0.0, 0.0, 0.0, 0.0, 0.0, 0.0, 0.0, 1.6539050705432928E9, 0.0, 2022-05-30 12:04:30.543
239.0, 12264.80451402718, 19614.34866361006, -63832.469443377195, -46698.42680673919, -25857.97320103326, -34870.82241425782, -9458.744163363477, -11211.16563214846, -0.004, 0.9420000000000001, 0.396, 192.0, 0.0, 0.0, 0.0, 0.0, 0.0, 0.0, 0.0, 0.0, 0.0, 1.6539050705433142E9, 0.0, 2022-05-30 12:04:30.543
240.0, 12294.398223686007, 19630.374864384517, -63821.53944033855, -46688.34616998985, -25845.523279371653, -34866.24030664448, -9459.191198252583, -11203.767204733755, -0.004, 0.9420000000000001, 0.396, 192.0, 0.0, 0.0, 0.0, 0.0, 0.0, 0.0, 0.0, 0.0, 0.0, 1.6539050705433257E9, 0.0, 2022-05-30 12:04:30.543
241.0, 12271.867665275058, 19623.26700964773, -63832.961181755214, -46700.03613233997, -25853.21227946428, -34881.23832717399, -9471.596416425278, -11209.064568169662, -0.004, 0.9420000000000001, 0.396, 192.0, 0.0, 0.0, 0.0, 0.0, 0.0, 0.0, 0.0, 0.0, 0.0, 1.6539050710212283E9, 0.0, 2022-05-30 12:04:31.021
242.0, 12256.28849938971, 19607.17375363991, -63850.01556277461, -46712.62016446831, -25864.365799947478, -34894.694077336084, -9478.279588017414, -11231.952754491896, -0.004, 0.9420000000000001, 0.396, 192.0, 0.0, 0.0, 0.0, 0.0, 0.0, 0.0, 0.0, 0.0, 0.0, 1.6539050710213013E9, 0.0, 2022-05-30 12:04:31.021
243.0, 12276.963863010867, 19627.06680620513, -63825.54040259605, -46695.677542171186, -25849.59129686252, -34874.46574860403, -9457.06778252933, -11223.79436776571, -0.004, 0.9420000000000001, 0.396, 192.0, 0.0, 0.0, 0.0, 0.0, 0.0, 0.0, 0.0, 0.0, 0.0, 1.6539050710213065E9, 0.0, 2022-05-30 12:04:31.021
244.0, 12286.977444526845, 19645.261126191752, -63811.52585882257, -46681.59594316434, -25839.220087435257, -34860.6300187862, -9440.348677676759, -11202.001416921785, -0.004, 0.9420000000000001, 0.396, 192.0, 0.0, 0.0, 0.0, 0.0, 0.0, 0.0, 0.0, 0.0, 0.0, 1.6539050710213115E9, 0.0, 2022-05-30 12:04:31.021
245.0, 12266.57030183915, 19631.89478300748, -63820.019521715585, -46678.8690303408, -25843.466918881764, -34864.20629789904, -9444.796674823365, -11199.07333839814, 0.008, 0.9400000000000001, 0.39, 192.0, 0.0, 64.0, 29.0, 96.0, 12.0, 48.0, 0.0, 0.0, 0.0, 1.6539050710213168E9, 0.0, 2022-05-30 12:04:31.021
246.0, 12273.745211809304, 19615.063919432632, -63823.43933861725, -46684.09933854334, -25847.937267772828, -34867.33554212279, -9454.67614587261, -11203.342521589104, 0.008, 0.9400000000000001, 0.39, 192.0, 0.0, 0.0, 0.0, 0.0, 0.0, 0.0, 0.0, 0.0, 0.0, 1.6539050710213232E9, 0.0, 2022-05-30 12:04:31.021
247.0, 12273.879322276036, 19609.543038552172, -63827.55205959703, -46686.803899622435, -25848.20548870629, -34872.610553814244, -9457.827741840809, -11208.08109141363, 0.008, 0.9400000000000001, 0.39, 192.0, 0.0, 0.0, 0.0, 0.0, 0.0, 0.0, 0.0, 0.0, 0.0, 1.653905071021329E9, 0.0, 2022-05-30 12:04:31.021
248.0, 12252.064019687656, 19601.317596592617, -63842.37126617089, -46698.80678639493, -25865.282221470145, -34887.54151911039, -9482.079384574818, -11221.782710764732, 0.008, 0.9400000000000001, 0.39, 192.0, 0.0, 0.0, 0.0, 0.0, 0.0, 0.0, 0.0, 0.0, 0.0, 1.6539050710213363E9, 0.0, 2022-05-30 12:04:31.021
249.0, 12245.716124262348, 19601.384651825985, -63848.406237173826, -46701.48899572957, -25874.200567507814, -34895.49874013648, -9494.55165798088, -11228.689399801422, 0.008, 0.9400000000000001, 0.39, 192.0, 0.0, 0.0, 0.0, 0.0, 0.0, 0.0, 0.0, 0.0, 0.0, 1.6539050710213416E9, 0.0, 2022-05-30 12:04:31.021
250.0, 12255.908519733968, 19614.12514616551, -63836.82803354598, -46689.463757212616, -25859.82839582305, -34888.56969935533, -9483.308730519859, -11225.56015557768, 0.008, 0.9400000000000001, 0.39, 192.0, 0.0, 0.0, 0.0, 0.0, 0.0, 0.0, 0.0, 0.0, 0.0, 1.6539050710213475E9, 0.0, 2022-05-30 12:04:31.021
251.0, 12279.400203156496, 19631.06776846263, -63822.880545005864, -46679.76310011901, -25848.294895684114, -34877.70675155005, -9459.749991863966, -11214.898373472497, 0.008, 0.9400000000000001, 0.39, 192.0, 0.0, 0.0, 0.0, 0.0, 0.0, 0.0, 0.0, 0.0, 0.0, 1.6539050710213535E9, 0.0, 2022-05-30 12:04:31.021
252.0, 12292.878305063046, 19629.79371902868, -63831.217745687696, -46687.47445195609, -25851.24532595221, -34882.78059754141, -9458.92297731912, -11214.227821138838, 0.008, 0.9400000000000001, 0.39, 192.0, 0.0, 0.0, 0.0, 0.0, 0.0, 0.0, 0.0, 0.0, 0.0, 1.6539050710213585E9, 0.0, 2022-05-30 12:04:31.021
253.0, 12257.80841801267, 19615.130974665997, -63852.69777210925, -46704.14885331975, -25870.043143039125, -34897.39863841518, -9467.841323356786, -11232.399789381003, 0.008, 0.9400000000000001, 0.39, 192.0, 0.0, 0.0, 0.0, 0.0, 0.0, 0.0, 0.0, 0.0, 0.0, 1.6539050710213633E9, 0.0, 2022-05-30 12:04:31.021
254.0, 12258.657784301971, 19621.814146258133, -63847.60157437344, -46697.13040556078, -25870.825454095062, -34886.46863537653, -9487.01912009944, -11232.578603336646, 0.008, 0.9400000000000001, 0.39, 192.0, 0.0, 0.0, 0.0, 0.0, 0.0, 0.0, 0.0, 0.0, 0.0, 1.653905071021368E9, 0.0, 2022-05-30 12:04:31.021
255.0, 12271.241816430309, 19623.423471858918, -63833.92230676679, -46690.80486187993, -25852.63113410844, -34878.66787656163, -9486.773250910432, -11214.74191126131, 0.004, 0.9520000000000001, 0.386, 192.0, 0.0, 32.0, 29.0, 192.0, 12.0, 16.0, 0.0, 0.0, 0.0, 1.6539050710213733E9, 0.0, 2022-05-30 12:04:31.021
0.0, 12269.677194318438, 19614.192201398873, -63847.6686296068, -46701.399588751745, -25851.848823052507, -34895.252870947465, -9468.735393134999, -11218.340542118614, 0.004, 0.9520000000000001, 0.386, 192.0, 0.0, 0.0, 0.0, 0.0, 0.0, 0.0, 0.0, 0.0, 0.0, 1.6539050710214245E9, 0.0, 2022-05-30 12:04:31.021
1.0, 12252.980441210324, 19614.907457221445, -63843.69001909376, -46704.685295186675, -25853.16757597537, -34900.05849600536, -9470.009442568951, -11229.874042257554, 0.004, 0.9520000000000001, 0.386, 192.0, 0.0, 0.0, 0.0, 0.0, 0.0, 0.0, 0.0, 0.0, 0.0, 1.65390507102143E9, 0.0, 2022-05-30 12:04:31.021
2.0, 12251.415819098453, 19622.03766370269, -63839.24202194715, -46703.94768761965, -25858.666105111373, -34898.337411682296, -9503.492355763, -11237.943022005918, 0.004, 0.9520000000000001, 0.386, 192.0, 0.0, 0.0, 0.0, 0.0, 0.0, 0.0, 0.0, 0.0, 0.0, 1.653905071021434E9, 0.0, 2022-05-30 12:04:31.021
3.0, 12249.359458608564, 19615.309788621642, -63851.0213912751, -46710.988487123075, -25863.4046749359, -34903.07598150682, -9512.656570989677, -11244.17915870895, 0.004, 0.9520000000000001, 0.386, 192.0, 0.0, 0.0, 0.0, 0.0, 0.0, 0.0, 0.0, 0.0, 0.0, 1.653905071021439E9, 0.0, 2022-05-30 12:04:31.021
4.0, 12249.940603964402, 19606.9278844509, -63846.953373784236, -46712.10607434584, -25858.084959755535, -34907.501626908976, -9470.881160602708, -11231.7515887918, 0.004, 0.9520000000000001, 0.386, 192.0, 0.0, 0.0, 0.0, 0.0, 0.0, 0.0, 0.0, 0.0, 0.0, 1.6539050710214448E9, 0.0, 2022-05-30 12:04:31.021
5.0, 12249.538272564207, 19602.189314626376, -63850.35083894144, -46715.14591159176, -25862.957640046792, -34911.547292655385, -9468.266006501437, -11229.494062601812, 0.004, 0.9520000000000001, 0.386, 192.0, 0.0, 0.0, 0.0, 0.0, 0.0, 0.0, 0.0, 0.0, 0.0, 1.65390507102145E9, 0.0, 2022-05-30 12:04:31.021
6.0, 12250.789970253703, 19607.240808873274, -63850.52965289708, -46718.43161802669, -25860.54365164562, -34908.21688273155, -9472.468134459035, -11234.679667315444, 0.004, 0.9520000000000001, 0.386, 192.0, 0.0, 0.0, 0.0, 0.0, 0.0, 0.0, 0.0, 0.0, 0.0, 1.6539050710214553E9, 0.0, 2022-05-30 12:04:31.021
7.0, 12264.46923786035, 19614.996864199267, -63838.973801013686, -46700.48316722908, -25850.30655268509, -34896.57162387033, -9470.188256524594, -11232.355085892092, 0.004, 0.9520000000000001, 0.386, 192.0, 0.0, 0.0, 0.0, 0.0, 0.0, 0.0, 0.0, 0.0, 0.0, 1.6539050710214603E9, 0.0, 2022-05-30 12:04:31.021
8.0, 12289.816116072669, 19623.289361392184, -63832.53649861056, -46692.727111903085, -25844.07041598206, -34885.261641175945, -9450.67518361511, -11221.089806686618, 0.002, 0.9500000000000001, 0.386, 192.0, 0.0, 16.0, 29.0, 176.0, 12.0, 16.0, 0.0, 0.0, 0.0, 1.653905071021466E9, 0.0, 2022-05-30 12:04:31.021
9.0, 12286.329243937642, 19621.74709102477, -63836.179832956775, -46698.136234061276, -25855.06747425407, -34887.89914702167, -9457.313651718337, -11229.494062601812, 0.002, 0.9500000000000001, 0.386, 192.0, 0.0, 0.0, 0.0, 0.0, 0.0, 0.0, 0.0, 0.0, 0.0, 1.6539050710214715E9, 0.0, 2022-05-30 12:04:31.021
10.0, 12273.879322276036, 19610.660625774937, -63847.44511216225, -46705.69112368717, -25862.667067368875, -34890.916632523134, -9465.561445422345, -11232.019809725263, 0.002, 0.9500000000000001, 0.386, 192.0, 0.0, 0.0, 0.0, 0.0, 0.0, 0.0, 0.0, 0.0, 0.0, 1.653905071021476E9, 0.0, 2022-05-30 12:04:31.021
11.0, 12241.581051538116, 19602.234018115287, -63860.87851057989, -46719.88448141629, -25864.20933773629, -34900.997269272484, -9480.805335140865, -11234.7020190599, 0.002, 0.9500000000000001, 0.386, 192.0, 0.0, 0.0, 0.0, 0.0, 0.0, 0.0, 0.0, 0.0, 0.0, 1.6539050710214808E9, 0.0, 2022-05-30 12:04:31.021
12.0, 12242.117493405045, 19613.16402115393, -63860.20795824623, -46718.811597682434, -25873.798236107617, -34904.350030940775, -9496.45155625958, -11242.5027778748, 0.002, 0.9500000000000001, 0.386, 192.0, 0.0, 0.0, 0.0, 0.0, 0.0, 0.0, 0.0, 0.0, 0.0, 1.6539050710214856E9, 0.0, 2022-05-30 12:04:31.021
13.0, 12226.918307175436, 19611.375881597505, -63847.62392611789, -46708.01570511052, -25872.747704118217, -34899.14207448269, -9490.707157934567, -11246.280222687748, 0.002, 0.9500000000000001, 0.386, 192.0, 0.0, 0.0, 0.0, 0.0, 0.0, 0.0, 0.0, 0.0, 0.0, 1.6539050710214899E9, 0.0, 2022-05-30 12:04:31.021
14.0, 12232.841519456091, 19608.69367226287, -63846.238117961664, -46701.98073410759, -25869.707866872297, -34894.068228491335, -9485.11922182074, -11237.585394094634, 0.002, 0.9500000000000001, 0.386, 192.0, 0.0, 0.0, 0.0, 0.0, 0.0, 0.0, 0.0, 0.0, 0.0, 1.653905071021494E9, 0.0, 2022-05-30 12:04:31.021
15.0, 12249.448865586384, 19610.727681008302, -63847.44511216225, -46701.84662364086, -25863.807006336094, -34886.66980107663, -9474.166867037638, -11221.156861919984, 0.002, 0.9500000000000001, 0.386, 192.0, 0.0, 0.0, 0.0, 0.0, 0.0, 0.0, 0.0, 0.0, 0.0, 1.653905071021499E9, 0.0, 2022-05-30 12:04:31.021
16.0, 12227.365342064542, 19584.01734638421, -63880.54804570056, -46733.072010644915, -25885.868178113484, -34912.106086266765, -9496.250390559482, -11243.374495908558, 0.002, 0.9500000000000001, 0.386, 192.0, 0.0, 0.0, 0.0, 0.0, 0.0, 0.0, 0.0, 0.0, 0.0, 1.6539050710215034E9, 0.0, 2022-05-30 12:04:31.021
17.0, 12232.863871200547, 19586.766610952214, -63868.14282752787, -46728.48990303158, -25888.4609804703, -34906.71931585304, -9510.734320966521, -11260.719449605876, 0.002, 0.9500000000000001, 0.386, 192.0, 0.0, 0.0, 0.0, 0.0, 0.0, 0.0, 0.0, 0.0, 0.0, 1.653905071021508E9, 0.0, 2022-05-30 12:04:31.021
18.0, 12276.449772888396, 19605.385614083483, -63845.545213883546, -46711.03319061198, -25872.83711109604, -34889.64258308918, -9490.908323634663, -11237.585394094634, 0.002, 0.96, 0.39, 192.0, 0.0, 16.0, 30.0, 0.0, 12.0, 48.0, 0.0, 0.0, 0.0, 1.653905071021513E9, 0.0, 2022-05-30 12:04:31.021
19.0, 12283.758793325282, 19615.153326410455, -63842.326562681985, -46703.657114941736, -25858.509642900186, -34881.39478938518, -9462.141628520683, -11223.45909159888, 0.002, 0.96, 0.39, 192.0, 0.0, 0.0, 0.0, 0.0, 0.0, 0.0, 0.0, 0.0, 0.0, 1.6539050710215175E9, 0.0, 2022-05-30 12:04:31.021
20.0, 12261.42940061443, 19614.12514616551, -63828.33437065296, -46698.270344528006, -25845.612686349476, -34878.5337660949, -9460.688765131088, -11216.820623495654, 0.002, 0.96, 0.39, 192.0, 0.0, 0.0, 0.0, 0.0, 0.0, 0.0, 0.0, 0.0, 0.0, 1.6539050710215235E9, 0.0, 2022-05-30 12:04:31.021
21.0, 12238.89884220348, 19589.605282498036, -63853.70360060973, -46722.43258028419, -25869.059666283094, -34904.350030940775, -9493.076442846828, -11241.60870809659, 0.002, 0.96, 0.39, 192.0, 0.0, 0.0, 0.0, 0.0, 0.0, 0.0, 0.0, 0.0, 0.0, 1.6539050710215287E9, 0.0, 2022-05-30 12:04:31.021
22.0, 12234.048513656679, 19583.056221372633, -63865.28180423759, -46730.032173399, -25886.561082191598, -34912.28490022241, -9501.614809228757, -11258.819551327177, 0.002, 0.96, 0.39, 192.0, 0.0, 0.0, 0.0, 0.0, 0.0, 0.0, 0.0, 0.0, 0.0, 1.653905071021536E9, 0.0, 2022-05-30 12:04:31.021
23.0, 12235.367266579542, 19579.949328893345, -63865.86294959342, -46730.92624317721, -25893.892454372937, -34916.48702818001, -9513.505937278978, -11263.51341766279, 0.002, 0.96, 0.39, 192.0, 0.0, 0.0, 0.0, 0.0, 0.0, 0.0, 0.0, 0.0, 0.0, 1.6539050710215409E9, 0.0, 2022-05-30 12:04:31.021
24.0, 12257.339031379108, 19586.297224318652, -63859.671516379305, -46726.00885939704, -25883.655355412408, -34916.241158991, -9507.850945931787, -11263.80399034071, 0.002, 0.96, 0.39, 192.0, 0.0, 0.0, 0.0, 0.0, 0.0, 0.0, 0.0, 0.0, 0.0, 1.6539050710215456E9, 0.0, 2022-05-30 12:04:31.021
25.0, 12269.967766996357, 19591.438125543373, -63851.93781279777, -46717.87282441531, -25870.065494783583, -34904.52884489642, -9488.58374221131, -11233.740894048322, 0.002, 0.96, 0.39, 192.0, 0.0, 0.0, 0.0, 0.0, 0.0, 0.0, 0.0, 0.0, 0.0, 1.653905071021551E9, 0.0, 2022-05-30 12:04:31.021
26.0, 12229.75697872126, 19569.309898532618, -63868.36634497242, -46735.70951649064, -25882.001326322716, -34921.829095104826, -9495.132803336717, -11235.327867904649, 0.002, 0.96, 0.39, 192.0, 0.0, 0.0, 0.0, 0.0, 0.0, 0.0, 0.0, 0.0, 0.0, 1.6539050710215557E9, 0.0, 2022-05-30 12:04:31.021
27.0, 12233.534423534205, 19568.68404968787, -63866.801722860546, -46733.496693789566, -25887.4104484809, -34918.49868518099, -9496.719777193044, -11240.491120873825, 0.002, 0.96, 0.39, 192.0, 0.0, 0.0, 0.0, 0.0, 0.0, 0.0, 0.0, 0.0, 0.0, 1.65390507102156E9, 0.0, 2022-05-30 12:04:31.021
28.0, 12235.143749134988, 19567.946442120843, -63868.81337986152, -46728.467551287125, -25890.472637471277, -34913.11191476726, -9500.11724235025, -11236.13253070504, 0.01, 0.9540000000000001, 0.392, 192.0, 0.0, 80.0, 29.0, 208.0, 12.0, 64.0, 0.0, 0.0, 0.0, 1.6539050710215647E9, 0.0, 2022-05-30 12:04:31.021
29.0, 12248.510092319262, 19577.244767814253, -63849.63558311887, -46709.84854815585, -25875.07228554157, -34906.40639143067, -9499.625503972233, -11237.160710949984, 0.01, 0.9540000000000001, 0.392, 192.0, 0.0, 0.0, 0.0, 0.0, 0.0, 0.0, 0.0, 0.0, 0.0, 1.6539050710215716E9, 0.0, 2022-05-30 12:04:31.021
30.0, 12263.686926804416, 19591.572236010103, -63848.74151334066, -46709.35680977783, -25867.69620987132, -34906.36168794175, -9475.664433916145, -11230.343428891114, 0.01, 0.9540000000000001, 0.392, 192.0, 0.0, 0.0, 0.0, 0.0, 0.0, 0.0, 0.0, 0.0, 0.0, 1.6539050710215778E9, 0.0, 2022-05-30 12:04:31.021
31.0, 12263.731630293327, 19563.7666659077, -63869.68509789528, -46727.64053674228, -25875.631079152954, -34919.929196826124, -9476.49144846099, -11244.17915870895, 0.01, 0.9540000000000001, 0.392, 192.0, 0.0, 0.0, 0.0, 0.0, 0.0, 0.0, 0.0, 0.0, 0.0, 1.653905071021586E9, 0.0, 2022-05-30 12:04:31.021
32.0, 12231.053379899668, 19535.111729516, -63882.71616491272, -46743.30910960545, -25896.529960218664, -34935.530714455934, -9518.356265825782, -11269.615443899089, 0.01, 0.9540000000000001, 0.392, 192.0, 0.0, 0.0, 0.0, 0.0, 0.0, 0.0, 0.0, 0.0, 0.0, 1.6539050710215929E9, 0.0, 2022-05-30 12:04:31.021
33.0, 12232.170967122433, 19544.09713078703, -63868.29928973905, -46731.328574577405, -25892.528997961166, -34923.796048616896, -9500.92190515064, -11259.51245540529, 0.01, 0.9540000000000001, 0.392, 192.0, 0.0, 0.0, 0.0, 0.0, 0.0, 0.0, 0.0, 0.0, 0.0, 1.6539050710215986E9, 0.0, 2022-05-30 12:04:31.021
34.0, 12212.27791455721, 19537.995104550733, -63872.21084501873, -46736.62593801331, -25895.65824218491, -34927.551141685384, -9499.424338272136, -11259.735972849843, 0.01, 0.9540000000000001, 0.392, 192.0, 0.0, 0.0, 0.0, 0.0, 0.0, 0.0, 0.0, 0.0, 0.0, 1.6539050710216055E9, 0.0, 2022-05-30 12:04:31.021
35.0, 12192.608379436539, 19540.945534818835, -63869.819208362016, -46738.34702233637, -25888.617442681487, -34925.96416782906, -9498.016178371452, -11263.13343800705, 0.01, 0.9540000000000001, 0.392, 192.0, 0.0, 0.0, 0.0, 0.0, 0.0, 0.0, 0.0, 0.0, 0.0, 1.653905071021613E9, 0.0, 2022-05-30 12:04:31.021
36.0, 12194.329463759597, 19535.04467428263, -63880.36923174492, -46748.651176530264, -25891.858445627506, -34931.417993476156, -9497.904419649174, -11261.054725772707, 0.01, 0.9540000000000001, 0.392, 192.0, 0.0, 0.0, 0.0, 0.0, 0.0, 0.0, 0.0, 0.0, 0.0, 1.6539050710216248E9, 0.0, 2022-05-30 12:04:31.021
37.0, 12212.546135490673, 19524.651113110915, -63889.17581906031, -46755.446106844676, -25907.817591168594, -34939.91165636917, -9509.192050599106, -11260.89826356152, 0.01, 0.9540000000000001, 0.392, 192.0, 0.0, 0.0, 0.0, 0.0, 0.0, 0.0, 0.0, 0.0, 0.0, 1.65390507102163E9, 0.0, 2022-05-30 12:04:31.021
38.0, 12220.033969883201, 19534.351770204517, -63877.37409798791, -46742.45974331615, -25902.296710288134, -34921.829095104826, -9510.041416888407, -11249.208301211394, 0.014, 0.9460000000000001, 0.394, 192.0, 0.0, 112.0, 29.0, 144.0, 12.0, 80.0, 0.0, 0.0, 0.0, 1.6539050710216367E9, 0.0, 2022-05-30 12:04:31.021
39.0, 12209.327484289108, 19536.00579929421, -63877.843484621466, -46744.56080729495, -25897.93812011935, -34919.61627240375, -9504.11820460775, -11243.150978464006, 0.014, 0.9460000000000001, 0.394, 192.0, 0.0, 0.0, 0.0, 0.0, 0.0, 0.0, 0.0, 0.0, 0.0, 1.6539050710216415E9, 0.0, 2022-05-30 12:04:31.021
40.0, 12228.438225798396, 19546.019380810187, -63863.985403059174, -46733.72021123412, -25886.382268235957, -34916.08469677981, -9502.106547606772, -11251.734048334843, 0.014, 0.9460000000000001, 0.394, 192.0, 0.0, 0.0, 0.0, 0.0, 0.0, 0.0, 0.0, 0.0, 0.0, 1.6539050710216465E9, 0.0, 2022-05-30 12:04:31.021
41.0, 12225.711312974849, 19537.92804931737, -63873.82017061951, -46746.46070557365, -25892.394887494433, -34925.78535387342, -9512.410701800669, -11261.032374028251, 0.014, 0.9460000000000001, 0.394, 192.0, 0.0, 0.0, 0.0, 0.0, 0.0, 0.0, 0.0, 0.0, 0.0, 1.6539050710216513E9, 0.0, 2022-05-30 12:04:31.021
42.0, 12213.395501779974, 19519.532563630648, -63896.306025541555, -46767.046662216984, -25914.970149394292, -34945.656054694184, -9524.16771938416, -11276.56683642469, 0.014, 0.9460000000000001, 0.394, 192.0, 0.0, 0.0, 0.0, 0.0, 0.0, 0.0, 0.0, 0.0, 0.0, 1.6539050710216568E9, 0.0, 2022-05-30 12:04:31.021
43.0, 12220.70452221686, 19528.316799201584, -63890.65103419436, -46758.86592374634, -25916.80299243963, -34938.21292379057, -9531.990829943517, -11273.906978834508, 0.014, 0.9460000000000001, 0.394, 192.0, 0.0, 0.0, 0.0, 0.0, 0.0, 0.0, 0.0, 0.0, 0.0, 1.6539050710216649E9, 0.0, 2022-05-30 12:04:31.021
44.0, 12226.717141475337, 19544.410055209406, -63871.51794094062, -46746.147781151274, -25898.809838153105, -34927.37232772975, -9523.45246356159, -11264.407487441003, 0.014, 0.9460000000000001, 0.394, 192.0, 0.0, 0.0, 0.0, 0.0, 0.0, 0.0, 0.0, 0.0, 0.0, 1.6539050710216708E9, 0.0, 2022-05-30 12:04:31.021
45.0, 12231.858042700058, 19538.97858130677, -63873.440190963775, -46748.49471431908, -25891.12083806048, -34922.90197883868, -9500.430166772625, -11249.878853545053, 0.014, 0.9460000000000001, 0.394, 192.0, 0.0, 0.0, 0.0, 0.0, 0.0, 0.0, 0.0, 0.0, 0.0, 1.6539050710216787E9, 0.0, 2022-05-30 12:04:31.021
46.0, 12222.22444083982, 19539.023284795676, -63881.86679862342, -46752.83095274341, -25899.390983508943, -34919.303347981375, -9503.805280185376, -11256.964356537384, 0.014, 0.9460000000000001, 0.394, 192.0, 0.0, 0.0, 0.0, 0.0, 0.0, 0.0, 0.0, 0.0, 0.0, 1.6539050710216837E9, 0.0, 2022-05-30 12:04:31.021
47.0, 12221.017446639235, 19529.948476546822, -63885.1301533139, -46754.57438881092, -25912.153829592924, -34923.237255005515, -9513.841213445809, -11254.192740224928, 0.014, 0.9460000000000001, 0.394, 192.0, 0.0, 0.0, 0.0, 0.0, 0.0, 0.0, 0.0, 0.0, 0.0, 1.6539050710216887E9, 0.0, 2022-05-30 12:04:31.021
48.0, 12232.573298522628, 19533.99414229323, -63874.758943886634, -46741.67743226021, -25903.83898065555, -34917.0905252803, -9498.97730338303, -11247.822493055164, 0.012, 0.9460000000000001, 0.392, 192.0, 0.0, 96.0, 29.0, 144.0, 12.0, 64.0, 0.0, 0.0, 0.0, 1.6539050710216963E9, 0.0, 2022-05-30 12:04:31.021
49.0, 12251.28170863172, 19544.186537764854, -63863.31485072552, -46728.3781443093, -25887.544558947633, -34903.67947860712, -9500.653684217177, -11242.726295319355, 0.012, 0.9460000000000001, 0.392, 192.0, 0.0, 0.0, 0.0, 0.0, 0.0, 0.0, 0.0, 0.0, 0.0, 1.6539050710217028E9, 0.0, 2022-05-30 12:04:31.021
50.0, 12238.317696847642, 19541.414921452397, -63866.55585367154, -46732.312051333436, -25895.79235265164, -34905.17704548562, -9482.414660741648, -11240.826397040653, 0.012, 0.9460000000000001, 0.392, 192.0, 0.0, 0.0, 0.0, 0.0, 0.0, 0.0, 0.0, 0.0, 0.0, 1.6539050710217085E9, 0.0, 2022-05-30 12:04:31.021
51.0, 12220.883336172503, 19536.96692430579, -63871.830865362994, -46742.61620552733, -25900.910902131905, -34915.14592351269, -9517.953934425585, -11253.969222780373, 0.012, 0.9460000000000001, 0.392, 192.0, 0.0, 0.0, 0.0, 0.0, 0.0, 0.0, 0.0, 0.0, 0.0, 1.6539050710217147E9, 0.0, 2022-05-30 12:04:31.021
52.0, 12225.018408896734, 19538.442139439838, -63869.036897306076, -46742.61620552733, -25903.011966110706, -34915.86117933526, -9542.406742859692, -11265.413315941492, 0.012, 0.9460000000000001, 0.392, 192.0, 0.0, 0.0, 0.0, 0.0, 0.0, 0.0, 0.0, 0.0, 0.0, 1.65390507102172E9, 0.0, 2022-05-30 12:04:31.021
53.0, 12229.153481620966, 19539.53737491815, -63865.25945249313, -46739.375202581316, -25904.733050433762, -34913.40248744518, -9524.905326951186, -11257.746667593321, 0.012, 0.9460000000000001, 0.392, 192.0, 0.0, 0.0, 0.0, 0.0, 0.0, 0.0, 0.0, 0.0, 0.0, 1.6539050710217257E9, 0.0, 2022-05-30 12:04:31.021
54.0, 12225.443092041385, 19533.301238215117, -63867.38286821639, -46739.75518223705, -25898.005175352715, -34913.96128105656, -9491.6906346906, -11254.460961158391, 0.012, 0.9460000000000001, 0.392, 192.0, 0.0, 0.0, 0.0, 0.0, 0.0, 0.0, 0.0, 0.0, 0.0, 1.6539050710217333E9, 0.0, 2022-05-30 12:04:31.021
55.0, 12239.435284070407, 19537.749235361724, -63866.26528099362, -46740.53749329299, -25895.27826252917, -34914.67653687913, -9488.024948599928, -11254.12568499156, 0.012, 0.9460000000000001, 0.392, 192.0, 0.0, 0.0, 0.0, 0.0, 0.0, 0.0, 0.0, 0.0, 0.0, 1.6539050710217433E9, 0.0, 2022-05-30 12:04:31.021
56.0, 12223.163214106944, 19527.400377678918, -63881.55387420105, -46760.341138880394, -25901.17912306537, -34929.69690915309, -9517.775120469943, -11272.342356722636, 0.012, 0.9460000000000001, 0.392, 192.0, 0.0, 0.0, 0.0, 0.0, 0.0, 0.0, 0.0, 0.0, 0.0, 1.6539050710217507E9, 0.0, 2022-05-30 12:04:31.021
57.0, 12210.84740291207, 19528.696778857324, -63884.973691102714, -46764.5879703269, -25904.442477755845, -34925.96416782906, -9538.204614902093, -11287.608598185612, 0.012, 0.9460000000000001, 0.392, 192.0, 0.0, 0.0, 0.0, 0.0, 0.0, 0.0, 0.0, 0.0, 0.0, 1.6539050710217583E9, 0.0, 2022-05-30 12:04:31.021
58.0, 12215.630676225504, 19524.695816599826, -63880.9280253563, -46755.7366795226, -25907.012928368204, -34919.8397898483, -9524.994733929007, -11267.380269453559, 0.004, 0.9480000000000001, 0.39, 192.0, 0.0, 32.0, 29.0, 160.0, 12.0, 48.0, 0.0, 0.0, 0.0, 1.6539050710217636E9, 0.0, 2022-05-30 12:04:31.021
59.0, 12231.299249088675, 19537.458662683806, -63866.33233622699, -46737.475304302614, -25892.238425283245, -34904.975879785525, -9498.820841171842, -11249.789446567233, 0.004, 0.9480000000000001, 0.39, 192.0, 0.0, 0.0, 0.0, 0.0, 0.0, 0.0, 0.0, 0.0, 0.0, 1.65390507102177E9, 0.0, 2022-05-30 12:04:31.021
60.0, 12237.602441025072, 19550.62384016798, -63860.78910360207, -46734.413115312236, -25888.03629732565, -34902.181911728614, -9509.25910583247, -11257.523150148769, 0.004, 0.9480000000000001, 0.39, 192.0, 0.0, 0.0, 0.0, 0.0, 0.0, 0.0, 0.0, 0.0, 0.0, 1.653905071021777E9, 0.0, 2022-05-30 12:04:31.021
61.0, 12233.556775278661, 19540.274982485174, -63876.63649042088, -46758.57535106842, -25904.64364345594, -34927.7970108744, -9535.07537067835, -11283.965263839396, 0.004, 0.9480000000000001, 0.39, 192.0, 0.0, 0.0, 0.0, 0.0, 0.0, 0.0, 0.0, 0.0, 0.0, 1.6539050710217817E9, 0.0, 2022-05-30 12:04:31.021
62.0, 12254.075676688633, 19529.43438642435, -63890.896903383364, -46768.90185700677, -25911.907960403918, -34930.12159229775, -9528.50395780849, -11274.7116416349, 0.004, 0.9480000000000001, 0.39, 192.0, 0.0, 0.0, 0.0, 0.0, 0.0, 0.0, 0.0, 0.0, 0.0, 1.653905071021788E9, 0.0, 2022-05-30 12:04:31.021
63.0, 12237.84831021408, 19530.037883524645, -63879.13988579987, -46758.173019668226, -25905.045974856137, -34916.39762120219, -9510.913134922164, -11261.390001939537, 0.004, 0.9480000000000001, 0.39, 192.0, 0.0, 0.0, 0.0, 0.0, 0.0, 0.0, 0.0, 0.0, 0.0, 1.6539050710217965E9, 0.0, 2022-05-30 12:04:31.021
64.0, 12213.395501779974, 19551.160282034907, -63857.72691461169, -46738.77170548102, -25885.823474624573, -34901.064324505845, -9497.591495226801, -11251.5552343792, 0.004, 0.9480000000000001, 0.39, 192.0, 0.0, 0.0, 0.0, 0.0, 0.0, 0.0, 0.0, 0.0, 0.0, 1.653905071021813E9, 0.0, 2022-05-30 12:04:31.021
65.0, 12226.426568797418, 19548.96981107829, -63861.19143500226, -46740.93982469319, -25883.54359669013, -34910.56381589935, -9489.097832333784, -11254.013926269285, 0.004, 0.9480000000000001, 0.39, 192.0, 0.0, 0.0, 0.0, 0.0, 0.0, 0.0, 0.0, 0.0, 0.0, 1.6539050710218177E9, 0.0, 2022-05-30 12:04:31.021
66.0, 12232.729760733815, 19540.1632237629, -63874.893054353364, -46750.23815038659, -25893.914806117395, -34916.55408341337, -9499.670207461144, -11256.405562926002, 0.004, 0.9480000000000001, 0.39, 192.0, 0.0, 0.0, 0.0, 0.0, 0.0, 0.0, 0.0, 0.0, 0.0, 1.6539050710218248E9, 0.0, 2022-05-30 12:04:31.021
67.0, 12216.79296693718, 19528.070930012578, -63894.58494121849, -46763.47038310413, -25916.199495339337, -34928.66872890815, -9531.588498543322, -11269.168409009982, 0.004, 0.9480000000000001, 0.39, 192.0, 0.0, 0.0, 0.0, 0.0, 0.0, 0.0, 0.0, 0.0, 0.0, 1.65390507102183E9, 0.0, 2022-05-30 12:04:31.021
68.0, 12235.456673557363, 19551.339095990552, -63869.171007772806, -46741.14099039328, -25906.252969056724, -34907.68044086462, -9541.087989936828, -11266.106220019607, 0.002, 0.9540000000000001, 0.392, 192.0, 0.0, 16.0, 29.0, 208.0, 12.0, 64.0, 0.0, 0.0, 0.0, 1.653905071021835E9, 0.0, 2022-05-30 12:04:31.021
69.0, 12235.456673557363, 19549.930936089866, -63871.8755688519, -46740.895121204274, -25899.79331490914, -34907.47927516452, -9504.565239496857, -11254.215091969383, 0.002, 0.9540000000000001, 0.392, 192.0, 0.0, 0.0, 0.0, 0.0, 0.0, 0.0, 0.0, 0.0, 0.0, 1.653905071021842E9, 0.0, 2022-05-30 12:04:31.021
70.0, 12231.70158048887, 19539.58207840706, -63880.10101081146, -46747.57829279641, -25901.84967539903, -34918.20811250307, -9500.586628983812, -11255.913824547986, 0.002, 0.9540000000000001, 0.392, 192.0, 0.0, 0.0, 0.0, 0.0, 0.0, 0.0, 0.0, 0.0, 0.0, 1.6539050710218475E9, 0.0, 2022-05-30 12:04:31.021
71.0, 12242.922156205435, 19543.761854620203, -63873.864874108425, -46741.56567353793, -25897.155809063413, -34915.749420612985, -9493.389367269203, -11262.37347869557, 0.002, 0.9540000000000001, 0.392, 192.0, 0.0, 0.0, 0.0, 0.0, 0.0, 0.0, 0.0, 0.0, 0.0, 1.6539050710218527E9, 0.0, 2022-05-30 12:04:31.021
72.0, 12233.42266481193, 19530.306104458108, -63889.242874293675, -46757.21189465665, -25912.17618133738, -34931.3956417317, -9521.664324005167, -11276.812705613698, 0.002, 0.9540000000000001, 0.392, 192.0, 0.0, 0.0, 0.0, 0.0, 0.0, 0.0, 0.0, 0.0, 0.0, 1.6539050710218587E9, 0.0, 2022-05-30 12:04:31.021
73.0, 12252.309888876664, 19536.653999883416, -63877.08352530999, -46746.706574762655, -25902.45317249932, -34922.43259220512, -9514.6458762462, -11268.386097954048, 0.002, 0.9540000000000001, 0.392, 192.0, 0.0, 0.0, 0.0, 0.0, 0.0, 0.0, 0.0, 0.0, 0.0, 1.6539050710218675E9, 0.0, 2022-05-30 12:04:31.021
74.0, 12249.940603964402, 19532.898906814924, -63876.56943518751, -46747.15360965176, -25897.245216041236, -34918.610443903264, -9501.88303016222, -11254.84094081413, 0.002, 0.9540000000000001, 0.392, 192.0, 0.0, 0.0, 0.0, 0.0, 0.0, 0.0, 0.0, 0.0, 0.0, 1.6539050710218732E9, 0.0, 2022-05-30 12:04:31.021
75.0, 12218.201126837866, 19526.506307900705, -63869.238063006174, -46752.5850835544, -25901.80497191012, -34927.14881028519, -9516.724588480543, -11258.931310049453, 0.002, 0.9540000000000001, 0.392, 192.0, 0.0, 0.0, 0.0, 0.0, 0.0, 0.0, 0.0, 0.0, 0.0, 1.6539050710218797E9, 0.0, 2022-05-30 12:04:31.021
76.0, 12213.462557013341, 19528.316799201584, -63873.90957759733, -46756.51899057854, -25902.07319284358, -34936.76006040097, -9526.134672896227, -11271.582397411155, 0.002, 0.9540000000000001, 0.392, 192.0, 0.0, 0.0, 0.0, 0.0, 0.0, 0.0, 0.0, 0.0, 0.0, 1.6539050710218856E9, 0.0, 2022-05-30 12:04:31.021
77.0, 12210.914458145435, 19525.72399684477, -63888.192342304275, -46767.58310408391, -25920.89336167495, -34950.573438474355, -9544.17253067166, -11293.263589532804, 0.002, 0.9540000000000001, 0.392, 192.0, 0.0, 0.0, 0.0, 0.0, 0.0, 0.0, 0.0, 0.0, 0.0, 1.6539050710218914E9, 0.0, 2022-05-30 12:04:31.021
78.0, 12221.397426294974, 19535.06702602709, -63880.32452825601, -46752.11569692084, -25912.22088482629, -34935.24014177801, -9523.921850195153, -11273.683461389955, 0.002, 0.9580000000000001, 0.392, 192.0, 0.0, 16.0, 29.0, 240.0, 12.0, 64.0, 0.0, 0.0, 0.0, 1.653905071021898E9, 0.0, 2022-05-30 12:04:31.021
79.0, 12250.834673742615, 19553.35075299153, -63864.79006585957, -46732.379106566805, -25888.997422337226, -34917.00111830248, -9493.031739357917, -11247.777789566255, 0.002, 0.9580000000000001, 0.392, 192.0, 0.0, 0.0, 0.0, 0.0, 0.0, 0.0, 0.0, 0.0, 0.0, 1.6539050710219033E9, 0.0, 2022-05-30 12:04:31.021
80.0, 12252.846330743592, 19557.999915838234, -63863.29249898106, -46730.8815396883, -25886.806951380608, -34915.615310146255, -9494.059919602862, -11247.643679099523, 0.002, 0.9580000000000001, 0.392, 192.0, 0.0, 0.0, 0.0, 0.0, 0.0, 0.0, 0.0, 0.0, 0.0, 1.6539050710219107E9, 0.0, 2022-05-30 12:04:31.021
81.0, 12236.596612524583, 19533.882383570955, -63888.460563237735, -46762.17398192573, -25906.92352139038, -34938.36938600175, -9502.307713306871, -11266.41914444198, 0.002, 0.9580000000000001, 0.392, 192.0, 0.0, 0.0, 0.0, 0.0, 0.0, 0.0, 0.0, 0.0, 0.0, 1.6539050710219169E9, 0.0, 2022-05-30 12:04:31.021
82.0, 12220.190432094389, 19512.156487960397, -63911.661673982344, -46778.244886189095, -25926.995387911247, -34956.96603738857, -9527.989867686018, -11284.99344408434, 0.002, 0.9580000000000001, 0.392, 192.0, 0.0, 0.0, 0.0, 0.0, 0.0, 0.0, 0.0, 0.0, 0.0, 1.6539050710219233E9, 0.0, 2022-05-30 12:04:31.021
83.0, 12227.052417642168, 19523.421767165873, -63899.301159298564, -46767.67251106173, -25917.60765524002, -34943.86791513776, -9543.613737060277, -11288.100336563628, 0.002, 0.9580000000000001, 0.392, 192.0, 0.0, 0.0, 0.0, 0.0, 0.0, 0.0, 0.0, 0.0, 0.0, 1.65390507102193E9, 0.0, 2022-05-30 12:04:31.021
84.0, 12231.70158048887, 19528.562668390594, -63893.780278418104, -46763.895066248784, -25911.08094585907, -34938.41408949067, -9545.446580105612, -11286.7145284074, 0.002, 0.9580000000000001, 0.392, 192.0, 0.0, 0.0, 0.0, 0.0, 0.0, 0.0, 0.0, 0.0, 0.0, 1.6539050710219364E9, 0.0, 2022-05-30 12:04:31.021
85.0, 12224.191394351888, 19513.586999605537, -63908.7335954587, -46776.94848501068, -25925.922504177393, -34946.88540063923, -9552.241510420026, -11288.301502263726, 0.002, 0.9580000000000001, 0.392, 192.0, 0.0, 0.0, 0.0, 0.0, 0.0, 0.0, 0.0, 0.0, 0.0, 1.653905071021942E9, 0.0, 2022-05-30 12:04:31.021
86.0, 12226.113644375044, 19511.15065945991, -63902.720976200224, -46775.00388324307, -25919.552257007632, -34940.4480982361, -9549.402838874203, -11293.308293021715, 0.002, 0.9580000000000001, 0.392, 192.0, 0.0, 0.0, 0.0, 0.0, 0.0, 0.0, 0.0, 0.0, 0.0, 1.6539050710219553E9, 0.0, 2022-05-30 12:04:31.021
87.0, 12245.000868439778, 19518.906714785902, -63893.33324352899, -46760.765822025045, -25914.478411016276, -34929.22752251953, -9543.211405660082, -11288.480316219368, 0.004, 0.9540000000000001, 0.386, 192.0, 0.0, 32.0, 29.0, 208.0, 12.0, 16.0, 0.0, 0.0, 0.0, 1.65390507102196E9, 0.0, 2022-05-30 12:04:31.021
88.0, 12218.156423348955, 19522.505345643207, -63884.81722889152, -46750.77459225352, -25913.293768560146, -34920.510342181966, -9533.823672988854, -11275.493952690835, 0.004, 0.9540000000000001, 0.386, 192.0, 0.0, 0.0, 0.0, 0.0, 0.0, 0.0, 0.0, 0.0, 0.0, 1.653905071021964E9, 0.0, 2022-05-30 12:04:31.021
89.0, 12223.029103640212, 19530.239049224743, -63875.2283305202, -46738.50348454756, -25902.31906203259, -34910.51911241044, -9505.235791830515, -11257.478446659858, 0.004, 0.9540000000000001, 0.386, 192.0, 0.0, 0.0, 0.0, 0.0, 0.0, 0.0, 0.0, 0.0, 0.0, 1.6539050710219684E9, 0.0, 2022-05-30 12:04:31.021
90.0, 12221.553888506161, 19528.04857826812, -63886.40420274785, -46744.35964159485, -25902.877855643972, -34914.25185373448, -9492.919980635641, -11248.247176199815, 0.004, 0.9540000000000001, 0.386, 192.0, 0.0, 0.0, 0.0, 0.0, 0.0, 0.0, 0.0, 0.0, 0.0, 1.6539050710219731E9, 0.0, 2022-05-30 12:04:31.021
91.0, 12213.216687824332, 19510.94949375981, -63907.52660125811, -46774.84742103189, -25927.353015822533, -34941.4986302255, -9518.020989658951, -11277.37149922508, 0.004, 0.9540000000000001, 0.386, 192.0, 0.0, 0.0, 0.0, 0.0, 0.0, 0.0, 0.0, 0.0, 0.0, 1.6539050710219774E9, 0.0, 2022-05-30 12:04:31.021
92.0, 12205.930019131902, 19505.47331636826, -63914.32153157253, -46786.291514193006, -25944.429748586386, -34956.18372633264, -9552.93441449814, -11304.484165249369, 0.004, 0.9540000000000001, 0.386, 192.0, 0.0, 0.0, 0.0, 0.0, 0.0, 0.0, 0.0, 0.0, 0.0, 1.653905071021982E9, 0.0, 2022-05-30 12:04:31.021
93.0, 12220.570411750128, 19513.497592627715, -63894.29436854058, -46765.68320580521, -25929.297617590146, -34942.77267965945, -9531.476739821046, -11287.787412141253, 0.004, 0.9540000000000001, 0.386, 192.0, 0.0, 0.0, 0.0, 0.0, 0.0, 0.0, 0.0, 0.0, 0.0, 1.6539050710219867E9, 0.0, 2022-05-30 12:04:31.021
94.0, 12242.586880038605, 19524.315836944086, -63882.827923635, -46749.67935677521, -25904.978919622772, -34929.33928124181, -9507.582724998323, -11267.872007831575, 0.004, 0.9540000000000001, 0.386, 192.0, 0.0, 0.0, 0.0, 0.0, 0.0, 0.0, 0.0, 0.0, 0.0, 1.6539050710219913E9, 0.0, 2022-05-30 12:04:31.021
95.0, 12238.89884220348, 19523.77939507716, -63885.06309808053, -46751.26633063154, -25899.882721886963, -34934.703699911086, -9521.5972687718, -11266.37444095307, 0.004, 0.9540000000000001, 0.386, 192.0, 0.0, 0.0, 0.0, 0.0, 0.0, 0.0, 0.0, 0.0, 0.0, 1.6539050710219984E9, 0.0, 2022-05-30 12:04:31.021
96.0, 12242.139845149499, 19524.114671243988, -63879.85514162244, -46749.567598052934, -25897.98282360826, -34935.08367956682, -9533.398989844203, -11275.002214312819, 0.004, 0.9540000000000001, 0.386, 192.0, 0.0, 0.0, 0.0, 0.0, 0.0, 0.0, 0.0, 0.0, 0.0, 1.653905071022004E9, 0.0, 2022-05-30 12:04:31.022
97.0, 12229.935792676903, 19513.05055773861, -63893.93674062929, -46768.56658083994, -25915.12661160548, -34947.31008378388, -9535.432998589635, -11287.027452829774, 0.006, 0.9540000000000001, 0.386, 192.0, 0.0, 48.0, 29.0, 208.0, 12.0, 16.0, 0.0, 0.0, 0.0, 1.6539050710220082E9, 0.0, 2022-05-30 12:04:31.022
98.0, 12233.288554345198, 19525.075796255565, -63894.38377551839, -46770.15355469627, -25921.161582608413, -34943.376176759746, -9520.524385037945, -11285.99927258483, 0.006, 0.9540000000000001, 0.386, 192.0, 0.0, 0.0, 0.0, 0.0, 0.0, 0.0, 0.0, 0.0, 0.0, 1.6539050710220125E9, 0.0, 2022-05-30 12:04:31.022
99.0, 12245.269089373243, 19519.398453163918, -63897.9824063757, -46764.16328718225, -25929.878762945984, -34941.6997959256, -9538.092856179817, -11286.781583640764, 0.006, 0.9540000000000001, 0.386, 192.0, 0.0, 0.0, 0.0, 0.0, 0.0, 0.0, 0.0, 0.0, 0.0, 1.6539050710220172E9, 0.0, 2022-05-30 12:04:31.022
100.0, 12262.23406341482, 19517.63266535195, -63893.51205748464, -46760.274083647026, -25922.12270761999, -34930.38981323121, -9552.710897053588, -11278.958473081408, 0.006, 0.9540000000000001, 0.386, 192.0, 0.0, 0.0, 0.0, 0.0, 0.0, 0.0, 0.0, 0.0, 0.0, 1.6539050710220213E9, 0.0, 2022-05-30 12:04:31.022
101.0, 12238.205938125366, 19508.781374547645, -63902.452755266764, -46774.176868698225, -25921.452155286333, -34939.241104035515, -9537.779931757443, -11275.315138735192, 0.006, 0.9540000000000001, 0.386, 192.0, 0.0, 0.0, 0.0, 0.0, 0.0, 0.0, 0.0, 0.0, 0.0, 1.6539050710220256E9, 0.0, 2022-05-30 12:04:31.022
102.0, 12207.047606354667, 19502.254665166696, -63919.37302581943, -46787.319694437945, -25935.667864759907, -34952.361578030774, -9541.155045170193, -11287.42978422997, 0.006, 0.9540000000000001, 0.386, 192.0, 0.0, 0.0, 0.0, 0.0, 0.0, 0.0, 0.0, 0.0, 0.0, 1.6539050710220296E9, 0.0, 2022-05-30 12:04:31.022
103.0, 12204.70067318686, 19508.736671058738, -63911.661673982344, -46780.323598423434, -25937.500707805244, -34949.791127418415, -9546.787684772931, -11287.541542952245, 0.006, 0.9540000000000001, 0.386, 192.0, 0.0, 0.0, 0.0, 0.0, 0.0, 0.0, 0.0, 0.0, 0.0, 1.6539050710220337E9, 0.0, 2022-05-30 12:04:31.022
104.0, 12214.378978536008, 19500.868857010468, -63908.398319291875, -46781.955275768676, -25936.450175815844, -34948.51707798446, -9543.904309738196, -11287.452135974425, 0.006, 0.9540000000000001, 0.386, 192.0, 0.0, 0.0, 0.0, 0.0, 0.0, 0.0, 0.0, 0.0, 0.0, 1.6539050710220375E9, 0.0, 2022-05-30 12:04:31.022
105.0, 12239.770560237237, 19505.026281479157, -63900.55285698806, -46775.361511154355, -25927.75534722273, -34939.73284241353, -9546.69827779511, -11294.537638966756, 0.006, 0.9540000000000001, 0.386, 192.0, 0.0, 0.0, 0.0, 0.0, 0.0, 0.0, 0.0, 0.0, 0.0, 1.653905071022042E9, 0.0, 2022-05-30 12:04:31.022
106.0, 12230.740455477293, 19507.127345457953, -63897.73653718669, -46773.99805474259, -25920.33456806357, -34942.19153430361, -9536.304716623392, -11297.33160702367, 0.006, 0.9540000000000001, 0.386, 192.0, 0.0, 0.0, 0.0, 0.0, 0.0, 0.0, 0.0, 0.0, 0.0, 1.653905071501999E9, 0.0, 2022-05-30 12:04:31.501
107.0, 12231.254545599764, 19515.73276707325, -63895.34490052997, -46767.605455828365, -25915.08190811657, -34940.73867091402, -9534.114245666773, -11295.454060489425, 0.004, 0.9560000000000001, 0.384, 192.0, 0.0, 32.0, 29.0, 224.0, 12.0, 0.0, 0.0, 0.0, 0.0, 1.653905071502132E9, 0.0, 2022-05-30 12:04:31.502
108.0, 12228.371170565031, 19527.780357334657, -63886.60536844795, -46755.15553416676, -25918.45702152932, -34928.08758355231, -9541.758542270487, -11284.501705706323, 0.004, 0.9560000000000001, 0.384, 192.0, 0.0, 0.0, 0.0, 0.0, 0.0, 0.0, 0.0, 0.0, 0.0, 1.6539050715021412E9, 0.0, 2022-05-30 12:04:31.502
109.0, 12215.854193670059, 19515.57630486206, -63898.98823487619, -46769.79592678499, -25934.103242648038, -34936.58124644533, -9555.348402899313, -11278.936121336952, 0.004, 0.9560000000000001, 0.384, 192.0, 0.0, 0.0, 0.0, 0.0, 0.0, 0.0, 0.0, 0.0, 0.0, 1.6539050715021503E9, 0.0, 2022-05-30 12:04:31.502
110.0, 12214.490737258284, 19507.127345457953, -63910.141755359386, -46784.54807812549, -25940.540545051164, -34953.72503444255, -9534.069542177862, -11283.540580694746, 0.004, 0.9560000000000001, 0.384, 192.0, 0.0, 0.0, 0.0, 0.0, 0.0, 0.0, 0.0, 0.0, 0.0, 1.6539050715021672E9, 0.0, 2022-05-30 12:04:31.502
111.0, 12220.838632683592, 19512.87174378297, -63907.14662160238, -46784.01163625856, -25929.18585886787, -34950.32756928534, -9531.812015987876, -11288.65913017501, 0.004, 0.9560000000000001, 0.384, 192.0, 0.0, 0.0, 0.0, 0.0, 0.0, 0.0, 0.0, 0.0, 0.0, 1.6539050715021808E9, 0.0, 2022-05-30 12:04:31.502
112.0, 12207.204068565854, 19516.939761273832, -63903.74915644517, -46784.816299058955, -25929.498783290244, -34948.98646461803, -9550.4533708636, -11288.435612730458, 0.004, 0.9560000000000001, 0.384, 192.0, 0.0, 0.0, 0.0, 0.0, 0.0, 0.0, 0.0, 0.0, 0.0, 1.6539050715021937E9, 0.0, 2022-05-30 12:04:31.502
113.0, 12212.434376768397, 19529.836717824546, -63900.86578141044, -46772.791060542, -25932.449213558342, -34940.4480982361, -9530.31444910937, -11275.918635835485, 0.004, 0.9560000000000001, 0.384, 192.0, 0.0, 0.0, 0.0, 0.0, 0.0, 0.0, 0.0, 0.0, 0.0, 1.6539050715022063E9, 0.0, 2022-05-30 12:04:31.502
114.0, 12225.934830419403, 19538.620953395483, -63890.40516500535, -46764.96794998264, -25918.23350408477, -34924.399545717184, -9514.98115241303, -11261.94879555092, 0.004, 0.9560000000000001, 0.384, 192.0, 0.0, 0.0, 0.0, 0.0, 0.0, 0.0, 0.0, 0.0, 0.0, 1.6539050715022187E9, 0.0, 2022-05-30 12:04:31.502
115.0, 12230.51693803274, 19523.444118910327, -63888.70643242675, -46774.62390358733, -25926.481297788778, -34928.10993529677, -9545.334821383336, -11266.486199675346, 0.004, 0.9560000000000001, 0.384, 192.0, 0.0, 0.0, 0.0, 0.0, 0.0, 0.0, 0.0, 0.0, 0.0, 1.653905071502233E9, 0.0, 2022-05-30 12:04:31.502
116.0, 12227.387693808996, 19522.460642154296, -63900.59756047697, -46783.609304858364, -25929.767004223708, -34940.93983661412, -9570.547589128922, -11286.42395572948, 0.004, 0.9560000000000001, 0.384, 192.0, 0.0, 0.0, 0.0, 0.0, 0.0, 0.0, 0.0, 0.0, 0.0, 1.653905071502246E9, 0.0, 2022-05-30 12:04:31.502
117.0, 12231.23219385531, 19521.141889231432, -63899.368214531925, -46786.269162448545, -25928.001216411736, -34940.96218835857, -9542.74201902652, -11277.818534114187, 0.002, 0.96, 0.39, 192.0, 0.0, 16.0, 30.0, 0.0, 12.0, 48.0, 0.0, 0.0, 0.0, 1.65390507150226E9, 0.0, 2022-05-30 12:04:31.502
118.0, 12242.005734682767, 19533.0106655372, -63882.872627123914, -46770.77940354102, -25923.262646587213, -34926.522961440445, -9506.576896497834, -11263.13343800705, 0.002, 0.96, 0.39, 192.0, 0.0, 0.0, 0.0, 0.0, 0.0, 0.0, 0.0, 0.0, 0.0, 1.653905071502273E9, 0.0, 2022-05-30 12:04:31.502
119.0, 12254.94739472239, 19543.270116242187, -63877.73172589919, -46762.375147625826, -25919.619312240997, -34920.085659037315, -9511.02489364444, -11254.885644303042, 0.002, 0.96, 0.39, 192.0, 0.0, 0.0, 0.0, 0.0, 0.0, 0.0, 0.0, 0.0, 0.0, 1.653905071502287E9, 0.0, 2022-05-30 12:04:31.502
120.0, 12258.61308081306, 19553.931898347368, -63872.523769441104, -46759.40236561327, -25918.054690129127, -34921.38206021572, -9537.109379423784, -11265.480371174857, 0.002, 0.96, 0.39, 192.0, 0.0, 0.0, 0.0, 0.0, 0.0, 0.0, 0.0, 0.0, 0.0, 1.6539050715023031E9, 0.0, 2022-05-30 12:04:31.502
121.0, 12256.154388922978, 19560.749180406237, -63873.66370840833, -46755.96019696715, -25915.864219172505, -34923.46077245007, -9544.08312369384, -11265.100391519118, 0.002, 0.96, 0.39, 192.0, 0.0, 0.0, 0.0, 0.0, 0.0, 0.0, 0.0, 0.0, 0.0, 1.6539050715023155E9, 0.0, 2022-05-30 12:04:31.502
122.0, 12259.28363314672, 19560.883290872967, -63875.384792731384, -46754.57438881092, -25917.47354477329, -34927.417031218654, -9522.871318205753, -11257.925481548964, 0.002, 0.96, 0.39, 192.0, 0.0, 0.0, 0.0, 0.0, 0.0, 0.0, 0.0, 0.0, 0.0, 1.6539050715023255E9, 0.0, 2022-05-30 12:04:31.502
123.0, 12261.563511081162, 19562.559671707117, -63867.293461238565, -46746.6842230182, -25911.66209121491, -34922.67846139413, -9504.699349963588, -11255.690307103432, 0.002, 0.96, 0.39, 192.0, 0.0, 0.0, 0.0, 0.0, 0.0, 0.0, 0.0, 0.0, 0.0, 1.6539050715023315E9, 0.0, 2022-05-30 12:04:31.502
124.0, 12263.195188426398, 19556.59175593755, -63867.695792638755, -46746.90774046275, -25902.475524243775, -34922.05261254938, -9495.892762648196, -11252.136379735039, 0.002, 0.96, 0.39, 192.0, 0.0, 0.0, 0.0, 0.0, 0.0, 0.0, 0.0, 0.0, 0.0, 1.6539050715023365E9, 0.0, 2022-05-30 12:04:31.502
125.0, 12275.645110088004, 19555.608279181513, -63876.45767646524, -46758.6871097907, -25915.193666838848, -34928.10993529677, -9518.713893737066, -11252.51635939078, 0.002, 0.96, 0.39, 192.0, 0.0, 0.0, 0.0, 0.0, 0.0, 0.0, 0.0, 0.0, 0.0, 1.6539050715023408E9, 0.0, 2022-05-30 12:04:31.502
126.0, 12267.106743706077, 19543.605392409016, -63889.242874293675, -46777.8425547889, -25926.213076855314, -34940.001063346994, -9528.772178741954, -11255.869121059075, 0.002, 0.96, 0.39, 192.0, 0.0, 0.0, 0.0, 0.0, 0.0, 0.0, 0.0, 0.0, 0.0, 1.653905071502345E9, 0.0, 2022-05-30 12:04:31.502
127.0, 12217.75409194876, 19531.58015389206, -63900.44109826579, -46781.68705483521, -25935.421995570898, -34958.5530112449, -9568.535932127945, -11284.747574895331, 0.004, 0.9500000000000001, 0.396, 192.0, 0.0, 32.0, 29.0, 176.0, 12.0, 96.0, 0.0, 0.0, 0.0, 1.6539050715023496E9, 0.0, 2022-05-30 12:04:31.502
128.0, 12242.005734682767, 19553.507215202717, -63876.34591774296, -46762.39749937028, -25920.289864574657, -34941.63274069223, -9549.469894107568, -11276.410374213503, 0.004, 0.9500000000000001, 0.396, 192.0, 0.0, 0.0, 0.0, 0.0, 0.0, 0.0, 0.0, 0.0, 0.0, 1.6539050715023685E9, 0.0, 2022-05-30 12:04:31.502
129.0, 12236.842481713591, 19546.667581399393, -63869.573339173, -46759.11179293535, -25915.886570916962, -34934.21196153307, -9525.128844395738, -11267.313214220192, 0.004, 0.9500000000000001, 0.396, 192.0, 0.0, 0.0, 0.0, 0.0, 0.0, 0.0, 0.0, 0.0, 0.0, 1.6539050715023725E9, 0.0, 2022-05-30 12:04:31.502
130.0, 12244.710295761859, 19551.227337268276, -63856.74343785566, -46753.61326379934, -25908.197570824334, -34923.97486257253, -9509.92965816613, -11249.096542489116, 0.004, 0.9500000000000001, 0.396, 192.0, 0.0, 0.0, 0.0, 0.0, 0.0, 0.0, 0.0, 0.0, 0.0, 1.6539050715023775E9, 0.0, 2022-05-30 12:04:31.502
131.0, 12249.18064465292, 19552.836662869056, -63863.381905958886, -46757.882446990305, -25909.02458536918, -34924.064269550356, -9502.195954584593, -11240.513472618279, 0.004, 0.9500000000000001, 0.396, 192.0, 0.0, 0.0, 0.0, 0.0, 0.0, 0.0, 0.0, 0.0, 0.0, 1.653905071502382E9, 0.0, 2022-05-30 12:04:31.502
132.0, 12244.218557383843, 19532.027188781165, -63884.906635869345, -46776.54615361049, -25926.41424255541, -34942.07977558133, -9531.342629354314, -11260.630042628056, 0.004, 0.9500000000000001, 0.396, 192.0, 0.0, 0.0, 0.0, 0.0, 0.0, 0.0, 0.0, 0.0, 0.0, 1.653905071502386E9, 0.0, 2022-05-30 12:04:31.502
133.0, 12231.545118277683, 19522.930028787858, -63891.70156618376, -46779.58599085641, -25942.194574140856, -34949.992293118514, -9558.097667467317, -11281.439516715947, 0.004, 0.9500000000000001, 0.396, 192.0, 0.0, 0.0, 0.0, 0.0, 0.0, 0.0, 0.0, 0.0, 0.0, 1.65390507150239E9, 0.0, 2022-05-30 12:04:31.502
134.0, 12228.594688009583, 19515.509249628692, -63893.40029876236, -46781.955275768676, -25944.38504509748, -34950.48403149653, -9577.99072003254, -11296.057557589718, 0.004, 0.9500000000000001, 0.396, 192.0, 0.0, 0.0, 0.0, 0.0, 0.0, 0.0, 0.0, 0.0, 0.0, 1.653905071502394E9, 0.0, 2022-05-30 12:04:31.502
135.0, 12244.464426572851, 19527.176860234365, -63883.78904864658, -46769.30418840697, -25932.136289135968, -34939.174048802146, -9566.032536748951, -11287.295673763238, 0.004, 0.9500000000000001, 0.396, 192.0, 0.0, 0.0, 0.0, 0.0, 0.0, 0.0, 0.0, 0.0, 0.0, 1.6539050715023983E9, 0.0, 2022-05-30 12:04:31.502
136.0, 12240.977554437823, 19532.72009285928, -63888.684080682295, -46768.812450028956, -25931.398681568942, -34939.91165636917, -9547.45823710659, -11278.623196914577, 0.004, 0.9500000000000001, 0.396, 192.0, 0.0, 0.0, 0.0, 0.0, 0.0, 0.0, 0.0, 0.0, 0.0, 1.6539050715024023E9, 0.0, 2022-05-30 12:04:31.502
137.0, 12237.222461369332, 19536.229316738765, -63896.41778426383, -46779.16130771176, -25935.71256824882, -34945.7007581831, -9531.476739821046, -11273.03526080075, 0.004, 0.9440000000000001, 0.398, 192.0, 0.0, 32.0, 29.0, 128.0, 12.0, 112.0, 0.0, 0.0, 0.0, 1.6539050715024064E9, 0.0, 2022-05-30 12:04:31.502
138.0, 12244.41972308394, 19532.921258559378, -63892.595635961974, -46773.46161287566, -25941.07698691809, -34944.98550236053, -9532.571975299355, -11267.08969677564, 0.004, 0.9440000000000001, 0.398, 192.0, 0.0, 0.0, 0.0, 0.0, 0.0, 0.0, 0.0, 0.0, 0.0, 1.6539050715024104E9, 0.0, 2022-05-30 12:04:31.502
139.0, 12252.46635108785, 19525.947514289324, -63885.71129866974, -46769.281836662514, -25937.679521760885, -34941.744499414504, -9530.605021787289, -11269.32487122117, 0.004, 0.9440000000000001, 0.398, 192.0, 0.0, 0.0, 0.0, 0.0, 0.0, 0.0, 0.0, 0.0, 0.0, 1.6539050715024147E9, 0.0, 2022-05-30 12:04:31.502
140.0, 12267.084391961622, 19528.62972362396, -63882.22442653471, -46766.912551750254, -25930.504611790733, -34937.743537157, -9530.40385608719, -11269.056650287706, 0.004, 0.9440000000000001, 0.398, 192.0, 0.0, 0.0, 0.0, 0.0, 0.0, 0.0, 0.0, 0.0, 0.0, 1.6539050715024185E9, 0.0, 2022-05-30 12:04:31.502
141.0, 12247.66072602996, 19521.72303458727, -63898.474144753716, -46785.19627871469, -25934.66203625942, -34948.76294717347, -9544.463103349579, -11279.025528314773, 0.004, 0.9440000000000001, 0.398, 192.0, 0.0, 0.0, 0.0, 0.0, 0.0, 0.0, 0.0, 0.0, 0.0, 1.6539050715024233E9, 0.0, 2022-05-30 12:04:31.502
142.0, 12244.062095172656, 19530.9096015584, -63904.50911575665, -46775.07093847644, -25936.38312058248, -34947.24302855051, -9533.287231121925, -11287.988577841352, 0.004, 0.9440000000000001, 0.398, 192.0, 0.0, 0.0, 0.0, 0.0, 0.0, 0.0, 0.0, 0.0, 0.0, 1.6539050715024283E9, 0.0, 2022-05-30 12:04:31.502
143.0, 12238.720028247837, 19528.29444745713, -63893.66851969583, -46775.517973365546, -25946.776681754196, -34941.43157499213, -9511.717797722555, -11280.523095193279, 0.004, 0.9440000000000001, 0.398, 192.0, 0.0, 0.0, 0.0, 0.0, 0.0, 0.0, 0.0, 0.0, 0.0, 1.6539050715024333E9, 0.0, 2022-05-30 12:04:31.502
