%OpenBCI Raw EEG Data
%Number of channels = 8
%Sample Rate = 250 Hz
%Board = OpenBCI_GUI$BoardCytonSerial
Sample Index, EXG Channel 0, EXG Channel 1, EXG Channel 2, EXG Channel 3, EXG Channel 4, EXG Channel 5, EXG Channel 6, EXG Channel 7, Accel Channel 0, Accel Channel 1, Accel Channel 2, Other, Other, Other, Other, Other, Other, Other, Analog Channel 0, Analog Channel 1, Analog Channel 2, Timestamp, Other, Timestamp (Formatted)
0.0, 0.0, 0.0, 0.0, 0.0, 0.0, 0.0, 0.0, 0.0, -0.006, 1.02, -0.16, 192.0, 255.0, 208.0, 31.0, 224.0, 251.0, 0.0, 0.0, 0.0, 0.0, 1.6527971647372856E9, 0.0, 2022-05-17 16:19:24.737
1.0, 56601.903629529916, 25398.868369921252, -53109.26474443254, -14453.912014235499, 4191.644989448188, -23420.604875159846, 16590.38115625157, 14786.953006619575, -0.006, 1.02, -0.16, 192.0, 0.0, 0.0, 0.0, 0.0, 0.0, 0.0, 0.0, 0.0, 0.0, 1.6527971647534616E9, 0.0, 2022-05-17 16:19:24.753
2.0, 56652.95501386583, 25431.56897205937, -53079.380462095796, -14425.368836566073, 4245.132713929738, -23381.422267129692, 16627.753272980844, 14834.092835675818, -0.006, 1.02, -0.16, 192.0, 0.0, 0.0, 0.0, 0.0, 0.0, 0.0, 0.0, 0.0, 0.0, 1.6527971652320511E9, 0.0, 2022-05-17 16:19:25.232
3.0, 56638.98517358127, 25375.98018359902, -53122.1393492388, -14492.021738531797, 4226.536062542923, -23446.085863838896, 16574.354955477113, 14780.560407705356, -0.006, 1.02, -0.16, 192.0, 0.0, 0.0, 0.0, 0.0, 0.0, 0.0, 0.0, 0.0, 0.0, 1.652797165232162E9, 0.0, 2022-05-17 16:19:25.232
4.0, 56586.10094620001, 25313.082374701786, -53176.99053013212, -14554.025477650819, 4161.514837922435, -23519.824268796954, 16507.053852922185, 14714.980389473485, -0.006, 1.02, -0.16, 192.0, 0.0, 0.0, 0.0, 0.0, 0.0, 0.0, 0.0, 0.0, 0.0, 1.652797165232195E9, 0.0, 2022-05-17 16:19:25.232
5.0, 56556.21666386326, 25319.318511404814, -53169.36858527286, -14533.9312593855, 4136.145607965661, -23506.100297701396, 16516.754510015788, 14739.29908744086, -0.006, 1.02, -0.16, 192.0, 0.0, 0.0, 0.0, 0.0, 0.0, 0.0, 0.0, 0.0, 0.0, 1.6527971652321992E9, 0.0, 2022-05-17 16:19:25.232
6.0, 56602.663588841395, 25396.744954198, -53092.34447387987, -14456.258947403307, 4181.497297465479, -23422.48242169409, 16588.414202739503, 14825.733283249532, -0.006, 1.02, -0.16, 192.0, 0.0, 0.0, 0.0, 0.0, 0.0, 0.0, 0.0, 0.0, 0.0, 1.6527971652322035E9, 0.0, 2022-05-17 16:19:25.232
7.0, 56652.03859234317, 25431.74778601501, -53065.70119448915, -14421.61374349758, 4227.966574188063, -23386.049078231943, 16609.178973338483, 14847.213309671082, -0.006, 1.02, -0.16, 192.0, 0.0, 0.0, 0.0, 0.0, 0.0, 0.0, 0.0, 0.0, 0.0, 1.652797165232208E9, 0.0, 2022-05-17 16:19:25.232
8.0, 56657.64888020145, 25398.935425154617, -53101.687503062196, -14463.791485284744, 4223.786797974921, -23423.15297402775, 16570.42104845298, 14808.7459574635, -0.016, 1.012, -0.182, 192.0, 255.0, 128.0, 31.0, 160.0, 250.0, 80.0, 0.0, 0.0, 0.0, 1.6527971652322123E9, 0.0, 2022-05-17 16:19:25.232
9.0, 56602.305960930105, 25328.035691742385, -53165.12175382635, -14529.013875605331, 4168.734451381499, -23491.92929171673, 16506.964445944363, 14753.20187249206, -0.016, 1.012, -0.182, 192.0, 0.0, 0.0, 0.0, 0.0, 0.0, 0.0, 0.0, 0.0, 0.0, 1.6527971652322168E9, 0.0, 2022-05-17 16:19:25.232
10.0, 56560.374088331955, 25317.01628172592, -53176.72230919866, -14524.25295403635, 4132.077590474795, -23496.69021328571, 16499.78953597421, 14756.688744627088, -0.016, 1.012, -0.182, 192.0, 0.0, 0.0, 0.0, 0.0, 0.0, 0.0, 0.0, 0.0, 0.0, 1.652797165232221E9, 0.0, 2022-05-17 16:19:25.232
11.0, 56584.402213621404, 25378.93061386712, -53124.463930662154, -14455.119008436086, 4163.750012367966, -23422.817697860923, 16557.479388413358, 14832.729379264043, -0.016, 1.012, -0.182, 192.0, 0.0, 0.0, 0.0, 0.0, 0.0, 0.0, 0.0, 0.0, 0.0, 1.6527971652322252E9, 0.0, 2022-05-17 16:19:25.232
12.0, 56638.98517358127, 25423.432937077636, -53083.917866220225, -14414.28237131624, 4212.879146680731, -23376.504883349524, 16590.917598118496, 14855.550510352912, -0.016, 1.012, -0.182, 192.0, 0.0, 0.0, 0.0, 0.0, 0.0, 0.0, 0.0, 0.0, 0.0, 1.6527971652322297E9, 0.0, 2022-05-17 16:19:25.232
13.0, 56641.06388581561, 25385.30086103688, -53120.59707887138, -14461.466903861394, 4209.302867567882, -23418.459107692135, 16551.51147264379, 14813.372768565747, -0.016, 1.012, -0.182, 192.0, 0.0, 0.0, 0.0, 0.0, 0.0, 0.0, 0.0, 0.0, 0.0, 1.6527971652322335E9, 0.0, 2022-05-17 16:19:25.232
14.0, 56566.654928523894, 25301.25830188493, -53207.791233991535, -14542.53668100079, 4151.814180828832, -23495.349108618393, 16484.277425322227, 14752.7324858585, -0.016, 1.012, -0.182, 192.0, 0.0, 0.0, 0.0, 0.0, 0.0, 0.0, 0.0, 0.0, 0.0, 1.652797165232238E9, 0.0, 2022-05-17 16:19:25.232
15.0, 56542.112713111965, 25300.453639084535, -53195.8554024524, -14533.908907641044, 4124.857977015731, -23491.16933240525, 16486.132620112017, 14767.149361032172, -0.016, 1.012, -0.182, 192.0, 0.0, 0.0, 0.0, 0.0, 0.0, 0.0, 0.0, 0.0, 0.0, 1.6527971652322423E9, 0.0, 2022-05-17 16:19:25.232
16.0, 56596.27098992717, 25382.21632030205, -53101.64279957328, -14452.90618573501, 4164.465268190535, -23408.57963664289, 16556.22769072386, 14849.56024283889, -0.016, 1.012, -0.182, 192.0, 0.0, 0.0, 0.0, 0.0, 0.0, 0.0, 0.0, 0.0, 0.0, 1.6527971652322466E9, 0.0, 2022-05-17 16:19:25.232
17.0, 56649.088162075066, 25432.016006948474, -53061.70023223165, -14418.909182418489, 4225.776103231443, -23358.221156385083, 16601.557028479223, 14899.359929485314, -0.02, 1.01, -0.194, 192.0, 255.0, 96.0, 31.0, 144.0, 249.0, 240.0, 0.0, 0.0, 0.0, 1.6527971652322507E9, 0.0, 2022-05-17 16:19:25.232
18.0, 56649.0211068417, 25392.632233218224, -53104.07913971891, -14477.58251161367, 4223.563280530368, -23398.521351638003, 16563.492007671834, 14863.08304823435, -0.02, 1.01, -0.194, 192.0, 0.0, 0.0, 0.0, 0.0, 0.0, 0.0, 0.0, 0.0, 0.0, 1.6527971652322552E9, 0.0, 2022-05-17 16:19:25.232
19.0, 56593.87935327046, 25317.91035150413, -53174.97887313114, -14545.911794413543, 4160.330195466304, -23469.666954239245, 16497.621416762046, 14799.000596880986, -0.02, 1.01, -0.194, 192.0, 0.0, 0.0, 0.0, 0.0, 0.0, 0.0, 0.0, 0.0, 0.0, 1.6527971652322593E9, 0.0, 2022-05-17 16:19:25.232
20.0, 56549.98052716023, 25308.500267088446, -53186.73589071463, -14543.386047290094, 4121.48286360298, -23476.193663620194, 16489.574788758135, 14799.112355603262, -0.02, 1.01, -0.194, 192.0, 0.0, 0.0, 0.0, 0.0, 0.0, 0.0, 0.0, 0.0, 0.0, 1.6527971652322636E9, 0.0, 2022-05-17 16:19:25.232
21.0, 56575.23799839473, 25372.180387041615, -53123.681619606214, -14474.81089530121, 4153.15528549615, -23406.7244418531, 16546.83995805263, 14869.766219826488, -0.02, 1.01, -0.194, 192.0, 0.0, 0.0, 0.0, 0.0, 0.0, 0.0, 0.0, 0.0, 0.0, 1.6527971652322679E9, 0.0, 2022-05-17 16:19:25.232
22.0, 56625.64118214145, 25404.59041650181, -53084.4319563427, -14449.195796155429, 4200.8539081637755, -23372.973307725588, 16574.57847292167, 14905.439603977156, -0.02, 1.01, -0.194, 192.0, 0.0, 0.0, 0.0, 0.0, 0.0, 0.0, 0.0, 0.0, 0.0, 1.6527971652322788E9, 0.0, 2022-05-17 16:19:25.232
23.0, 56631.58674616656, 25373.297974264384, -53109.912945021744, -14485.182104728474, 4203.513765753957, -23410.747755855056, 16539.24036493783, 14864.178283712661, -0.02, 1.01, -0.194, 192.0, 0.0, 0.0, 0.0, 0.0, 0.0, 0.0, 0.0, 0.0, 0.0, 1.652797165232283E9, 0.0, 2022-05-17 16:19:25.232
24.0, 56575.752088517205, 25304.5216565754, -53174.48713475313, -14549.711590970945, 4144.683974347588, -23481.4910270561, 16470.419343759935, 14796.318387546347, -0.02, 1.01, -0.194, 192.0, 0.0, 0.0, 0.0, 0.0, 0.0, 0.0, 0.0, 0.0, 0.0, 1.6527971652322872E9, 0.0, 2022-05-17 16:19:25.232
25.0, 56554.47322779575, 25315.719880547513, -53173.70482369719, -14531.45021575096, 4116.409017611625, -23470.382210061816, 16474.129733339516, 14816.434957556125, -0.02, 1.01, -0.194, 192.0, 0.0, 0.0, 0.0, 0.0, 0.0, 0.0, 0.0, 0.0, 0.0, 1.6527971652322917E9, 0.0, 2022-05-17 16:19:25.232
26.0, 56587.46440261178, 25388.430105260624, -53108.236564187595, -14456.95185148142, 4152.931768051597, -23392.218159701606, 16536.13347245854, 14891.223894503582, -0.02, 1.01, -0.194, 192.0, 0.0, 0.0, 0.0, 0.0, 0.0, 0.0, 0.0, 0.0, 0.0, 1.6527971652322955E9, 0.0, 2022-05-17 16:19:25.232
27.0, 56639.991002081755, 25427.45625107959, -53047.842150669356, -14423.156013864997, 4204.0278558764285, -23348.56520278039, 16569.683440885954, 14921.622266962799, -0.016, 1.008, -0.196, 192.0, 255.0, 128.0, 31.0, 128.0, 249.0, 224.0, 0.0, 0.0, 0.0, 1.6527971652323E9, 0.0, 2022-05-17 16:19:25.232
28.0, 56629.48568218776, 25374.884948120707, -53093.05972970244, -14488.221941974396, 4196.025931361429, -23402.63407261778, 16518.989684461318, 14870.570882626878, -0.016, 1.008, -0.196, 192.0, 0.0, 0.0, 0.0, 0.0, 0.0, 0.0, 0.0, 0.0, 0.0, 1.6527971652323043E9, 0.0, 2022-05-17 16:19:25.232
29.0, 56566.36435584597, 25300.274825128894, -53169.480343995136, -14571.482190070414, 4132.256404430438, -23478.808817721467, 16446.011238814743, 14802.26395157146, -0.016, 1.008, -0.196, 192.0, 0.0, 0.0, 0.0, 0.0, 0.0, 0.0, 0.0, 0.0, 0.0, 1.6527971652323086E9, 0.0, 2022-05-17 16:19:25.232
30.0, 56539.47520726624, 25312.7247467905, -53155.711669410666, -14538.938050143488, 4106.261325628916, -23463.989611147597, 16456.650669175466, 14821.128823891739, -0.016, 1.008, -0.196, 192.0, 0.0, 0.0, 0.0, 0.0, 0.0, 0.0, 0.0, 0.0, 0.0, 1.652797165232313E9, 0.0, 2022-05-17 16:19:25.232
31.0, 56570.38766984793, 25383.490369736002, -53092.858564002345, -14455.342525880638, 4144.3263464363035, -23388.284252677473, 16523.638847308022, 14897.70590039562, -0.016, 1.008, -0.196, 192.0, 0.0, 0.0, 0.0, 0.0, 0.0, 0.0, 0.0, 0.0, 0.0, 1.652797165232317E9, 0.0, 2022-05-17 16:19:25.232
32.0, 56628.54690892064, 25432.440690093124, -53054.748839706044, -14411.488403259327, 4202.060902364362, -23335.80235669641, 16567.694135629434, 14946.812682963931, -0.016, 1.008, -0.196, 192.0, 0.0, 0.0, 0.0, 0.0, 0.0, 0.0, 0.0, 0.0, 0.0, 1.6527971652323213E9, 0.0, 2022-05-17 16:19:25.232
33.0, 56631.78791186666, 25392.788695429408, -53098.93823849419, -14459.09761894913, 4204.11726285425, -23377.130732194273, 16528.13154794354, 14904.433775476668, -0.016, 1.008, -0.196, 192.0, 0.0, 0.0, 0.0, 0.0, 0.0, 0.0, 0.0, 0.0, 0.0, 1.6527971652323256E9, 0.0, 2022-05-17 16:19:25.232
34.0, 56571.058222181586, 25318.91618000462, -53170.70968994018, -14536.50170999786, 4141.6888405905775, -23457.731122700112, 16453.476721462815, 14832.103530419296, -0.016, 1.008, -0.196, 192.0, 0.0, 0.0, 0.0, 0.0, 0.0, 0.0, 0.0, 0.0, 0.0, 1.6527971652323296E9, 0.0, 2022-05-17 16:19:25.232
35.0, 56532.054428107076, 25316.68100555909, -53183.76310870208, -14532.388989018082, 4106.373084351192, -23463.922555914232, 16449.095779549574, 14832.371751352759, -0.016, 1.008, -0.196, 192.0, 0.0, 0.0, 0.0, 0.0, 0.0, 0.0, 0.0, 0.0, 0.0, 1.652797165232334E9, 0.0, 2022-05-17 16:19:25.232
36.0, 56556.730753985736, 25375.84607313229, -53144.08876229391, -14469.49118012085, 4136.279718432394, -23396.710860337123, 16502.762317986766, 14901.036310319461, -0.016, 1.008, -0.196, 192.0, 0.0, 0.0, 0.0, 0.0, 0.0, 0.0, 0.0, 0.0, 0.0, 1.6527971652323384E9, 0.0, 2022-05-17 16:19:25.232
37.0, 56619.18152799387, 25428.305617368893, -53091.91979073522, -14426.866403444577, 4195.780062172421, -23343.066673644385, 16543.442492895425, 14955.86513946833, -0.024, 1.012, -0.2, 192.0, 255.0, 64.0, 31.0, 160.0, 249.0, 192.0, 0.0, 0.0, 0.0, 1.6527971652323425E9, 0.0, 2022-05-17 16:19:25.232
38.0, 56631.56439442211, 25393.727468696532, -53108.46008163215, -14466.227825430373, 4200.16100408566, -23377.421304872194, 16517.626228049547, 14938.833110193385, -0.024, 1.012, -0.2, 192.0, 0.0, 0.0, 0.0, 0.0, 0.0, 0.0, 0.0, 0.0, 0.0, 1.6527971652323477E9, 0.0, 2022-05-17 16:19:25.232
39.0, 56579.97656821926, 25322.53716260638, -53172.18490507423, -14536.16643383103, 4144.527512136401, -23442.50958472605, 16458.237643031793, 14879.153952497716, -0.024, 1.012, -0.2, 192.0, 0.0, 0.0, 0.0, 0.0, 0.0, 0.0, 0.0, 0.0, 0.0, 1.6527971652323525E9, 0.0, 2022-05-17 16:19:25.232
40.0, 56536.86005316497, 25308.43321185508, -53191.27329483906, -14549.26455608184, 4103.221488382994, -23451.31617204144, 16441.563241668136, 14851.214271928582, -0.024, 1.012, -0.2, 192.0, 0.0, 0.0, 0.0, 0.0, 0.0, 0.0, 0.0, 0.0, 0.0, 1.6527971652323568E9, 0.0, 2022-05-17 16:19:25.232
41.0, 56568.97950994725, 25379.26589003395, -53132.0411720325, -14486.322043695694, 4144.438105158581, -23379.00827872852, 16505.757451743775, 14921.264639051515, -0.024, 1.012, -0.2, 192.0, 0.0, 0.0, 0.0, 0.0, 0.0, 0.0, 0.0, 0.0, 0.0, 1.6527971652323616E9, 0.0, 2022-05-17 16:19:25.232
42.0, 56632.078484544574, 25425.75751850099, -53084.74488076507, -14438.869290217077, 4200.920963397141, -23327.15223159221, 16551.265603454784, 14966.258700640048, -0.024, 1.012, -0.2, 192.0, 0.0, 0.0, 0.0, 0.0, 0.0, 0.0, 0.0, 0.0, 0.0, 1.6527971652323675E9, 0.0, 2022-05-17 16:19:25.232
43.0, 56642.516749205206, 25388.251291304983, -53109.35415141036, -14485.9197122955, 4204.229021576527, -23365.32901112187, 16521.917762984966, 14939.794235204965, -0.024, 1.012, -0.2, 192.0, 0.0, 0.0, 0.0, 0.0, 0.0, 0.0, 0.0, 0.0, 0.0, 1.652797165232378E9, 0.0, 2022-05-17 16:19:25.232
44.0, 56598.394405650426, 25331.29904643286, -53156.270463022054, -14544.548338001769, 4154.272872718915, -23434.038273577487, 16467.379506514015, 14902.75739464252, -0.024, 1.012, -0.2, 192.0, 0.0, 0.0, 0.0, 0.0, 0.0, 0.0, 0.0, 0.0, 0.0, 1.6527971652323828E9, 0.0, 2022-05-17 16:19:25.232
45.0, 56554.76380047367, 25324.48176437399, -53160.02555609054, -14540.390913533081, 4114.419712355103, -23444.565945215934, 16464.898462879475, 14886.150048512227, -0.024, 1.012, -0.2, 192.0, 0.0, 0.0, 0.0, 0.0, 0.0, 0.0, 0.0, 0.0, 0.0, 1.6527971652323873E9, 0.0, 2022-05-17 16:19:25.232
46.0, 56562.16222788837, 25372.649773675177, -53118.719532337134, -14482.745764582845, 4133.128122464195, -23383.85860727532, 16511.926533213442, 14922.09165359636, -0.024, 1.012, -0.2, 192.0, 0.0, 0.0, 0.0, 0.0, 0.0, 0.0, 0.0, 0.0, 0.0, 1.6527971652323916E9, 0.0, 2022-05-17 16:19:25.232
47.0, 56617.03576052615, 25423.36588184427, -53077.45821207264, -14441.439740829437, 4187.040530090396, -23331.935504905643, 16551.444417410425, 14969.924386730718, -0.026000000000000002, 1.016, -0.2, 192.0, 255.0, 48.0, 31.0, 192.0, 249.0, 192.0, 0.0, 0.0, 0.0, 1.652797165232396E9, 0.0, 2022-05-17 16:19:25.232
48.0, 56633.37488572299, 25393.950986141084, -53106.426072886716, -14482.499895393838, 4193.254315048971, -23368.257089645518, 16519.70494028389, 14937.67081948171, -0.026000000000000002, 1.016, -0.2, 192.0, 0.0, 0.0, 0.0, 0.0, 0.0, 0.0, 0.0, 0.0, 0.0, 1.6527971652324E9, 0.0, 2022-05-17 16:19:25.232
49.0, 56573.092230927025, 25312.34476713476, -53177.01288187658, -14562.139160888097, 4130.803541040843, -23448.96923887363, 16446.771198126222, 14864.670022090677, -0.026000000000000002, 1.016, -0.2, 192.0, 0.0, 0.0, 0.0, 0.0, 0.0, 0.0, 0.0, 0.0, 0.0, 1.6527971652324045E9, 0.0, 2022-05-17 16:19:25.232
50.0, 56528.1428728274, 25303.649938541646, -53181.70674821219, -14563.457913810958, 4088.670502742589, -23452.813738919944, 16440.669171889924, 14869.095667492827, -0.026000000000000002, 1.016, -0.2, 192.0, 0.0, 0.0, 0.0, 0.0, 0.0, 0.0, 0.0, 0.0, 0.0, 1.6527971652324085E9, 0.0, 2022-05-17 16:19:25.232
51.0, 56559.63648076493, 25370.21343352955, -53112.4833956341, -14489.563046641713, 4123.226299670494, -23377.8683397613, 16505.51158255477, 14944.510453285035, -0.026000000000000002, 1.016, -0.2, 192.0, 0.0, 0.0, 0.0, 0.0, 0.0, 0.0, 0.0, 0.0, 0.0, 1.6527971652324128E9, 0.0, 2022-05-17 16:19:25.232
52.0, 56625.372961207984, 25423.27647486645, -53061.543770020464, -14447.877043232565, 4192.583762715311, -23322.167792578675, 16553.724295344866, 14996.768831821542, -0.026000000000000002, 1.016, -0.2, 192.0, 0.0, 0.0, 0.0, 0.0, 0.0, 0.0, 0.0, 0.0, 0.0, 1.652797165232417E9, 0.0, 2022-05-17 16:19:25.232
53.0, 56631.02795255518, 25387.893663393697, -53100.6816745617, -14492.424069931993, 4195.668303450144, -23361.752732009023, 16515.79338500421, 14963.129456416305, -0.026000000000000002, 1.016, -0.2, 192.0, 0.0, 0.0, 0.0, 0.0, 0.0, 0.0, 0.0, 0.0, 0.0, 1.6527971652324212E9, 0.0, 2022-05-17 16:19:25.232
54.0, 56589.67722531286, 25327.856877786744, -53152.51536995356, -14542.961364145443, 4143.0970004912615, -23425.20933451764, 16457.678849420412, 14917.196621560648, -0.026000000000000002, 1.016, -0.2, 192.0, 0.0, 0.0, 0.0, 0.0, 0.0, 0.0, 0.0, 0.0, 0.0, 1.6527971652324257E9, 0.0, 2022-05-17 16:19:25.232
55.0, 56544.52670151314, 25314.602293324744, -53168.60862596138, -14545.040076379786, 4104.875517472687, -23433.434776477192, 16452.06856156213, 14905.372548743791, -0.026000000000000002, 1.016, -0.2, 192.0, 0.0, 0.0, 0.0, 0.0, 0.0, 0.0, 0.0, 0.0, 0.0, 1.6527971652324295E9, 0.0, 2022-05-17 16:19:25.232
56.0, 56550.718134727256, 25360.713942136044, -53130.09657026489, -14483.997462272342, 4125.975564238496, -23373.0180112145, 16501.242399363804, 14957.541520302479, -0.026000000000000002, 1.016, -0.2, 192.0, 0.0, 0.0, 0.0, 0.0, 0.0, 0.0, 0.0, 0.0, 0.0, 1.652797165232434E9, 0.0, 2022-05-17 16:19:25.232
57.0, 56616.1640424924, 25420.84013472082, -53078.955778951145, -14428.632191256547, 4185.833535889809, -23313.070632585364, 16549.768036576275, 15019.947590821695, -0.02, 1.008, -0.196, 192.0, 255.0, 96.0, 31.0, 128.0, 249.0, 224.0, 0.0, 0.0, 0.0, 1.652797165232438E9, 0.0, 2022-05-17 16:19:25.232
58.0, 56631.09500778854, 25396.141457097707, -53106.56018335345, -14459.745819538335, 4196.562373228357, -23336.539964263437, 16525.51639384227, 14993.214904453149, -0.02, 1.008, -0.196, 192.0, 0.0, 0.0, 0.0, 0.0, 0.0, 0.0, 0.0, 0.0, 0.0, 1.6527971652324424E9, 0.0, 2022-05-17 16:19:25.232
59.0, 56576.10971642849, 25319.363214893725, -53176.610550476384, -14532.009009362342, 4136.302070176848, -23409.518409910015, 16455.376619741513, 14927.411368776724, -0.02, 1.008, -0.196, 192.0, 0.0, 0.0, 0.0, 0.0, 0.0, 0.0, 0.0, 0.0, 0.0, 1.652797165232447E9, 0.0, 2022-05-17 16:19:25.232
60.0, 56535.116617097454, 25311.49540084546, -53187.2052773482, -14529.460910494437, 4095.9795231794747, -23416.313340224428, 16444.781892869698, 14938.587241004378, -0.02, 1.008, -0.196, 192.0, 0.0, 0.0, 0.0, 0.0, 0.0, 0.0, 0.0, 0.0, 0.0, 1.6527971652324512E9, 0.0, 2022-05-17 16:19:25.232
61.0, 56559.77059123166, 25377.276584777428, -53131.236509232105, -14458.471770104381, 4131.854073030242, -23343.089025388843, 16508.260847122772, 15018.025340798538, -0.02, 1.008, -0.196, 192.0, 0.0, 0.0, 0.0, 0.0, 0.0, 0.0, 0.0, 0.0, 0.0, 1.6527971652324564E9, 0.0, 2022-05-17 16:19:25.232
62.0, 56619.18152799387, 25427.74682375751, -53078.955778951145, -14418.149223107008, 4189.990960358496, -23293.959891076076, 16550.639754610034, 15054.570442982966, -0.02, 1.008, -0.196, 192.0, 0.0, 0.0, 0.0, 0.0, 0.0, 0.0, 0.0, 0.0, 0.0, 1.6527971652324607E9, 0.0, 2022-05-17 16:19:25.232
63.0, 56624.478891429775, 25395.850884419786, -53106.56018335345, -14467.703040564424, 4193.678998193622, -23334.550659006913, 16513.088823925118, 15022.249820500592, -0.02, 1.008, -0.196, 192.0, 0.0, 0.0, 0.0, 0.0, 0.0, 0.0, 0.0, 0.0, 0.0, 1.652797165232465E9, 0.0, 2022-05-17 16:19:25.232
64.0, 56565.4479343233, 25317.73153754849, -53181.88556216784, -14556.26065209635, 4134.692744576067, -23418.414404203228, 16438.6798666334, 14948.757284731542, -0.02, 1.008, -0.196, 192.0, 0.0, 0.0, 0.0, 0.0, 0.0, 0.0, 0.0, 0.0, 0.0, 1.6527971652324708E9, 0.0, 2022-05-17 16:19:25.232
65.0, 56533.90962289687, 25313.037671212875, -53188.30051282651, -14545.531814757804, 4102.014494182407, -23417.743851869567, 16430.72264560731, 14945.493930041068, -0.02, 1.008, -0.196, 192.0, 0.0, 0.0, 0.0, 0.0, 0.0, 0.0, 0.0, 0.0, 0.0, 1.6527971652324753E9, 0.0, 2022-05-17 16:19:25.232
66.0, 56566.4984663127, 25382.037506346405, -53119.85947130436, -14468.127723709074, 4135.9891457544745, -23344.05015040042, 16495.02861440523, 15019.746425121597, -0.02, 1.008, -0.196, 192.0, 0.0, 0.0, 0.0, 0.0, 0.0, 0.0, 0.0, 0.0, 0.0, 1.652797165232479E9, 0.0, 2022-05-17 16:19:25.232
67.0, 56626.40114145293, 25425.154021400693, -53074.954816693644, -14434.644810515025, 4191.7567481704655, -23300.62071092376, 16542.593126606123, 15076.430449060255, -0.024, 1.004, -0.194, 192.0, 255.0, 64.0, 31.0, 96.0, 249.0, 240.0, 0.0, 0.0, 0.0, 1.6527971652324836E9, 0.0, 2022-05-17 16:19:25.232
68.0, 56648.01527834121, 25395.56031174187, -53091.78568026849, -14474.676784834479, 4196.338855783803, -23338.61867649778, 16506.897390710998, 15041.874652132352, -0.024, 1.004, -0.194, 192.0, 0.0, 0.0, 0.0, 0.0, 0.0, 0.0, 0.0, 0.0, 0.0, 1.6527971652324877E9, 0.0, 2022-05-17 16:19:25.232
69.0, 56606.19516446533, 25334.361235423235, -53145.76514312806, -14533.819500663221, 4149.377840683203, -23406.947959297653, 16446.54768068167, 14979.714450802143, -0.024, 1.004, -0.194, 192.0, 0.0, 0.0, 0.0, 0.0, 0.0, 0.0, 0.0, 0.0, 0.0, 1.652797165232492E9, 0.0, 2022-05-17 16:19:25.232
70.0, 56556.82016096356, 25316.949226492554, -53165.45702999318, -14542.804901934256, 4100.5392790483575, -23426.662197907233, 16424.084177504086, 14968.829151252408, -0.024, 1.004, -0.194, 192.0, 0.0, 0.0, 0.0, 0.0, 0.0, 0.0, 0.0, 0.0, 0.0, 1.6527971652324963E9, 0.0, 2022-05-17 16:19:25.232
71.0, 56564.12918140044, 25366.614802672244, -53112.148119467274, -14480.24236920385, 4118.755950779432, -23365.95485996662, 16469.36881177054, 15026.563707180467, -0.024, 1.004, -0.194, 192.0, 0.0, 0.0, 0.0, 0.0, 0.0, 0.0, 0.0, 0.0, 0.0, 1.6527971652325003E9, 0.0, 2022-05-17 16:19:25.232
72.0, 56619.13682450495, 25415.87804745174, -53057.207531596134, -14432.834319214144, 4174.277684006415, -23309.114373816774, 16514.631094292534, 15087.628673032365, -0.024, 1.004, -0.194, 192.0, 0.0, 0.0, 0.0, 0.0, 0.0, 0.0, 0.0, 0.0, 0.0, 1.6527971652325048E9, 0.0, 2022-05-17 16:19:25.232
73.0, 56638.046400314146, 25393.593358229802, -53082.50970631954, -14465.199645185428, 4191.7567481704655, -23337.456385786103, 16493.21812310435, 15063.175864598259, -0.024, 1.004, -0.194, 192.0, 0.0, 0.0, 0.0, 0.0, 0.0, 0.0, 0.0, 0.0, 0.0, 1.6527971652325091E9, 0.0, 2022-05-17 16:19:25.232
74.0, 56590.88421951345, 25325.68875857458, -53147.15095128429, -14528.119805827118, 4145.198064470061, -23404.221046474107, 16432.175508996905, 15000.993311523594, -0.024, 1.004, -0.194, 192.0, 0.0, 0.0, 0.0, 0.0, 0.0, 0.0, 0.0, 0.0, 0.0, 1.6527971652325134E9, 0.0, 2022-05-17 16:19:25.232
75.0, 56539.92224215535, 25307.80736301033, -53167.98277711663, -14536.658172209047, 4105.411959339614, -23414.167572756716, 16419.56912512411, 15004.21196272516, -0.024, 1.004, -0.194, 192.0, 0.0, 0.0, 0.0, 0.0, 0.0, 0.0, 0.0, 0.0, 0.0, 1.6527971652325175E9, 0.0, 2022-05-17 16:19:25.232
76.0, 56558.47419005325, 25369.92286085163, -53114.29388693499, -14475.190874956952, 4129.171863695606, -23351.470929559582, 16470.419343759935, 15062.281794820046, -0.024, 1.004, -0.194, 192.0, 0.0, 0.0, 0.0, 0.0, 0.0, 0.0, 0.0, 0.0, 0.0, 1.652797165232522E9, 0.0, 2022-05-17 16:19:25.232
77.0, 56628.05517054262, 25432.37363485976, -53052.0219268825, -14424.675932487957, 4186.213515545549, -23292.23880675302, 16515.234591392826, 15106.001806974627, -0.032, 1.004, -0.19, 192.0, 255.0, 0.0, 31.0, 96.0, 250.0, 16.0, 0.0, 0.0, 0.0, 1.6527971652325263E9, 0.0, 2022-05-17 16:19:25.232
78.0, 56641.957955593825, 25407.429088047636, -53071.043261413965, -14458.918804993487, 4189.968608614041, -23320.290246044427, 16482.712803210354, 15077.235111860648, -0.032, 1.004, -0.19, 192.0, 0.0, 0.0, 0.0, 0.0, 0.0, 0.0, 0.0, 0.0, 0.0, 1.6527971652325313E9, 0.0, 2022-05-17 16:19:25.232
79.0, 56583.68695779884, 25325.554648107845, -53148.06737280695, -14536.099378597663, 4132.166997452617, -23400.510656894527, 16407.09685171805, 15002.78145108002, -0.032, 1.004, -0.19, 192.0, 0.0, 0.0, 0.0, 0.0, 0.0, 0.0, 0.0, 0.0, 0.0, 1.6527971652325354E9, 0.0, 2022-05-17 16:19:25.232
80.0, 56536.63653572042, 25304.991043208964, -53168.630977705834, -14538.714532698934, 4087.9328951755638, -23413.92170356771, 16391.20476141033, 14992.164372463749, -0.032, 1.004, -0.19, 192.0, 0.0, 0.0, 0.0, 0.0, 0.0, 0.0, 0.0, 0.0, 0.0, 1.65279716523254E9, 0.0, 2022-05-17 16:19:25.232
81.0, 56560.91053019888, 25374.30380276487, -53109.17533745472, -14459.589357327148, 4123.047485714851, -23335.57883925186, 16456.002468586263, 15070.529588524056, -0.032, 1.004, -0.19, 192.0, 0.0, 0.0, 0.0, 0.0, 0.0, 0.0, 0.0, 0.0, 0.0, 1.6527971652325444E9, 0.0, 2022-05-17 16:19:25.232
82.0, 56613.280667457664, 25423.097660910807, -53061.85669444284, -14417.813946940178, 4180.200896287071, -23281.68878337011, 16499.007224918274, 15118.474080380689, -0.032, 1.004, -0.19, 192.0, 0.0, 0.0, 0.0, 0.0, 0.0, 0.0, 0.0, 0.0, 0.0, 1.6527971652325516E9, 0.0, 2022-05-17 16:19:25.232
83.0, 56626.44584494184, 25400.656509477678, -53079.715738262625, -14454.135531680053, 4193.209611560061, -23309.337891261326, 16476.096686851586, 15095.697652780731, -0.032, 1.004, -0.19, 192.0, 0.0, 0.0, 0.0, 0.0, 0.0, 0.0, 0.0, 0.0, 0.0, 1.652797165232556E9, 0.0, 2022-05-17 16:19:25.232
84.0, 56566.23024537924, 25324.548819607357, -53152.358907742375, -14534.087721596685, 4138.447837644558, -23386.741982310057, 16412.505973876236, 15029.827061870941, -0.032, 1.004, -0.19, 192.0, 0.0, 0.0, 0.0, 0.0, 0.0, 0.0, 0.0, 0.0, 0.0, 1.6527971652325604E9, 0.0, 2022-05-17 16:19:25.232
85.0, 56521.37029425744, 25308.38850836617, -53169.56975097296, -14544.436579279492, 4098.080587158273, -23395.526217880993, 16395.026909712185, 15024.082663545927, -0.032, 1.004, -0.19, 192.0, 0.0, 0.0, 0.0, 0.0, 0.0, 0.0, 0.0, 0.0, 0.0, 1.6527971652325647E9, 0.0, 2022-05-17 16:19:25.232
86.0, 56533.797864174594, 25363.06087530385, -53125.49211090709, -14485.763250084312, 4115.112616433217, -23334.14832760672, 16438.63516314449, 15085.482905564655, -0.032, 1.004, -0.19, 192.0, 0.0, 0.0, 0.0, 0.0, 0.0, 0.0, 0.0, 0.0, 0.0, 1.6527971652325706E9, 0.0, 2022-05-17 16:19:25.232
87.0, 56590.61599857998, 25420.013120175972, -53063.19779911015, -14437.95286869441, 4167.236884502993, -23280.682954869626, 16483.5398177552, 15135.439054422266, -0.034, 1.006, -0.176, 192.0, 254.0, 240.0, 31.0, 112.0, 250.0, 128.0, 0.0, 0.0, 0.0, 1.6527971652325747E9, 0.0, 2022-05-17 16:19:25.232
88.0, 56612.74422559074, 25398.577797243335, -53077.39115683927, -14459.611709071603, 4185.498259722979, -23299.592530678812, 16469.994660615284, 15117.84823153594, -0.034, 1.006, -0.176, 192.0, 0.0, 0.0, 0.0, 0.0, 0.0, 0.0, 0.0, 0.0, 0.0, 1.6527971652325792E9, 0.0, 2022-05-17 16:19:25.232
89.0, 56559.50237029819, 25318.938531749074, -53158.05860257848, -14547.387009547594, 4130.334154407282, -23383.09864796384, 16395.473944601294, 15040.108864320382, -0.034, 1.006, -0.176, 192.0, 0.0, 0.0, 0.0, 0.0, 0.0, 0.0, 0.0, 0.0, 0.0, 1.6527971652325833E9, 0.0, 2022-05-17 16:19:25.232
90.0, 56521.3926460019, 25310.757793278433, -53165.300567782, -14548.437541536992, 4102.461529071514, -23392.53108412398, 16389.662491042913, 15038.11955906386, -0.034, 1.006, -0.176, 192.0, 0.0, 0.0, 0.0, 0.0, 0.0, 0.0, 0.0, 0.0, 0.0, 1.6527971652325876E9, 0.0, 2022-05-17 16:19:25.232
91.0, 56545.33136431353, 25376.360163254758, -53096.65836055975, -14476.822552302188, 4129.909471262631, -23316.937484376132, 16448.648744660466, 15109.533382598565, -0.034, 1.006, -0.176, 192.0, 0.0, 0.0, 0.0, 0.0, 0.0, 0.0, 0.0, 0.0, 0.0, 1.652797165232592E9, 0.0, 2022-05-17 16:19:25.232
92.0, 56595.42162363787, 25422.717681255064, -53052.82658968289, -14431.873194202566, 4179.128012553217, -23262.17571046063, 16489.574788758135, 15162.350554746457, -0.034, 1.006, -0.176, 192.0, 0.0, 0.0, 0.0, 0.0, 0.0, 0.0, 0.0, 0.0, 0.0, 1.6527971652325962E9, 0.0, 2022-05-17 16:19:25.232
93.0, 56610.285533700655, 25393.816875674354, -53060.627348497794, -14465.624328330081, 4187.576971957323, -23290.22714975204, 16461.702163422367, 15133.539156143566, -0.034, 1.006, -0.176, 192.0, 0.0, 0.0, 0.0, 0.0, 0.0, 0.0, 0.0, 0.0, 0.0, 1.6527971652326005E9, 0.0, 2022-05-17 16:19:25.232
94.0, 56562.02811742164, 25321.464278872525, -53127.07908476342, -14538.82629142121, 4140.414791156625, -23366.088970433353, 16394.11048818952, 15067.802675700508, -0.034, 1.006, -0.176, 192.0, 0.0, 0.0, 0.0, 0.0, 0.0, 0.0, 0.0, 0.0, 0.0, 1.6527971652326047E9, 0.0, 2022-05-17 16:19:25.232
95.0, 56500.76198586965, 25290.931795946577, -53164.33944277042, -14562.586195777201, 4088.4916887869467, -23389.24537768905, 16368.450685554826, 15049.720114436164, -0.034, 1.006, -0.176, 192.0, 0.0, 0.0, 0.0, 0.0, 0.0, 0.0, 0.0, 0.0, 0.0, 1.6527971652326095E9, 0.0, 2022-05-17 16:19:25.232
96.0, 56526.01945710414, 25356.221241500527, -53091.673921546215, -14486.612616373613, 4116.900755989642, -23312.8024116519, 16430.05209327365, 15112.394405888845, -0.032, 1.006, -0.18, 192.0, 255.0, 0.0, 31.0, 112.0, 250.0, 96.0, 0.0, 0.0, 0.0, 1.652797165232614E9, 0.0, 2022-05-17 16:19:25.232
97.0, 56590.213667179785, 25418.068518408363, -53028.08320857087, -14424.184194109941, 4185.252390533971, -23246.440082364094, 16485.327957311627, 15175.113400830436, -0.032, 1.006, -0.18, 192.0, 0.0, 0.0, 0.0, 0.0, 0.0, 0.0, 0.0, 0.0, 0.0, 1.6527971652326183E9, 0.0, 2022-05-17 16:19:25.232
98.0, 56605.30109468712, 25398.913073410164, -53052.29014781596, -14453.196758412929, 4203.424358776136, -23274.08919025531, 16462.015087844742, 15153.163987775326, -0.032, 1.006, -0.18, 192.0, 0.0, 0.0, 0.0, 0.0, 0.0, 0.0, 0.0, 0.0, 0.0, 1.6527971652326229E9, 0.0, 2022-05-17 16:19:25.232
99.0, 56541.218643333756, 25310.511924089424, -53143.485265193616, -14545.934146157999, 4146.606224370745, -23365.932508222166, 16384.588645051557, 15072.965928669684, -0.032, 1.006, -0.18, 192.0, 0.0, 0.0, 0.0, 0.0, 0.0, 0.0, 0.0, 0.0, 0.0, 1.652797165232627E9, 0.0, 2022-05-17 16:19:25.232
100.0, 56494.05646253306, 25290.70827850202, -53175.224742320155, -14565.894253956587, 4093.7890522228545, -23382.67396481919, 16361.43223779586, 15058.034963373539, -0.032, 1.006, -0.18, 192.0, 0.0, 0.0, 0.0, 0.0, 0.0, 0.0, 0.0, 0.0, 0.0, 1.6527971652326314E9, 0.0, 2022-05-17 16:19:25.232
101.0, 56526.667657693346, 25363.73142763751, -53124.62039287334, -14481.002328515331, 4124.187424682072, -23301.693594657612, 16420.68671234688, 15129.649952608343, -0.032, 1.006, -0.18, 192.0, 0.0, 0.0, 0.0, 0.0, 0.0, 0.0, 0.0, 0.0, 0.0, 1.6527971652326355E9, 0.0, 2022-05-17 16:19:25.232
102.0, 56590.59364683553, 25425.8022219899, -53064.18127586619, -14419.8032521967, 4184.8277073893205, -23237.11940492623, 16472.25218680527, 15187.317453303034, -0.032, 1.006, -0.18, 192.0, 0.0, 0.0, 0.0, 0.0, 0.0, 0.0, 0.0, 0.0, 0.0, 1.65279716523264E9, 0.0, 2022-05-17 16:19:25.232
103.0, 56619.7626733497, 25407.473791536548, -53056.49227577356, -14447.877043232565, 4189.812146402854, -23267.897757041188, 16440.44565444537, 15157.187301777281, -0.032, 1.006, -0.18, 192.0, 0.0, 0.0, 0.0, 0.0, 0.0, 0.0, 0.0, 0.0, 0.0, 1.6527971652326443E9, 0.0, 2022-05-17 16:19:25.232
104.0, 56581.92116998687, 25343.570154138823, -53118.94304978169, -14514.798166131755, 4148.237901715983, -23336.830536941354, 16384.923921218386, 15101.397347616834, -0.032, 1.006, -0.18, 192.0, 0.0, 0.0, 0.0, 0.0, 0.0, 0.0, 0.0, 0.0, 0.0, 1.6527971652326488E9, 0.0, 2022-05-17 16:19:25.232
105.0, 56522.2420122912, 25308.276749643894, -53161.098439824396, -14541.977887389408, 4096.560668535312, -23364.546700065937, 16356.47015052678, 15078.062126405493, -0.032, 1.006, -0.18, 192.0, 0.0, 0.0, 0.0, 0.0, 0.0, 0.0, 0.0, 0.0, 0.0, 1.652797165232653E9, 0.0, 2022-05-17 16:19:25.232
106.0, 56547.38772480342, 25371.331020752314, -53096.568953581926, -14469.9158632655, 4124.992087482463, -23287.857864839778, 16420.954933280344, 15148.291307484069, -0.03, 1.006, -0.18, 192.0, 255.0, 16.0, 31.0, 112.0, 250.0, 96.0, 0.0, 0.0, 0.0, 1.6527971652326572E9, 0.0, 2022-05-17 16:19:25.232
107.0, 56607.29039994364, 25429.914942969674, -53041.51660698851, -14410.840202670122, 4190.907381881164, -23217.919256439123, 16475.090858351097, 15210.004473925172, -0.03, 1.006, -0.18, 192.0, 0.0, 0.0, 0.0, 0.0, 0.0, 0.0, 0.0, 0.0, 0.0, 1.6527971652326632E9, 0.0, 2022-05-17 16:19:25.232
108.0, 56616.63342912596, 25401.438820533614, -53073.703119004145, -14451.967412467888, 4205.011332632463, -23251.111596955252, 16440.512709678736, 15189.262055070647, -0.03, 1.006, -0.18, 192.0, 0.0, 0.0, 0.0, 0.0, 0.0, 0.0, 0.0, 0.0, 0.0, 1.6527971652326677E9, 0.0, 2022-05-17 16:19:25.232
109.0, 56558.273024353155, 25321.59838933926, -53153.07416356495, -14535.652343708558, 4147.7908668268765, -23340.742092221033, 16359.532339517158, 15108.840478520451, -0.03, 1.006, -0.18, 192.0, 0.0, 0.0, 0.0, 0.0, 0.0, 0.0, 0.0, 0.0, 0.0, 1.6527971652326717E9, 0.0, 2022-05-17 16:19:25.232
110.0, 56503.75711962666, 25297.838484983266, -53175.76118418708, -14546.761160702845, 4097.0747586577845, -23366.983040211566, 16341.226260808262, 15088.053356177015, -0.03, 1.006, -0.18, 192.0, 0.0, 0.0, 0.0, 0.0, 0.0, 0.0, 0.0, 0.0, 0.0, 1.652797165232676E9, 0.0, 2022-05-17 16:19:25.232
111.0, 56527.293506538095, 25359.574003168822, -53111.61167760035, -14477.62721510258, 4123.516872348413, -23304.219341781063, 16404.235828427773, 15144.402103948845, -0.03, 1.006, -0.18, 192.0, 0.0, 0.0, 0.0, 0.0, 0.0, 0.0, 0.0, 0.0, 0.0, 1.65279716523268E9, 0.0, 2022-05-17 16:19:25.232
112.0, 56592.471193369776, 25419.36491958677, -53048.69151695866, -14420.76437720828, 4185.811184145354, -23246.685951553103, 16451.845044117577, 15193.844162683985, -0.03, 1.006, -0.18, 192.0, 0.0, 0.0, 0.0, 0.0, 0.0, 0.0, 0.0, 0.0, 0.0, 1.6527971652326846E9, 0.0, 2022-05-17 16:19:25.232
113.0, 56608.1621179774, 25394.12980009673, -53069.00925266853, -14459.924633493976, 4202.038550619906, -23272.010478020966, 16426.878145560997, 15162.819941380018, -0.03, 1.006, -0.18, 192.0, 0.0, 0.0, 0.0, 0.0, 0.0, 0.0, 0.0, 0.0, 0.0, 1.652797165232689E9, 0.0, 2022-05-17 16:19:25.232
114.0, 56556.931919685834, 25314.11055494673, -53145.921605339245, -14536.054675108753, 4144.594567369767, -23352.320295848884, 16356.827778438066, 15091.540228312044, -0.03, 1.006, -0.18, 192.0, 0.0, 0.0, 0.0, 0.0, 0.0, 0.0, 0.0, 0.0, 0.0, 1.6527971652326932E9, 0.0, 2022-05-17 16:19:25.232
115.0, 56506.64049466139, 25287.757848233923, -53177.83989642142, -14551.49973052737, 4097.432386569069, -23371.900423991734, 16336.353580517005, 15079.582045028454, -0.03, 1.006, -0.18, 192.0, 0.0, 0.0, 0.0, 0.0, 0.0, 0.0, 0.0, 0.0, 0.0, 1.6527971652326975E9, 0.0, 2022-05-17 16:19:25.232
116.0, 56522.197308802286, 25346.16295649564, -53133.65049763328, -14488.53486639677, 4120.857014758231, -23302.989995836022, 16393.350528878036, 15154.929775587294, -0.024, 1.002, -0.178, 192.0, 255.0, 64.0, 31.0, 80.0, 250.0, 112.0, 0.0, 0.0, 0.0, 1.6527971652327015E9, 0.0, 2022-05-17 16:19:25.232
117.0, 56598.752033561716, 25423.388233588725, -53029.7148859161, -14411.197830581408, 4188.82866964682, -23230.212715889542, 16462.260957033748, 15221.24740138619, -0.024, 1.002, -0.178, 192.0, 0.0, 0.0, 0.0, 0.0, 0.0, 0.0, 0.0, 0.0, 0.0, 1.652797165232706E9, 0.0, 2022-05-17 16:19:25.232
118.0, 56616.76753959269, 25398.533093754424, -53054.68178447268, -14439.696304761925, 4204.676056465632, -23262.712152327556, 16447.10647429305, 15194.24649408418, -0.024, 1.002, -0.178, 192.0, 0.0, 0.0, 0.0, 0.0, 0.0, 0.0, 0.0, 0.0, 0.0, 1.6527971652327106E9, 0.0, 2022-05-17 16:19:25.232
119.0, 56567.571350046564, 25321.129002705697, -53114.048017745976, -14517.815651633222, 4150.003689527952, -23344.09485388933, 16384.00749969572, 15128.085330496471, -0.024, 1.002, -0.178, 192.0, 0.0, 0.0, 0.0, 0.0, 0.0, 0.0, 0.0, 0.0, 0.0, 1.652797165232715E9, 0.0, 2022-05-17 16:19:25.232
120.0, 56515.80470988807, 25298.441982083557, -53147.12859953983, -14532.8807273961, 4105.031979683874, -23362.646801787236, 16373.278662357172, 15115.836574534962, -0.024, 1.002, -0.178, 192.0, 0.0, 0.0, 0.0, 0.0, 0.0, 0.0, 0.0, 0.0, 0.0, 1.6527971652327192E9, 0.0, 2022-05-17 16:19:25.232
121.0, 56538.201157832285, 25363.26204100395, -53085.25897088754, -14460.23755791635, 4131.585852096779, -23287.254367739486, 16445.49714869227, 15190.044366126582, -0.024, 1.002, -0.178, 192.0, 0.0, 0.0, 0.0, 0.0, 0.0, 0.0, 0.0, 0.0, 0.0, 1.6527971652327237E9, 0.0, 2022-05-17 16:19:25.232
122.0, 56608.810318566604, 25434.36294011628, -53008.547783916925, -14395.529257718237, 4197.232925562015, -23211.660767991634, 16519.12379492805, 15262.799294328606, -0.024, 1.002, -0.178, 192.0, 0.0, 0.0, 0.0, 0.0, 0.0, 0.0, 0.0, 0.0, 0.0, 1.6527971657116656E9, 0.0, 2022-05-17 16:19:25.711
123.0, 56621.39435069494, 25407.02675664744, -53048.57975823638, -14431.224993613363, 4209.861661179264, -23240.874497994722, 16504.393995332004, 15239.01703822816, -0.024, 1.002, -0.178, 192.0, 0.0, 0.0, 0.0, 0.0, 0.0, 0.0, 0.0, 0.0, 0.0, 1.6527971657117963E9, 0.0, 2022-05-17 16:19:25.711
124.0, 56563.9503674448, 25328.10274697575, -53125.313296951455, -14510.081948051686, 4152.417677929125, -23321.407833267192, 16440.7809306122, 15166.463275726233, -0.024, 1.002, -0.178, 192.0, 0.0, 0.0, 0.0, 0.0, 0.0, 0.0, 0.0, 0.0, 0.0, 1.6527971657118015E9, 0.0, 2022-05-17 16:19:25.711
125.0, 56521.99614310219, 25308.075583943795, -53139.75252386958, -14522.01777959082, 4109.122348919195, -23335.936467163145, 16429.627410129, 15155.063886054026, -0.024, 1.002, -0.178, 192.0, 0.0, 0.0, 0.0, 0.0, 0.0, 0.0, 0.0, 0.0, 0.0, 1.6527971657118073E9, 0.0, 2022-05-17 16:19:25.711
126.0, 56535.965983386755, 25356.31064847835, -53118.69718059268, -14470.787581299255, 4115.134968177673, -23276.503178656483, 16476.767239185243, 15208.81983146904, -0.032, 1.01, -0.17200000000000001, 192.0, 255.0, 0.0, 31.0, 144.0, 250.0, 160.0, 0.0, 0.0, 0.0, 1.6527971657118123E9, 0.0, 2022-05-17 16:19:25.711
127.0, 56612.83363256856, 25421.68950101012, -53052.91599666071, -14411.443699770416, 4178.300998008371, -23210.8784569357, 16544.247155695815, 15276.500913679709, -0.032, 1.01, -0.17200000000000001, 192.0, 0.0, 0.0, 0.0, 0.0, 0.0, 0.0, 0.0, 0.0, 0.0, 1.6527971657118173E9, 0.0, 2022-05-17 16:19:25.711
128.0, 56633.50899618972, 25394.88975940821, -53052.4242582827, -14431.269697102272, 4197.456443006568, -23242.17089917313, 16530.724350300356, 15260.49706464971, -0.032, 1.01, -0.17200000000000001, 192.0, 0.0, 0.0, 0.0, 0.0, 0.0, 0.0, 0.0, 0.0, 0.0, 1.6527971657118306E9, 0.0, 2022-05-17 16:19:25.711
129.0, 56591.197143935824, 25324.727633563, -53126.47558766313, -14504.471660193403, 4148.953157538553, -23320.737280933536, 16473.950919383875, 15199.499154031177, -0.032, 1.01, -0.17200000000000001, 192.0, 0.0, 0.0, 0.0, 0.0, 0.0, 0.0, 0.0, 0.0, 0.0, 1.6527971657118356E9, 0.0, 2022-05-17 16:19:25.711
130.0, 56569.873579725456, 25317.508020103935, -53138.05379129098, -14507.533849183781, 4111.648096042645, -23327.398100781214, 16470.754619926767, 15179.203770065758, -0.032, 1.01, -0.17200000000000001, 192.0, 0.0, 0.0, 0.0, 0.0, 0.0, 0.0, 0.0, 0.0, 0.0, 1.6527971657118402E9, 0.0, 2022-05-17 16:19:25.711
131.0, 56600.38371090695, 25383.333907524815, -53074.03839517098, -14438.33284835015, 4136.212663199028, -23256.386608646706, 16530.344370644616, 15245.163767953369, -0.032, 1.01, -0.17200000000000001, 192.0, 0.0, 0.0, 0.0, 0.0, 0.0, 0.0, 0.0, 0.0, 0.0, 1.652797165711845E9, 0.0, 2022-05-17 16:19:25.711
132.0, 56653.24558654375, 25433.13359417124, -53033.514682473506, -14391.595350694102, 4190.907381881164, -23204.105878365743, 16579.94289159094, 15299.344396513034, -0.032, 1.01, -0.17200000000000001, 192.0, 0.0, 0.0, 0.0, 0.0, 0.0, 0.0, 0.0, 0.0, 0.0, 1.6527971657118497E9, 0.0, 2022-05-17 16:19:25.711
133.0, 56661.180455825386, 25401.349413555792, -53065.812953211425, -14434.9577349374, 4196.964704628552, -23241.813271261846, 16554.193681978428, 15268.901320564906, -0.032, 1.01, -0.17200000000000001, 192.0, 0.0, 0.0, 0.0, 0.0, 0.0, 0.0, 0.0, 0.0, 0.0, 1.6527971657118542E9, 0.0, 2022-05-17 16:19:25.711
134.0, 56624.054208285124, 25334.316531934328, -53127.682581863715, -14508.763195128822, 4154.094058763273, -23313.674129685656, 16491.340576570103, 15204.058909900059, -0.032, 1.01, -0.17200000000000001, 192.0, 0.0, 0.0, 0.0, 0.0, 0.0, 0.0, 0.0, 0.0, 0.0, 1.6527971657118587E9, 0.0, 2022-05-17 16:19:25.711
135.0, 56580.60241706401, 25308.656729299633, -53152.4483147202, -14526.644590693068, 4110.91048847562, -23330.9073246607, 16475.984928129306, 15193.955921406261, -0.032, 1.01, -0.17200000000000001, 192.0, 0.0, 0.0, 0.0, 0.0, 0.0, 0.0, 0.0, 0.0, 0.0, 1.6527971657118635E9, 0.0, 2022-05-17 16:19:25.711
136.0, 56599.109661473, 25367.39711372818, -53082.867334230825, -14458.38236312656, 4129.954174751541, -23260.588736604303, 16538.703923070898, 15268.16371299788, -0.026000000000000002, 1.004, -0.164, 192.0, 255.0, 48.0, 31.0, 96.0, 250.0, 224.0, 0.0, 0.0, 0.0, 1.652797165711868E9, 0.0, 2022-05-17 16:19:25.711
137.0, 56657.15714182343, 25426.070442923363, -53028.97727834908, -14403.195906066407, 4187.085233579306, -23197.847389918257, 16589.777659151277, 15331.50855678422, -0.026000000000000002, 1.004, -0.164, 192.0, 0.0, 0.0, 0.0, 0.0, 0.0, 0.0, 0.0, 0.0, 0.0, 1.6527971657118728E9, 0.0, 2022-05-17 16:19:25.711
138.0, 56676.44669728836, 25401.72939321153, -53054.59237749486, -14433.013133169787, 4203.469062265046, -23223.417785575126, 16571.04689729773, 15300.372576757978, -0.026000000000000002, 1.004, -0.164, 192.0, 0.0, 0.0, 0.0, 0.0, 0.0, 0.0, 0.0, 0.0, 0.0, 1.652797165711877E9, 0.0, 2022-05-17 16:19:25.711
139.0, 56625.4176646969, 25323.610046340233, -53123.81573007294, -14507.310331739227, 4147.813218571332, -23303.347623747304, 16502.494097053303, 15226.656523544376, -0.026000000000000002, 1.004, -0.164, 192.0, 0.0, 0.0, 0.0, 0.0, 0.0, 0.0, 0.0, 0.0, 0.0, 1.652797165711882E9, 0.0, 2022-05-17 16:19:25.711
140.0, 56579.462478096786, 25306.48861008747, -53141.36184947036, -14516.16162254353, 4111.335171620271, -23322.03368211194, 16485.55147475618, 15219.280447874124, -0.026000000000000002, 1.004, -0.164, 192.0, 0.0, 0.0, 0.0, 0.0, 0.0, 0.0, 0.0, 0.0, 0.0, 1.6527971657118866E9, 0.0, 2022-05-17 16:19:25.711
141.0, 56596.42745213836, 25368.425293973127, -53084.208438898146, -14454.58256656916, 4133.977488753497, -23256.632477835712, 16541.296725427714, 15290.291940008634, -0.026000000000000002, 1.004, -0.164, 192.0, 0.0, 0.0, 0.0, 0.0, 0.0, 0.0, 0.0, 0.0, 0.0, 1.6527971657118917E9, 0.0, 2022-05-17 16:19:25.711
142.0, 56636.23590901327, 25412.927617183643, -53038.09679008684, -14404.492307244815, 4186.571143456834, -23200.149619597152, 16584.502647459823, 15327.664056737907, -0.026000000000000002, 1.004, -0.164, 192.0, 0.0, 0.0, 0.0, 0.0, 0.0, 0.0, 0.0, 0.0, 0.0, 1.6527971657118964E9, 0.0, 2022-05-17 16:19:25.711
143.0, 56660.15227558044, 25393.235730318516, -53046.00930762402, -14429.99564766832, 4208.274687322937, -23220.93674194059, 16567.627080396065, 15309.425033262378, -0.026000000000000002, 1.004, -0.164, 192.0, 0.0, 0.0, 0.0, 0.0, 0.0, 0.0, 0.0, 0.0, 0.0, 1.6527971657119007E9, 0.0, 2022-05-17 16:19:25.711
144.0, 56616.83459482606, 25323.140659706674, -53112.79632005648, -14501.789450858767, 4159.4137739436355, -23296.843266110813, 16500.080108652128, 15244.292049919612, -0.026000000000000002, 1.004, -0.164, 192.0, 0.0, 0.0, 0.0, 0.0, 0.0, 0.0, 0.0, 0.0, 0.0, 1.6527971657119057E9, 0.0, 2022-05-17 16:19:25.711
145.0, 56591.80064103611, 25314.91521774712, -53115.47852939112, -14502.102375281142, 4119.404151368636, -23310.410774995184, 16485.35030905608, 15241.028695229137, -0.026000000000000002, 1.004, -0.164, 192.0, 0.0, 0.0, 0.0, 0.0, 0.0, 0.0, 0.0, 0.0, 0.0, 1.6527971657119105E9, 0.0, 2022-05-17 16:19:25.711
146.0, 56599.9590277623, 25366.525395694425, -53082.733223764095, -14448.055857188208, 4134.223357942505, -23256.7889400469, 16524.778786275245, 15295.142268555435, -0.028, 1.004, -0.168, 192.0, 255.0, 32.0, 31.0, 96.0, 250.0, 192.0, 0.0, 0.0, 0.0, 1.6527971657119153E9, 0.0, 2022-05-17 16:19:25.711
147.0, 56663.95207213784, 25426.875105723753, -53029.670182427195, -14397.18328680793, 4193.030797604418, -23192.818247415813, 16577.305385745214, 15355.156702417935, -0.028, 1.004, -0.168, 192.0, 0.0, 0.0, 0.0, 0.0, 0.0, 0.0, 0.0, 0.0, 0.0, 1.6527971657119195E9, 0.0, 2022-05-17 16:19:25.711
148.0, 56688.6283980165, 25407.138515369716, -53046.14341809075, -14422.261944086784, 4215.561356015367, -23208.263302834428, 16562.776751849266, 15344.18199589038, -0.028, 1.004, -0.168, 192.0, 0.0, 0.0, 0.0, 0.0, 0.0, 0.0, 0.0, 0.0, 0.0, 1.6527971657119248E9, 0.0, 2022-05-17 16:19:25.711
149.0, 56627.98811530926, 25322.984197495487, -53136.37741045683, -14507.086814294675, 4157.53622740939, -23297.714984144568, 16485.104439867075, 15266.487332163731, -0.028, 1.004, -0.168, 192.0, 0.0, 0.0, 0.0, 0.0, 0.0, 0.0, 0.0, 0.0, 0.0, 1.6527971657119293E9, 0.0, 2022-05-17 16:19:25.711
150.0, 56582.56937057607, 25307.561493821326, -53145.31810823895, -14515.245201020862, 4115.894927489153, -23317.026891353955, 16469.25705304826, 15247.15307320989, -0.028, 1.004, -0.168, 192.0, 0.0, 0.0, 0.0, 0.0, 0.0, 0.0, 0.0, 0.0, 0.0, 1.6527971657119365E9, 0.0, 2022-05-17 16:19:25.711
151.0, 56588.537286345636, 25366.950078839076, -53082.62146504182, -14446.424179842972, 4133.128122464195, -23248.742312042992, 16522.342446129616, 15313.56010598661, -0.028, 1.004, -0.168, 192.0, 0.0, 0.0, 0.0, 0.0, 0.0, 0.0, 0.0, 0.0, 0.0, 1.652797165711941E9, 0.0, 2022-05-17 16:19:25.711
152.0, 56641.73443814927, 25424.192896389115, -53027.12208355929, -14390.768336149256, 4188.918076624641, -23186.313889779318, 16571.985670564853, 15377.866074784528, -0.028, 1.004, -0.168, 192.0, 0.0, 0.0, 0.0, 0.0, 0.0, 0.0, 0.0, 0.0, 0.0, 1.6527971657119455E9, 0.0, 2022-05-17 16:19:25.711
153.0, 56664.75673493824, 25402.26583507846, -53045.87519715729, -14418.99858939631, 4214.600231003789, -23209.067965634822, 16554.506606400802, 15363.85153101105, -0.028, 1.004, -0.168, 192.0, 0.0, 0.0, 0.0, 0.0, 0.0, 0.0, 0.0, 0.0, 0.0, 1.6527971657119508E9, 0.0, 2022-05-17 16:19:25.711
154.0, 56615.35937969201, 25326.336959163782, -53113.57863111242, -14493.7204711104, 4165.269930990927, -23289.534245673927, 16486.22202708984, 15291.633044675953, -0.028, 1.004, -0.168, 192.0, 0.0, 0.0, 0.0, 0.0, 0.0, 0.0, 0.0, 0.0, 0.0, 1.6527971657119558E9, 0.0, 2022-05-17 16:19:25.711
155.0, 56585.09511769952, 25312.54593283486, -53134.36575345585, -14493.586360643669, 4122.891023503665, -23304.822838881355, 16467.200692558374, 15277.864370091484, -0.028, 1.004, -0.168, 192.0, 0.0, 0.0, 0.0, 0.0, 0.0, 0.0, 0.0, 0.0, 0.0, 1.6527971657119603E9, 0.0, 2022-05-17 16:19:25.711
156.0, 56608.56444937759, 25375.711962665555, -53073.36784283732, -14425.704112732901, 4144.415753414125, -23234.191326402586, 16520.867230995565, 15344.763141246218, -0.032, 1.008, -0.168, 192.0, 255.0, 0.0, 31.0, 128.0, 250.0, 192.0, 0.0, 0.0, 0.0, 1.652797165711965E9, 0.0, 2022-05-17 16:19:25.711
157.0, 56655.25724354473, 25426.56218130138, -53031.99476385055, -14385.582731435625, 4188.985131858008, -23177.663764675115, 16561.99444079333, 15390.248941212767, -0.032, 1.008, -0.168, 192.0, 0.0, 0.0, 0.0, 0.0, 0.0, 0.0, 0.0, 0.0, 0.0, 1.65279716571197E9, 0.0, 2022-05-17 16:19:25.711
158.0, 56676.11142112153, 25409.574855515344, -53057.85573218534, -14413.94709514941, 4216.0530943933845, -23195.20988407253, 16552.651411611012, 15376.23439743929, -0.032, 1.008, -0.168, 192.0, 0.0, 0.0, 0.0, 0.0, 0.0, 0.0, 0.0, 0.0, 0.0, 1.6527971657119749E9, 0.0, 2022-05-17 16:19:25.711
159.0, 56631.184414766365, 25333.31070343384, -53115.67969509122, -14489.138363497063, 4164.599378657267, -23279.341850202305, 16483.673928221935, 15309.089757095548, -0.032, 1.008, -0.168, 192.0, 0.0, 0.0, 0.0, 0.0, 0.0, 0.0, 0.0, 0.0, 0.0, 1.6527971657119792E9, 0.0, 2022-05-17 16:19:25.711
160.0, 56588.470231112275, 25307.270921143405, -53124.93331729571, -14506.192744516462, 4112.855090243232, -23305.471039470558, 16455.15310229696, 15287.810896374094, -0.032, 1.008, -0.168, 192.0, 0.0, 0.0, 0.0, 0.0, 0.0, 0.0, 0.0, 0.0, 0.0, 1.652797165711984E9, 0.0, 2022-05-17 16:19:25.711
161.0, 56602.305960930105, 25363.97729682652, -53084.40960459824, -14443.563156552693, 4130.311802662826, -23243.89198349619, 16501.309454597173, 15345.27723136869, -0.032, 1.008, -0.168, 192.0, 0.0, 0.0, 0.0, 0.0, 0.0, 0.0, 0.0, 0.0, 0.0, 1.6527971657119884E9, 0.0, 2022-05-17 16:19:25.711
162.0, 56657.44771450135, 25429.26674238047, -53021.17651953418, -14378.966615076855, 4198.529326740423, -23171.628793672182, 16562.754400104808, 15412.734796134806, -0.032, 1.008, -0.168, 192.0, 0.0, 0.0, 0.0, 0.0, 0.0, 0.0, 0.0, 0.0, 0.0, 1.652797165711993E9, 0.0, 2022-05-17 16:19:25.711
163.0, 56680.91704617942, 25413.106431139284, -53030.00545859402, -14407.196868323908, 4221.529271784934, -23191.29832879285, 16550.349181932113, 15397.043871527181, -0.032, 1.008, -0.168, 192.0, 0.0, 0.0, 0.0, 0.0, 0.0, 0.0, 0.0, 0.0, 0.0, 1.6527971657119975E9, 0.0, 2022-05-17 16:19:25.711
164.0, 56628.27868798718, 25332.573095866814, -53108.661247332246, -14490.099488508642, 4166.141649024684, -23279.543015902404, 16475.49318975129, 15323.216059591301, -0.032, 1.008, -0.168, 192.0, 0.0, 0.0, 0.0, 0.0, 0.0, 0.0, 0.0, 0.0, 0.0, 1.6527971657120023E9, 0.0, 2022-05-17 16:19:25.712
165.0, 56569.71711751427, 25301.168894907107, -53145.54162568351, -14517.748596399857, 4116.945459478553, -23310.120202317263, 16444.334857980593, 15305.64758844943, -0.032, 1.008, -0.168, 192.0, 0.0, 0.0, 0.0, 0.0, 0.0, 0.0, 0.0, 0.0, 0.0, 1.6527971657120068E9, 0.0, 2022-05-17 16:19:25.712
166.0, 56595.891010271436, 25370.191081785095, -53069.45628755764, -14444.434874586448, 4137.821988799809, -23242.64028580669, 16494.089841138106, 15363.829179266595, -0.028, 1.01, -0.164, 192.0, 255.0, 32.0, 31.0, 144.0, 250.0, 224.0, 0.0, 0.0, 0.0, 1.6527971657120113E9, 0.0, 2022-05-17 16:19:25.712
167.0, 56658.49824649075, 25440.263800652483, -53012.14641477423, -14377.401992964984, 4200.138652341206, -23169.86300586021, 16553.61253662259, 15438.595764469597, -0.028, 1.01, -0.164, 192.0, 0.0, 0.0, 0.0, 0.0, 0.0, 0.0, 0.0, 0.0, 0.0, 1.652797165712016E9, 0.0, 2022-05-17 16:19:25.712
168.0, 56672.915121664424, 25415.229846862538, -53046.59045297986, -14412.717749204368, 4216.030742648929, -23193.041764860365, 16532.780710790244, 15403.503525674765, -0.028, 1.01, -0.164, 192.0, 0.0, 0.0, 0.0, 0.0, 0.0, 0.0, 0.0, 0.0, 0.0, 1.6527971657120206E9, 0.0, 2022-05-17 16:19:25.712
169.0, 56620.05324602762, 25338.87628780321, -53127.392009185794, -14486.858485562621, 4176.155230540661, -23265.394361662195, 16466.328974524615, 15331.620315506498, -0.028, 1.01, -0.164, 192.0, 0.0, 0.0, 0.0, 0.0, 0.0, 0.0, 0.0, 0.0, 0.0, 1.6527971657120252E9, 0.0, 2022-05-17 16:19:25.712
170.0, 56575.93090247284, 25314.848162513754, -53144.46874194965, -14497.833192090178, 4135.519759120913, -23283.007536292975, 16450.01220107224, 15321.137347356958, -0.028, 1.01, -0.164, 192.0, 0.0, 0.0, 0.0, 0.0, 0.0, 0.0, 0.0, 0.0, 0.0, 1.6527971657120297E9, 0.0, 2022-05-17 16:19:25.712
171.0, 56596.025120738166, 25376.561328954856, -53080.96743595212, -14432.364932580584, 4151.970643040018, -23216.622855260714, 16503.49992555379, 15378.08959222908, -0.028, 1.01, -0.164, 192.0, 0.0, 0.0, 0.0, 0.0, 0.0, 0.0, 0.0, 0.0, 0.0, 1.652797165712036E9, 0.0, 2022-05-17 16:19:25.712
172.0, 56653.35734526603, 25438.386254118235, -53031.771246405995, -14375.278577241728, 4204.609001232267, -23156.7648836094, 16552.874929055564, 15434.594802212097, -0.028, 1.01, -0.164, 192.0, 0.0, 0.0, 0.0, 0.0, 0.0, 0.0, 0.0, 0.0, 0.0, 1.6527971657120407E9, 0.0, 2022-05-17 16:19:25.712
173.0, 56658.18532206838, 25412.435878805623, -53051.53018850448, -14403.061795599675, 4218.221213605549, -23180.077753076286, 16528.958562488384, 15415.260543258257, -0.028, 1.01, -0.164, 192.0, 0.0, 0.0, 0.0, 0.0, 0.0, 0.0, 0.0, 0.0, 0.0, 1.6527971657120452E9, 0.0, 2022-05-17 16:19:25.712
174.0, 56616.83459482606, 25345.291238461883, -53115.165604968744, -14470.273491176784, 4186.995826601485, -23248.7870155319, 16474.666175206446, 15371.361717148033, -0.028, 1.01, -0.164, 192.0, 0.0, 0.0, 0.0, 0.0, 0.0, 0.0, 0.0, 0.0, 0.0, 1.6527971657120497E9, 0.0, 2022-05-17 16:19:25.712
175.0, 56565.31382385657, 25306.6227205542, -53141.22773900363, -14503.734052626378, 4135.497407376457, -23293.758725375978, 16437.361113710536, 15356.788379763173, -0.028, 1.01, -0.164, 192.0, 0.0, 0.0, 0.0, 0.0, 0.0, 0.0, 0.0, 0.0, 0.0, 1.6527971657120545E9, 0.0, 2022-05-17 16:19:25.712
176.0, 56570.4547250813, 25360.043389802384, -53095.65253205926, -14446.848862987623, 4148.662584860634, -23234.683064780602, 16476.96840488534, 15379.117772474025, -0.028, 1.016, -0.166, 192.0, 255.0, 32.0, 31.0, 192.0, 250.0, 208.0, 0.0, 0.0, 0.0, 1.652797165712059E9, 0.0, 2022-05-17 16:19:25.712
177.0, 56634.760693879216, 25433.066538937874, -53034.58756620736, -14386.65561516948, 4208.341742556303, -23158.307153976817, 16533.495966612812, 15420.222630527334, -0.028, 1.016, -0.166, 192.0, 0.0, 0.0, 0.0, 0.0, 0.0, 0.0, 0.0, 0.0, 0.0, 1.6527971657120636E9, 0.0, 2022-05-17 16:19:25.712
178.0, 56662.40980177043, 25418.135573641728, -53046.63515646877, -14413.768281193768, 4234.023896935451, -23176.032087329877, 16535.88760326953, 15418.546249693187, -0.028, 1.016, -0.166, 192.0, 0.0, 0.0, 0.0, 0.0, 0.0, 0.0, 0.0, 0.0, 0.0, 1.652797165712068E9, 0.0, 2022-05-17 16:19:25.712
179.0, 56614.688827358346, 25332.64015110018, -53122.3405149389, -14485.763250084312, 4187.912248124153, -23263.494463383493, 16467.178340813916, 15349.524062815199, -0.028, 1.016, -0.166, 192.0, 0.0, 0.0, 0.0, 0.0, 0.0, 0.0, 0.0, 0.0, 0.0, 1.6527971657120736E9, 0.0, 2022-05-17 16:19:25.712
180.0, 56568.1524954024, 25305.594540309256, -53148.06737280695, -14512.942971341965, 4141.733544079488, -23293.80342886489, 16442.881994591, 15327.574649760087, -0.028, 1.016, -0.166, 192.0, 0.0, 0.0, 0.0, 0.0, 0.0, 0.0, 0.0, 0.0, 0.0, 1.6527971657120795E9, 0.0, 2022-05-17 16:19:25.712
181.0, 56574.075707683056, 25357.405883956657, -53109.577668854916, -14460.773999783278, 4154.429334930102, -23232.492593823983, 16487.16080035696, 15385.28685394369, -0.028, 1.016, -0.166, 192.0, 0.0, 0.0, 0.0, 0.0, 0.0, 0.0, 0.0, 0.0, 0.0, 1.6527971657121131E9, 0.0, 2022-05-17 16:19:25.712
182.0, 56633.08431304507, 25413.665224750668, -53043.72942968958, -14405.542839234215, 4199.088120351806, -23171.315869249807, 16536.31228641418, 15447.894090163005, -0.028, 1.016, -0.166, 192.0, 0.0, 0.0, 0.0, 0.0, 0.0, 0.0, 0.0, 0.0, 0.0, 1.6527971657121692E9, 0.0, 2022-05-17 16:19:25.712
183.0, 56648.32820276359, 25395.448553019593, -53059.68857523067, -14430.24151685733, 4215.0025624039845, -23200.52959925289, 16523.325922885648, 15428.179851553423, -0.028, 1.016, -0.166, 192.0, 0.0, 0.0, 0.0, 0.0, 0.0, 0.0, 0.0, 0.0, 0.0, 1.6527971657122164E9, 0.0, 2022-05-17 16:19:25.712
184.0, 56608.96678077779, 25326.269903930417, -53125.49211090709, -14505.231619504884, 4170.522590937923, -23274.55857688887, 16460.07048607713, 15360.923452487405, -0.028, 1.016, -0.166, 192.0, 0.0, 0.0, 0.0, 0.0, 0.0, 0.0, 0.0, 0.0, 0.0, 1.652797165712222E9, 0.0, 2022-05-17 16:19:25.712
185.0, 56571.058222181586, 25306.6227205542, -53148.06737280695, -14520.028474334298, 4127.115503205718, -23293.89283584271, 16439.171605011416, 15347.914737214416, -0.032, 1.008, -0.166, 192.0, 255.0, 0.0, 31.0, 128.0, 250.0, 208.0, 0.0, 0.0, 0.0, 1.6527971657122464E9, 0.0, 2022-05-17 16:19:25.712
186.0, 56560.26232960968, 25341.35733143775, -53128.80016908648, -14476.040241246254, 4133.083418975284, -23248.183518431608, 16473.772105428234, 15387.633787111496, -0.032, 1.008, -0.166, 192.0, 0.0, 0.0, 0.0, 0.0, 0.0, 0.0, 0.0, 0.0, 0.0, 1.6527971657122529E9, 0.0, 2022-05-17 16:19:25.712
187.0, 56646.003621340235, 25427.322140612858, -53023.00936257951, -14390.65657742698, 4200.87625990823, -23160.363514466706, 16546.862309797085, 15458.645279246008, -0.032, 1.008, -0.166, 192.0, 0.0, 0.0, 0.0, 0.0, 0.0, 0.0, 0.0, 0.0, 0.0, 1.6527971657122571E9, 0.0, 2022-05-17 16:19:25.712
188.0, 56682.9287031804, 25425.086966167328, -53037.135665075264, -14402.324188032651, 4230.2017486335935, -23162.53163367887, 16542.838995795133, 15456.186587355924, -0.032, 1.008, -0.166, 192.0, 0.0, 0.0, 0.0, 0.0, 0.0, 0.0, 0.0, 0.0, 0.0, 1.652797165712262E9, 0.0, 2022-05-17 16:19:25.712
189.0, 56638.78400788117, 25348.599296641267, -53115.74675032458, -14484.243331461352, 4181.318483509837, -23248.518794598436, 16469.279404792716, 15383.833990554094, -0.032, 1.008, -0.166, 192.0, 0.0, 0.0, 0.0, 0.0, 0.0, 0.0, 0.0, 0.0, 0.0, 1.6527971657122664E9, 0.0, 2022-05-17 16:19:25.712
190.0, 56583.73166128775, 25309.64020605567, -53151.598948430896, -14518.419148733516, 4128.300145661849, -23291.255329996984, 16439.55158466716, 15348.361772103523, -0.032, 1.008, -0.166, 192.0, 0.0, 0.0, 0.0, 0.0, 0.0, 0.0, 0.0, 0.0, 0.0, 1.6527971657122712E9, 0.0, 2022-05-17 16:19:25.712
191.0, 56597.32152191657, 25370.92868935212, -53099.161755938745, -14452.727371779369, 4153.19998898506, -23224.535372797895, 16494.715689982855, 15417.071034559136, -0.032, 1.008, -0.166, 192.0, 0.0, 0.0, 0.0, 0.0, 0.0, 0.0, 0.0, 0.0, 0.0, 1.6527971657122872E9, 0.0, 2022-05-17 16:19:25.712
192.0, 56636.10179854653, 25417.17444863015, -53066.729374734095, -14402.391243266016, 4200.004541874474, -23163.35864822372, 16540.581469605146, 15476.414916087977, -0.032, 1.008, -0.166, 192.0, 0.0, 0.0, 0.0, 0.0, 0.0, 0.0, 0.0, 0.0, 0.0, 1.6527971657123733E9, 0.0, 2022-05-17 16:19:25.712
193.0, 56677.519581022214, 25420.59426553181, -53053.69830771665, -14411.309589303684, 4231.498149812001, -23171.025296571886, 16539.329771915647, 15464.814360715673, -0.032, 1.008, -0.166, 192.0, 0.0, 0.0, 0.0, 0.0, 0.0, 0.0, 0.0, 0.0, 0.0, 1.6527971657124317E9, 0.0, 2022-05-17 16:19:25.712
194.0, 56635.61006016852, 25348.465186174537, -53103.140366451786, -14484.533904139269, 4187.576971957323, -23246.730655042014, 16470.64286120449, 15391.813563324638, -0.032, 1.008, -0.166, 192.0, 0.0, 0.0, 0.0, 0.0, 0.0, 0.0, 0.0, 0.0, 0.0, 1.6527971657124493E9, 0.0, 2022-05-17 16:19:25.712
195.0, 56567.370184346466, 25299.403107095135, -53161.90310262479, -14524.007084847342, 4124.813273526821, -23287.679050884137, 16428.733340350787, 15354.530853573187, -0.028, 1.004, -0.166, 192.0, 255.0, 32.0, 31.0, 96.0, 250.0, 208.0, 0.0, 0.0, 0.0, 1.652797165712454E9, 0.0, 2022-05-17 16:19:25.712
196.0, 56578.72487052976, 25356.981200812006, -53113.57863111242, -14456.14718868103, 4132.859901530731, -23230.659750778646, 16474.755582184265, 15417.205145025868, -0.028, 1.004, -0.166, 192.0, 0.0, 0.0, 0.0, 0.0, 0.0, 0.0, 0.0, 0.0, 0.0, 1.652797165712459E9, 0.0, 2022-05-17 16:19:25.712
197.0, 56645.95891785132, 25427.970341202064, -53038.72263893159, -14384.107516301576, 4187.800489401876, -23157.234270242963, 16535.46292012488, 15486.16027667049, -0.028, 1.004, -0.166, 192.0, 0.0, 0.0, 0.0, 0.0, 0.0, 0.0, 0.0, 0.0, 0.0, 1.652797165712464E9, 0.0, 2022-05-17 16:19:25.712
198.0, 56669.33884255157, 25413.955797428585, -53051.70900246013, -14407.040406112721, 4215.02491414844, -23164.677401146582, 16522.811832763175, 15467.563625283674, -0.028, 1.004, -0.166, 192.0, 0.0, 0.0, 0.0, 0.0, 0.0, 0.0, 0.0, 0.0, 0.0, 1.6527971657124686E9, 0.0, 2022-05-17 16:19:25.712
199.0, 56628.12222577599, 25340.9326482931, -53126.27442196303, -14484.824476817188, 4172.936579339097, -23248.630553320712, 16453.856701118555, 15391.031252268704, -0.028, 1.004, -0.166, 192.0, 0.0, 0.0, 0.0, 0.0, 0.0, 0.0, 0.0, 0.0, 0.0, 1.6527971657124732E9, 0.0, 2022-05-17 16:19:25.712
200.0, 56571.52760881515, 25309.19317116656, -53158.46093397867, -14518.083872566685, 4119.627668813189, -23286.114428772264, 16419.703235590845, 15363.024516466203, -0.028, 1.004, -0.166, 192.0, 0.0, 0.0, 0.0, 0.0, 0.0, 0.0, 0.0, 0.0, 0.0, 1.6527971657124777E9, 0.0, 2022-05-17 16:19:25.712
201.0, 56586.10094620001, 25368.69351490659, -53101.91102050675, -14447.027676943264, 4139.6771835896, -23215.97465467151, 16479.36004154206, 15436.315886535156, -0.028, 1.004, -0.166, 192.0, 0.0, 0.0, 0.0, 0.0, 0.0, 0.0, 0.0, 0.0, 0.0, 1.6527971657124825E9, 0.0, 2022-05-17 16:19:25.712
202.0, 56634.0677898011, 25421.89066671022, -53060.89556943126, -14388.756679148279, 4197.635256962211, -23153.63563938566, 16536.111120714086, 15496.73265179785, -0.028, 1.004, -0.166, 192.0, 0.0, 0.0, 0.0, 0.0, 0.0, 0.0, 0.0, 0.0, 0.0, 1.652797165712487E9, 0.0, 2022-05-17 16:19:25.712
203.0, 56659.68288894688, 25404.97039615755, -53082.800278997456, -14417.009284139787, 4214.667286237155, -23176.389715241163, 16517.02273094925, 15473.218616630867, -0.028, 1.004, -0.166, 192.0, 0.0, 0.0, 0.0, 0.0, 0.0, 0.0, 0.0, 0.0, 0.0, 1.6527971657124915E9, 0.0, 2022-05-17 16:19:25.712
204.0, 56637.06292355811, 25344.173651239118, -53115.880860791316, -14483.10339249413, 4181.7208149100325, -23244.607239318757, 16462.484474478304, 15412.913610090449, -0.028, 1.004, -0.166, 192.0, 0.0, 0.0, 0.0, 0.0, 0.0, 0.0, 0.0, 0.0, 0.0, 1.652797165712496E9, 0.0, 2022-05-17 16:19:25.712
205.0, 56585.63155956645, 25310.981310722986, -53144.736962883115, -14512.294770752762, 4139.297203933859, -23283.40986769317, 16433.002523541752, 15399.100232017068, -0.028, 1.008, -0.168, 192.0, 255.0, 32.0, 31.0, 128.0, 250.0, 192.0, 0.0, 0.0, 0.0, 1.6527971657125013E9, 0.0, 2022-05-17 16:19:25.712
206.0, 56565.31382385657, 25343.704264605556, -53133.203462744175, -14471.10050572163, 4141.755895823943, -23238.572268315827, 16466.038401846698, 15437.902860391481, -0.028, 1.008, -0.168, 192.0, 0.0, 0.0, 0.0, 0.0, 0.0, 0.0, 0.0, 0.0, 0.0, 1.6527971657125056E9, 0.0, 2022-05-17 16:19:25.712
207.0, 56611.80545232361, 25401.416468789157, -53075.46890681612, -14416.606952739592, 4183.397195744181, -23177.39554374165, 16510.876001224042, 15494.385718630043, -0.028, 1.008, -0.168, 192.0, 0.0, 0.0, 0.0, 0.0, 0.0, 0.0, 0.0, 0.0, 0.0, 1.65279716571251E9, 0.0, 2022-05-17 16:19:25.712
208.0, 56655.39135401146, 25409.664262493166, -53058.45922928563, -14419.579734752147, 4215.829576948831, -23173.77456113989, 16511.993588446807, 15482.360480113088, -0.028, 1.008, -0.168, 192.0, 0.0, 0.0, 0.0, 0.0, 0.0, 0.0, 0.0, 0.0, 0.0, 1.6527971657125149E9, 0.0, 2022-05-17 16:19:25.712
209.0, 56625.70823737481, 25347.21348848504, -53116.8866892918, -14485.427973917482, 4180.245599775983, -23234.794823502878, 16459.779913399212, 15409.873772844527, -0.028, 1.008, -0.168, 192.0, 0.0, 0.0, 0.0, 0.0, 0.0, 0.0, 0.0, 0.0, 0.0, 1.6527971657125194E9, 0.0, 2022-05-17 16:19:25.712
210.0, 56571.57231230406, 25307.270921143405, -53148.62616641834, -14517.212154532928, 4124.835625271276, -23273.485693155017, 16420.99963676925, 15379.028365496204, -0.028, 1.008, -0.168, 192.0, 0.0, 0.0, 0.0, 0.0, 0.0, 0.0, 0.0, 0.0, 0.0, 1.652797165712526E9, 0.0, 2022-05-17 16:19:25.712
211.0, 56576.310882128586, 25355.550689166867, -53114.02566600152, -14458.71763929339, 4141.53237837939, -23217.65103550566, 16468.45239024787, 15439.15455808098, -0.028, 1.008, -0.168, 192.0, 0.0, 0.0, 0.0, 0.0, 0.0, 0.0, 0.0, 0.0, 0.0, 1.6527971657125306E9, 0.0, 2022-05-17 16:19:25.712
212.0, 56625.48471993026, 25417.286207352427, -53056.76049670702, -14399.060833342175, 4195.064806349851, -23152.182775996065, 16524.89054499752, 15504.935742012947, -0.028, 1.008, -0.168, 192.0, 0.0, 0.0, 0.0, 0.0, 0.0, 0.0, 0.0, 0.0, 0.0, 1.6527971657125351E9, 0.0, 2022-05-17 16:19:25.712
213.0, 56657.44771450135, 25414.69340499561, -53055.91113041772, -14417.299856817706, 4221.529271784934, -23164.20801451302, 16512.88765822502, 15498.11845995408, -0.028, 1.008, -0.168, 192.0, 0.0, 0.0, 0.0, 0.0, 0.0, 0.0, 0.0, 0.0, 0.0, 1.6527971657125397E9, 0.0, 2022-05-17 16:19:25.712
214.0, 56616.65578087042, 25340.35150293726, -53124.0392475175, -14494.793354844256, 4186.906419623664, -23240.02513170542, 16446.704142892857, 15436.092369090602, -0.028, 1.008, -0.168, 192.0, 0.0, 0.0, 0.0, 0.0, 0.0, 0.0, 0.0, 0.0, 0.0, 1.652797165712546E9, 0.0, 2022-05-17 16:19:25.712
215.0, 56553.89208243991, 25296.787952993865, -53167.312224782974, -14521.280172023795, 4136.726753321499, -23273.418637921648, 16415.746976822255, 15401.827144840616, -0.034, 1.012, -0.168, 192.0, 254.0, 240.0, 31.0, 160.0, 250.0, 192.0, 0.0, 0.0, 0.0, 1.6527971657125506E9, 0.0, 2022-05-17 16:19:25.712
216.0, 56554.76380047367, 25342.09493900477, -53120.820596315934, -14473.000404000331, 4140.794770812366, -23225.58590478729, 16462.193901800383, 15454.644316988508, -0.034, 1.012, -0.168, 192.0, 0.0, 0.0, 0.0, 0.0, 0.0, 0.0, 0.0, 0.0, 0.0, 1.6527971657125552E9, 0.0, 2022-05-17 16:19:25.712
217.0, 56609.77144357818, 25411.005367160484, -53055.665261228714, -14406.794536923711, 4192.159079570661, -23168.745418637445, 16510.83129773513, 15512.512983383296, -0.034, 1.012, -0.168, 192.0, 0.0, 0.0, 0.0, 0.0, 0.0, 0.0, 0.0, 0.0, 0.0, 1.6527971657125597E9, 0.0, 2022-05-17 16:19:25.712
218.0, 56639.63337417047, 25405.953872913586, -53063.287206087974, -14419.42327254096, 4217.505957782979, -23178.557834453328, 16497.017919661754, 15495.190381430433, -0.034, 1.012, -0.168, 192.0, 0.0, 0.0, 0.0, 0.0, 0.0, 0.0, 0.0, 0.0, 0.0, 1.6527971657125645E9, 0.0, 2022-05-17 16:19:25.712
219.0, 56606.44103365434, 25339.25626745895, -53131.169453998744, -14485.383270428572, 4182.436070732602, -23244.31666664084, 16440.892689334476, 15432.918421377948, -0.034, 1.012, -0.168, 192.0, 0.0, 0.0, 0.0, 0.0, 0.0, 0.0, 0.0, 0.0, 0.0, 1.6527971657125688E9, 0.0, 2022-05-17 16:19:25.712
220.0, 56562.743373244215, 25304.074621686297, -53150.97309958615, -14513.211192275428, 4130.602375340745, -23279.27479496894, 16411.075462231096, 15405.828107098116, -0.034, 1.012, -0.168, 192.0, 0.0, 0.0, 0.0, 0.0, 0.0, 0.0, 0.0, 0.0, 0.0, 1.6527971657125735E9, 0.0, 2022-05-17 16:19:25.712
221.0, 56568.01838493567, 25349.582773397302, -53096.94893323767, -14458.315307893195, 4138.179616711094, -23220.243837862476, 16455.10839880805, 15464.72495373785, -0.034, 1.012, -0.168, 192.0, 0.0, 0.0, 0.0, 0.0, 0.0, 0.0, 0.0, 0.0, 0.0, 1.6527971657125783E9, 0.0, 2022-05-17 16:19:25.712
222.0, 56613.68299885786, 25409.418393304157, -53051.50783676003, -14399.329054275639, 4192.337893526304, -23147.600668382725, 16507.232666877826, 15524.091187011147, -0.034, 1.012, -0.168, 192.0, 0.0, 0.0, 0.0, 0.0, 0.0, 0.0, 0.0, 0.0, 0.0, 1.6527971657125828E9, 0.0, 2022-05-17 16:19:25.712
223.0, 56653.80438015514, 25416.034509662928, -53047.21630182461, -14400.938379876421, 4225.150254386694, -23146.10310150422, 16512.150050657994, 15526.661637623507, -0.034, 1.012, -0.168, 192.0, 0.0, 0.0, 0.0, 0.0, 0.0, 0.0, 0.0, 0.0, 0.0, 1.652797165712587E9, 0.0, 2022-05-17 16:19:25.712
224.0, 56622.69075187335, 25349.31455246384, -53107.76717755404, -14473.112162722608, 4186.794660901387, -23224.15539314215, 16448.33582023809, 15456.588918756119, -0.034, 1.012, -0.168, 192.0, 0.0, 0.0, 0.0, 0.0, 0.0, 0.0, 0.0, 0.0, 0.0, 1.652797165712592E9, 0.0, 2022-05-17 16:19:25.712
225.0, 56580.24478915272, 25315.719880547513, -53137.115018023855, -14507.220924761406, 4142.739372579977, -23264.120312228242, 16415.25523844424, 15422.770729395239, -0.038, 1.01, -0.17400000000000002, 192.0, 254.0, 208.0, 31.0, 144.0, 250.0, 144.0, 0.0, 0.0, 0.0, 1.652797165712599E9, 0.0, 2022-05-17 16:19:25.712
226.0, 56556.306070841085, 25341.402034926658, -53118.9877532706, -14471.994575499843, 4140.481846389991, -23222.702529752558, 16443.19491901337, 15466.311927594177, -0.038, 1.01, -0.17400000000000002, 192.0, 0.0, 0.0, 0.0, 0.0, 0.0, 0.0, 0.0, 0.0, 0.0, 1.6527971657126036E9, 0.0, 2022-05-17 16:19:25.712
227.0, 56602.82005105258, 25404.478657779535, -53071.959682936635, -14412.315417804173, 4187.509916723957, -23153.8144533413, 16494.000434160287, 15533.07658828218, -0.038, 1.01, -0.17400000000000002, 192.0, 0.0, 0.0, 0.0, 0.0, 0.0, 0.0, 0.0, 0.0, 0.0, 1.6527971657126093E9, 0.0, 2022-05-17 16:19:25.712
228.0, 56650.004583597736, 25418.515553297468, -53054.011232139026, -14412.51658350427, 4225.463178809068, -23146.6618951156, 16500.5941987746, 15533.858899338114, -0.038, 1.01, -0.17400000000000002, 192.0, 0.0, 0.0, 0.0, 0.0, 0.0, 0.0, 0.0, 0.0, 0.0, 1.6527971657126186E9, 0.0, 2022-05-17 16:19:25.712
229.0, 56614.57706863607, 25350.566250153333, -53114.785625313, -14484.690366350456, 4186.682902179111, -23222.25549486345, 16433.069578775117, 15445.882433162027, -0.038, 1.01, -0.17400000000000002, 192.0, 0.0, 0.0, 0.0, 0.0, 0.0, 0.0, 0.0, 0.0, 0.0, 1.6527971657126255E9, 0.0, 2022-05-17 16:19:25.712
230.0, 56559.18944587582, 25304.029918197386, -53160.51729446856, -14522.665980180023, 4134.558634109335, -23274.357411188772, 16388.52255207569, 15404.576409408619, -0.038, 1.01, -0.17400000000000002, 192.0, 0.0, 0.0, 0.0, 0.0, 0.0, 0.0, 0.0, 0.0, 0.0, 1.6527971657126343E9, 0.0, 2022-05-17 16:19:25.712
231.0, 56563.52568430015, 25344.039540772384, -53125.26859346254, -14470.80993304371, 4138.716058578022, -23228.51398331094, 16425.58174438259, 15457.751209467795, -0.038, 1.01, -0.17400000000000002, 192.0, 0.0, 0.0, 0.0, 0.0, 0.0, 0.0, 0.0, 0.0, 0.0, 1.6527971657126403E9, 0.0, 2022-05-17 16:19:25.712
232.0, 56610.88903080094, 25404.188085101618, -53065.522380533504, -14409.968484636365, 4191.332065025815, -23159.312982477306, 16486.467896278846, 15526.102844012124, -0.038, 1.01, -0.17400000000000002, 192.0, 0.0, 0.0, 0.0, 0.0, 0.0, 0.0, 0.0, 0.0, 0.0, 1.6527971657126453E9, 0.0, 2022-05-17 16:19:25.712
233.0, 56651.30098477614, 25410.491277038014, -53045.69638320165, -14408.985007880332, 4228.368905588259, -23155.11085451971, 16492.815791704154, 15532.406035948521, -0.038, 1.01, -0.17400000000000002, 192.0, 0.0, 0.0, 0.0, 0.0, 0.0, 0.0, 0.0, 0.0, 0.0, 1.6527971657126498E9, 0.0, 2022-05-17 16:19:25.712
234.0, 56625.26120248571, 25350.454491431057, -53099.65349431676, -14471.838113288655, 4201.859736664264, -23220.377948329206, 16439.573936411613, 15472.168084641467, -0.038, 1.01, -0.17400000000000002, 192.0, 0.0, 0.0, 0.0, 0.0, 0.0, 0.0, 0.0, 0.0, 0.0, 1.6527971657126544E9, 0.0, 2022-05-17 16:19:25.712
235.0, 56569.15832390289, 25302.53235131888, -53137.65145989078, -14519.402625489549, 4150.115448250228, -23263.85209129478, 16401.24069467076, 15436.606459213075, -0.028, 1.002, -0.17, 192.0, 255.0, 32.0, 31.0, 80.0, 250.0, 176.0, 0.0, 0.0, 0.0, 1.652797165712662E9, 0.0, 2022-05-17 16:19:25.712
236.0, 56557.82598946405, 25339.546840136867, -53107.38719789829, -14481.29290119325, 4148.416715671625, -23218.65686400615, 16433.717779364324, 15486.137924926035, -0.028, 1.002, -0.17, 192.0, 0.0, 0.0, 0.0, 0.0, 0.0, 0.0, 0.0, 0.0, 0.0, 1.6527971657126667E9, 0.0, 2022-05-17 16:19:25.712
237.0, 56608.43033891086, 25405.350375813294, -53054.68178447268, -14405.65459795649, 4198.238754062504, -23146.192508482043, 16489.284216080217, 15554.489559470363, -0.028, 1.002, -0.17, 192.0, 0.0, 0.0, 0.0, 0.0, 0.0, 0.0, 0.0, 0.0, 0.0, 1.6527971657126713E9, 0.0, 2022-05-17 16:19:25.712
238.0, 56644.08137131708, 25409.999538659995, -53052.513665260514, -14405.676949700946, 4236.571995803356, -23144.87375555918, 16493.374585315538, 15547.404056478032, -0.028, 1.002, -0.17, 192.0, 0.0, 0.0, 0.0, 0.0, 0.0, 0.0, 0.0, 0.0, 0.0, 1.652797165712676E9, 0.0, 2022-05-17 16:19:25.712
239.0, 56612.25248721272, 25347.05702627385, -53101.44163387318, -14470.206435943419, 4205.614829732755, -23221.92021869662, 16434.656552631444, 15473.06215441968, -0.028, 1.002, -0.17, 192.0, 0.0, 0.0, 0.0, 0.0, 0.0, 0.0, 0.0, 0.0, 0.0, 1.6527971657126806E9, 0.0, 2022-05-17 16:19:25.712
240.0, 56559.39061157592, 25306.846237998754, -53133.89636682229, -14506.237448005373, 4144.214587714027, -23266.847225051788, 16390.064822443106, 15435.19829931239, -0.028, 1.002, -0.17, 192.0, 0.0, 0.0, 0.0, 0.0, 0.0, 0.0, 0.0, 0.0, 0.0, 1.652797165712685E9, 0.0, 2022-05-17 16:19:25.712
241.0, 56563.14570464441, 25353.516680421435, -53097.820651271424, -14452.593261312637, 4151.680070362099, -23209.98438715749, 16431.43790142988, 15487.948416226915, -0.028, 1.002, -0.17, 192.0, 0.0, 0.0, 0.0, 0.0, 0.0, 0.0, 0.0, 0.0, 0.0, 1.65279716571269E9, 0.0, 2022-05-17 16:19:25.712
242.0, 56611.62663836797, 25412.435878805623, -53051.619595482305, -14397.22799029684, 4199.110472096261, -23143.39854042513, 16483.338652055103, 15549.41571347901, -0.028, 1.002, -0.17, 192.0, 0.0, 0.0, 0.0, 0.0, 0.0, 0.0, 0.0, 0.0, 0.0, 1.652797165712695E9, 0.0, 2022-05-17 16:19:25.712
243.0, 56658.63235695748, 25418.73907074202, -53042.27656629999, -14400.021958353755, 4231.274632367448, -23144.180851481065, 16479.717669453345, 15549.818044879205, -0.028, 1.002, -0.17, 192.0, 0.0, 0.0, 0.0, 0.0, 0.0, 0.0, 0.0, 0.0, 0.0, 1.6527971661924276E9, 0.0, 2022-05-17 16:19:26.192
244.0, 56624.99298155225, 25354.276639732914, -53105.2861339195, -14466.987784741854, 4198.283457551415, -23212.64424474767, 16422.765424581223, 15488.373099371565, -0.028, 1.002, -0.17, 192.0, 0.0, 0.0, 0.0, 0.0, 0.0, 0.0, 0.0, 0.0, 0.0, 1.6527971661925766E9, 0.0, 2022-05-17 16:19:26.192
245.0, 56564.062126167075, 25309.81902001131, -53156.38222174433, -14507.466793950414, 4145.309823192337, -23259.091169725798, 16383.940444462354, 15452.744418709806, -0.026000000000000002, 1.0, -0.17400000000000002, 192.0, 255.0, 48.0, 31.0, 64.0, 250.0, 144.0, 0.0, 0.0, 0.0, 1.6527971661925812E9, 0.0, 2022-05-17 16:19:26.192
246.0, 56553.512102784174, 25348.129910007705, -53115.8361573024, -14465.892549263544, 4144.214587714027, -23212.241913347472, 16419.546773379658, 15499.034881476748, -0.026000000000000002, 1.0, -0.17400000000000002, 192.0, 0.0, 0.0, 0.0, 0.0, 0.0, 0.0, 0.0, 0.0, 0.0, 1.6527971661925857E9, 0.0, 2022-05-17 16:19:26.192
247.0, 56594.03581548164, 25408.92665492614, -53067.332871834384, -14409.700263702902, 4195.310675538859, -23143.01856076939, 16476.633128718513, 15564.570196219707, -0.026000000000000002, 1.0, -0.17400000000000002, 192.0, 0.0, 0.0, 0.0, 0.0, 0.0, 0.0, 0.0, 0.0, 0.0, 1.65279716619259E9, 0.0, 2022-05-17 16:19:26.192
248.0, 56640.59449918205, 25419.36491958677, -53039.68376394317, -14398.434984497428, 4231.0287631784395, -23142.549174135827, 16476.476666507326, 15561.865635140615, -0.026000000000000002, 1.0, -0.17400000000000002, 192.0, 0.0, 0.0, 0.0, 0.0, 0.0, 0.0, 0.0, 0.0, 0.0, 1.652797166192594E9, 0.0, 2022-05-17 16:19:26.192
249.0, 56621.751978606226, 25354.276639732914, -53104.36971239683, -14468.641813831546, 4201.435053519614, -23216.55580002735, 16414.24940994375, 15492.06113720669, -0.026000000000000002, 1.0, -0.17400000000000002, 192.0, 0.0, 0.0, 0.0, 0.0, 0.0, 0.0, 0.0, 0.0, 0.0, 1.6527971661925983E9, 0.0, 2022-05-17 16:19:26.192
250.0, 56549.24291959321, 25297.793781494354, -53172.94486438571, -14520.296695267762, 4141.085343490284, -23268.54595763039, 16367.891891943444, 15445.971840139848, -0.026000000000000002, 1.0, -0.17400000000000002, 192.0, 0.0, 0.0, 0.0, 0.0, 0.0, 0.0, 0.0, 0.0, 0.0, 1.6527971661926024E9, 0.0, 2022-05-17 16:19:26.192
251.0, 56561.89400695491, 25356.422407200625, -53086.80124125496, -14453.554386324215, 4155.278701219404, -23203.234160331984, 16420.61965711351, 15509.517849626285, -0.026000000000000002, 1.0, -0.17400000000000002, 192.0, 0.0, 0.0, 0.0, 0.0, 0.0, 0.0, 0.0, 0.0, 0.0, 1.6527971661926067E9, 0.0, 2022-05-17 16:19:26.192
252.0, 56613.638295368946, 25416.45919280758, -53035.92867087468, -14395.305740273685, 4208.2523355784815, -23128.936961762545, 16476.54372174069, 15578.741202204372, -0.026000000000000002, 1.0, -0.17400000000000002, 192.0, 0.0, 0.0, 0.0, 0.0, 0.0, 0.0, 0.0, 0.0, 0.0, 1.6527971661926107E9, 0.0, 2022-05-17 16:19:26.192
253.0, 56633.17372002289, 25404.12102986825, -53047.842150669356, -14417.255153328795, 4240.081219682839, -23134.860174043202, 16468.385335014504, 15565.03958285327, -0.026000000000000002, 1.0, -0.17400000000000002, 192.0, 0.0, 0.0, 0.0, 0.0, 0.0, 0.0, 0.0, 0.0, 0.0, 1.6527971661926148E9, 0.0, 2022-05-17 16:19:26.192
254.0, 56601.76951906318, 25340.01622677043, -53108.8847647768, -14491.552351898235, 4207.067693122351, -23198.428535274095, 16411.38838665347, 15497.246741920322, -0.026000000000000002, 1.0, -0.17400000000000002, 192.0, 0.0, 0.0, 0.0, 0.0, 0.0, 0.0, 0.0, 0.0, 0.0, 1.652797166192619E9, 0.0, 2022-05-17 16:19:26.192
255.0, 56550.13698937142, 25294.44101982606, -53155.286986266015, -14528.499785482858, 4143.946366780564, -23252.60916383376, 16365.634365753456, 15454.554910010685, -0.018000000000000002, 1.004, -0.168, 192.0, 255.0, 112.0, 31.0, 96.0, 250.0, 192.0, 0.0, 0.0, 0.0, 1.6527971661926231E9, 0.0, 2022-05-17 16:19:26.192
0.0, 56541.57627124504, 25335.34471217927, -53127.23554697461, -14469.66999407649, 4149.221378472016, -23220.556762284847, 16402.134764448972, 15505.941570513436, -0.018000000000000002, 1.004, -0.168, 192.0, 0.0, 0.0, 0.0, 0.0, 0.0, 0.0, 0.0, 0.0, 0.0, 1.652797166192636E9, 0.0, 2022-05-17 16:19:26.192
1.0, 56598.617923094986, 25414.961625929074, -53039.92963313218, -14389.963673348866, 4211.381579802225, -23141.14101423514, 16470.21817805984, 15574.18144633549, -0.018000000000000002, 1.004, -0.168, 192.0, 0.0, 0.0, 0.0, 0.0, 0.0, 0.0, 0.0, 0.0, 0.0, 1.65279716619264E9, 0.0, 2022-05-17 16:19:26.192
2.0, 56634.7159903903, 25428.66324528018, -53036.085133085864, -14392.154144305487, 4248.820751764864, -23131.418005397085, 16482.891617166, 15577.042469625769, -0.018000000000000002, 1.004, -0.168, 192.0, 0.0, 0.0, 0.0, 0.0, 0.0, 0.0, 0.0, 0.0, 0.0, 1.6527971661926441E9, 0.0, 2022-05-17 16:19:26.192
3.0, 56588.738452045734, 25344.285409961394, -53123.03341901701, -14475.794372057246, 4203.334951798314, -23219.88620995119, 16404.72756680579, 15496.464430864387, -0.018000000000000002, 1.004, -0.168, 192.0, 0.0, 0.0, 0.0, 0.0, 0.0, 0.0, 0.0, 0.0, 0.0, 1.6527971661926482E9, 0.0, 2022-05-17 16:19:26.192
4.0, 56532.63557346292, 25291.91527270261, -53140.17720701423, -14519.49203246737, 4143.6781458471, -23273.150416988185, 16350.61399347949, 15457.840616445616, -0.018000000000000002, 1.004, -0.168, 192.0, 0.0, 0.0, 0.0, 0.0, 0.0, 0.0, 0.0, 0.0, 0.0, 1.6527971661926527E9, 0.0, 2022-05-17 16:19:26.192
5.0, 56542.112713111965, 25341.849069815766, -53088.05293894446, -14465.065534718697, 4145.108657492239, -23218.567457028326, 16392.188238166364, 15506.433308891454, -0.018000000000000002, 1.004, -0.168, 192.0, 0.0, 0.0, 0.0, 0.0, 0.0, 0.0, 0.0, 0.0, 0.0, 1.6527971661926568E9, 0.0, 2022-05-17 16:19:26.192
6.0, 56588.00084447871, 25405.64094849121, -53042.1201040888, -14403.665292699969, 4192.315541781848, -23147.95829629401, 16451.576823184114, 15562.849111896649, -0.018000000000000002, 1.004, -0.168, 192.0, 0.0, 0.0, 0.0, 0.0, 0.0, 0.0, 0.0, 0.0, 0.0, 1.6527971661926613E9, 0.0, 2022-05-17 16:19:26.192
7.0, 56627.138749019956, 25406.6467769917, -53050.90433965973, -14407.643903213013, 4228.480664310535, -23144.00203752542, 16457.142407553485, 15565.956004375936, -0.018000000000000002, 1.004, -0.168, 192.0, 0.0, 0.0, 0.0, 0.0, 0.0, 0.0, 0.0, 0.0, 0.0, 1.652797166192665E9, 0.0, 2022-05-17 16:19:26.192
8.0, 56593.991111992735, 25338.362197680737, -53108.41537814324, -14482.298729693739, 4197.188222073105, -23213.135983125685, 16395.00455796773, 15495.927988997459, -0.018000000000000002, 1.004, -0.168, 192.0, 0.0, 0.0, 0.0, 0.0, 0.0, 0.0, 0.0, 0.0, 0.0, 1.6527971661926694E9, 0.0, 2022-05-17 16:19:26.192
9.0, 56540.659849722375, 25295.089220415262, -53147.55328268448, -14519.760253400835, 4142.515855135423, -23256.677181324623, 16356.961888904798, 15452.476197776343, -0.018000000000000002, 1.012, -0.176, 192.0, 255.0, 112.0, 31.0, 160.0, 250.0, 128.0, 0.0, 0.0, 0.0, 1.6527971661926737E9, 0.0, 2022-05-17 16:19:26.192
10.0, 56546.56071025857, 25346.49823266247, -53093.55146808046, -14457.62240381508, 4147.38853542668, -23203.725898710003, 16411.746014564756, 15508.489669381343, -0.018000000000000002, 1.012, -0.176, 192.0, 0.0, 0.0, 0.0, 0.0, 0.0, 0.0, 0.0, 0.0, 0.0, 1.652797166192678E9, 0.0, 2022-05-17 16:19:26.192
11.0, 56593.45467012581, 25413.97814917304, -53034.85578714083, -14391.617702438558, 4200.317466296848, -23123.304322159805, 16483.98685264431, 15585.625539496607, -0.018000000000000002, 1.012, -0.176, 192.0, 0.0, 0.0, 0.0, 0.0, 0.0, 0.0, 0.0, 0.0, 0.0, 1.652797166192682E9, 0.0, 2022-05-17 16:19:26.192
12.0, 56615.873469814476, 25406.669128736154, -53051.39607803775, -14410.571981736659, 4224.077370652839, -23130.47923212996, 16483.808038688665, 15579.344699304665, -0.018000000000000002, 1.012, -0.176, 192.0, 0.0, 0.0, 0.0, 0.0, 0.0, 0.0, 0.0, 0.0, 0.0, 1.6527971661926863E9, 0.0, 2022-05-17 16:19:26.192
13.0, 56586.97266423377, 25344.01718902793, -53104.16854669673, -14475.34733716814, 4191.823803403831, -23211.16902961362, 16429.00156128425, 15502.231180933855, -0.018000000000000002, 1.012, -0.176, 192.0, 0.0, 0.0, 0.0, 0.0, 0.0, 0.0, 0.0, 0.0, 0.0, 1.6527971661926904E9, 0.0, 2022-05-17 16:19:26.192
14.0, 56535.071913608546, 25300.38658385117, -53139.908986080765, -14514.239372520373, 4132.301107919348, -23263.092131983296, 16388.209627653316, 15438.953392380881, -0.018000000000000002, 1.012, -0.176, 192.0, 0.0, 0.0, 0.0, 0.0, 0.0, 0.0, 0.0, 0.0, 0.0, 1.6527971661926944E9, 0.0, 2022-05-17 16:19:26.192
15.0, 56536.882404909426, 25342.698436105067, -53099.40762512775, -14466.607805086114, 4135.385648654181, -23221.27201810742, 16439.216308500327, 15491.055308706202, -0.018000000000000002, 1.012, -0.176, 192.0, 0.0, 0.0, 0.0, 0.0, 0.0, 0.0, 0.0, 0.0, 0.0, 1.6527971661926987E9, 0.0, 2022-05-17 16:19:26.192
16.0, 56601.56835336308, 25418.31438759737, -53033.0676475844, -14384.46514421286, 4199.2669343074485, -23143.219726469484, 16519.07909143914, 15570.404001522542, -0.018000000000000002, 1.012, -0.176, 192.0, 0.0, 0.0, 0.0, 0.0, 0.0, 0.0, 0.0, 0.0, 0.0, 1.6527971661927028E9, 0.0, 2022-05-17 16:19:26.192
17.0, 56645.713048662314, 25419.968416687065, -53020.55067068943, -14393.785821650723, 4236.147312658705, -23138.838784556247, 16526.209297920384, 15557.21647229391, -0.018000000000000002, 1.012, -0.176, 192.0, 0.0, 0.0, 0.0, 0.0, 0.0, 0.0, 0.0, 0.0, 0.0, 1.6527971661927068E9, 0.0, 2022-05-17 16:19:26.192
18.0, 56603.423548152874, 25341.469090160026, -53102.40275888476, -14480.823514559688, 4188.180469057616, -23221.674349507615, 16464.339669268094, 15479.857084734092, -0.034, 1.016, -0.176, 192.0, 254.0, 240.0, 31.0, 192.0, 250.0, 128.0, 0.0, 0.0, 0.0, 1.652797166192711E9, 0.0, 2022-05-17 16:19:26.192
19.0, 56556.48488479673, 25300.408935595624, -53135.796265100995, -14514.597000431659, 4130.602375340745, -23262.332172671817, 16432.91311656393, 15454.800779199693, -0.034, 1.016, -0.176, 192.0, 0.0, 0.0, 0.0, 0.0, 0.0, 0.0, 0.0, 0.0, 0.0, 1.6527971661927156E9, 0.0, 2022-05-17 16:19:26.192
20.0, 56551.12046612745, 25331.522563877414, -53100.636971072796, -14471.234616188362, 4118.9124129906195, -23228.089300166288, 16463.44559948988, 15500.621855333075, -0.034, 1.016, -0.176, 192.0, 0.0, 0.0, 0.0, 0.0, 0.0, 0.0, 0.0, 0.0, 0.0, 1.6527971661927197E9, 0.0, 2022-05-17 16:19:26.192
21.0, 56606.12810923196, 25401.32706181134, -53037.58269996437, -14397.473859485848, 4174.411794473147, -23159.312982477306, 16529.427949121946, 15564.056106097236, -0.034, 1.016, -0.176, 192.0, 0.0, 0.0, 0.0, 0.0, 0.0, 0.0, 0.0, 0.0, 0.0, 1.6527971661927238E9, 0.0, 2022-05-17 16:19:26.192
22.0, 56653.60321445504, 25415.542771284912, -53030.83247313887, -14390.701280915891, 4213.706161225577, -23150.841671328744, 16541.252021938806, 15570.918091645015, -0.034, 1.016, -0.176, 192.0, 0.0, 0.0, 0.0, 0.0, 0.0, 0.0, 0.0, 0.0, 0.0, 1.6527971661927297E9, 0.0, 2022-05-17 16:19:26.192
23.0, 56642.76261839421, 25361.384494469705, -53084.92369472071, -14451.162749667497, 4189.990960358496, -23209.246779590463, 16499.40955631847, 15517.609181119107, -0.034, 1.016, -0.176, 192.0, 0.0, 0.0, 0.0, 0.0, 0.0, 0.0, 0.0, 0.0, 0.0, 1.652797166192734E9, 0.0, 2022-05-17 16:19:26.192
24.0, 56589.654873568405, 25303.940511219564, -53134.589270900404, -14510.39487247406, 4121.281697902882, -23267.070742496344, 16448.179358026908, 15465.909596193982, -0.034, 1.016, -0.176, 192.0, 0.0, 0.0, 0.0, 0.0, 0.0, 0.0, 0.0, 0.0, 0.0, 1.652797166192738E9, 0.0, 2022-05-17 16:19:26.192
25.0, 56591.9571032473, 25350.387436197692, -53092.97032272462, -14465.221996929884, 4114.531471077379, -23226.524678054415, 16487.920759668443, 15509.473146137376, -0.034, 1.016, -0.176, 192.0, 0.0, 0.0, 0.0, 0.0, 0.0, 0.0, 0.0, 0.0, 0.0, 1.6527971661927435E9, 0.0, 2022-05-17 16:19:26.192
26.0, 56644.21548178381, 25419.543733542414, -53040.37666802129, -14387.326167503139, 4165.739317624488, -23151.109892262208, 16552.13732148854, 15584.954987162948, -0.034, 1.016, -0.176, 192.0, 0.0, 0.0, 0.0, 0.0, 0.0, 0.0, 0.0, 0.0, 0.0, 1.6527971661927478E9, 0.0, 2022-05-17 16:19:26.192
27.0, 56676.60315949955, 25411.877085194243, -53043.95294713414, -14396.244513540807, 4192.6955214375885, -23149.925249806078, 16548.784559820244, 15588.330100575698, -0.034, 1.016, -0.176, 192.0, 0.0, 0.0, 0.0, 0.0, 0.0, 0.0, 0.0, 0.0, 0.0, 1.6527971661927526E9, 0.0, 2022-05-17 16:19:26.192
28.0, 56654.7208016778, 25344.799500083867, -53089.55050582296, -14466.38428764156, 4162.29714897837, -23215.12528838221, 16495.386242316516, 15526.952210301426, -0.028, 1.008, -0.17200000000000001, 192.0, 255.0, 32.0, 31.0, 128.0, 250.0, 160.0, 0.0, 0.0, 0.0, 1.6527971661927571E9, 0.0, 2022-05-17 16:19:26.192
29.0, 56610.0620162561, 25301.079487929284, -53126.25207021857, -14502.795279359256, 4121.371104880704, -23259.158224959163, 16466.105457080062, 15488.26134064929, -0.028, 1.008, -0.17200000000000001, 192.0, 0.0, 0.0, 0.0, 0.0, 0.0, 0.0, 0.0, 0.0, 0.0, 1.6527971661927617E9, 0.0, 2022-05-17 16:19:26.192
30.0, 56597.768556805684, 25321.866610272722, -53108.12480546532, -14470.206435943419, 4114.15149142164, -23229.765681000434, 16488.88188468002, 15522.414806176997, -0.028, 1.008, -0.17200000000000001, 192.0, 0.0, 0.0, 0.0, 0.0, 0.0, 0.0, 0.0, 0.0, 0.0, 1.652797166192766E9, 0.0, 2022-05-17 16:19:26.192
31.0, 56654.83256040008, 25390.88879715071, -53035.83926389686, -14398.479687986337, 4167.01336705844, -23153.747398107935, 16551.37736217706, 15596.734356490893, -0.028, 1.008, -0.17200000000000001, 192.0, 0.0, 0.0, 0.0, 0.0, 0.0, 0.0, 0.0, 0.0, 0.0, 1.65279716619277E9, 0.0, 2022-05-17 16:19:26.192
32.0, 56687.5778660271, 25390.307651794872, -53040.80135116594, -14408.582676480137, 4196.741187183999, -23153.747398107935, 16550.527995887758, 15598.544847791774, -0.028, 1.008, -0.17200000000000001, 192.0, 0.0, 0.0, 0.0, 0.0, 0.0, 0.0, 0.0, 0.0, 0.0, 1.6527971661927743E9, 0.0, 2022-05-17 16:19:26.192
33.0, 56655.525464478196, 25321.307816661338, -53121.06646550494, -14484.15392448353, 4158.273834976415, -23225.87647746521, 16480.745849698287, 15527.890983568548, -0.028, 1.008, -0.17200000000000001, 192.0, 0.0, 0.0, 0.0, 0.0, 0.0, 0.0, 0.0, 0.0, 0.0, 1.6527971661927783E9, 0.0, 2022-05-17 16:19:26.192
34.0, 56618.734493104756, 25284.360383076717, -53151.50954145307, -14520.296695267762, 4104.540241305857, -23271.65285010968, 16441.16091026794, 15486.652015048507, -0.028, 1.008, -0.17200000000000001, 192.0, 0.0, 0.0, 0.0, 0.0, 0.0, 0.0, 0.0, 0.0, 0.0, 1.6527971661927824E9, 0.0, 2022-05-17 16:19:26.192
35.0, 56620.45557742782, 25325.956979508042, -53111.119939222335, -14471.413430144004, 4108.585907052267, -23232.716111268535, 16474.01797461724, 15530.640248136551, -0.028, 1.008, -0.17200000000000001, 192.0, 0.0, 0.0, 0.0, 0.0, 0.0, 0.0, 0.0, 0.0, 0.0, 1.6527971661927867E9, 0.0, 2022-05-17 16:19:26.192
36.0, 56659.705240691335, 25386.55255872638, -53066.19293286717, -14416.338731806129, 4149.511951149935, -23164.409180213115, 16524.734082786334, 15593.918036689525, -0.028, 1.008, -0.17200000000000001, 192.0, 0.0, 0.0, 0.0, 0.0, 0.0, 0.0, 0.0, 0.0, 0.0, 1.6527971661927907E9, 0.0, 2022-05-17 16:19:26.192
37.0, 56701.592409800585, 25398.756611198976, -53058.86156068582, -14412.293066059718, 4187.6887306796, -23159.96118306651, 16533.294800912714, 15603.886914716591, -0.028, 1.008, -0.17200000000000001, 192.0, 0.0, 0.0, 0.0, 0.0, 0.0, 0.0, 0.0, 0.0, 0.0, 1.6527971661927948E9, 0.0, 2022-05-17 16:19:26.192
38.0, 56674.85972343203, 25333.467165645026, -53123.52515739503, -14467.77009579779, 4166.499276935969, -23225.496497809472, 16478.22010257484, 15542.799597120238, -0.024, 1.006, -0.168, 192.0, 255.0, 64.0, 31.0, 112.0, 250.0, 192.0, 0.0, 0.0, 0.0, 1.652797166192799E9, 0.0, 2022-05-17 16:19:26.192
39.0, 56618.84625182704, 25282.70635398702, -53160.42788749074, -14516.16162254353, 4109.658790786122, -23275.162073989162, 16432.510785163737, 15501.471221622376, -0.024, 1.006, -0.168, 192.0, 0.0, 0.0, 0.0, 0.0, 0.0, 0.0, 0.0, 0.0, 0.0, 1.6527971661928031E9, 0.0, 2022-05-17 16:19:26.192
40.0, 56611.961914534804, 25320.77137479441, -53116.46200614715, -14470.251139432328, 4103.936744205564, -23232.31377986834, 16468.430038503415, 15554.55661470373, -0.024, 1.006, -0.168, 192.0, 0.0, 0.0, 0.0, 0.0, 0.0, 0.0, 0.0, 0.0, 0.0, 1.6527971661928072E9, 0.0, 2022-05-17 16:19:26.192
41.0, 56658.40883951293, 25386.06082034836, -53048.08801985837, -14401.005435109788, 4161.581893155801, -23163.15748252362, 16528.153899687994, 15626.462176616453, -0.024, 1.006, -0.168, 192.0, 0.0, 0.0, 0.0, 0.0, 0.0, 0.0, 0.0, 0.0, 0.0, 1.6527971661928113E9, 0.0, 2022-05-17 16:19:26.192
42.0, 56694.48455506379, 25395.470904764046, -53048.199778580645, -14397.250342041296, 4199.646913963189, -23160.028238299878, 16535.731141058342, 15630.083159218213, -0.024, 1.006, -0.168, 192.0, 0.0, 0.0, 0.0, 0.0, 0.0, 0.0, 0.0, 0.0, 0.0, 1.6527971661928155E9, 0.0, 2022-05-17 16:19:26.192
43.0, 56669.65176697395, 25331.25434294395, -53108.68359907671, -14465.646680074535, 4168.577989170312, -23229.74332925598, 16473.481532750313, 15557.484693227374, -0.024, 1.006, -0.168, 192.0, 0.0, 0.0, 0.0, 0.0, 0.0, 0.0, 0.0, 0.0, 0.0, 1.6527971661928215E9, 0.0, 2022-05-17 16:19:26.192
44.0, 56614.93469654736, 25280.80645570832, -53164.67471893725, -14508.942009084465, 4114.9785059664855, -23276.883158312223, 16428.286305461683, 15515.999855518325, -0.024, 1.006, -0.168, 192.0, 0.0, 0.0, 0.0, 0.0, 0.0, 0.0, 0.0, 0.0, 0.0, 1.6527971661928256E9, 0.0, 2022-05-17 16:19:26.192
45.0, 56604.09410048653, 25315.943397992065, -53137.51734942405, -14462.048049217232, 4111.022247197896, -23231.84439323478, 16459.06465757664, 15562.022097351803, -0.024, 1.006, -0.168, 192.0, 0.0, 0.0, 0.0, 0.0, 0.0, 0.0, 0.0, 0.0, 0.0, 1.6527971661928298E9, 0.0, 2022-05-17 16:19:26.192
46.0, 56642.33793524956, 25374.25909927596, -53076.430031827695, -14404.179382822442, 4148.349660438259, -23166.62200291419, 16511.50185006879, 15630.865470274148, -0.024, 1.006, -0.168, 192.0, 0.0, 0.0, 0.0, 0.0, 0.0, 0.0, 0.0, 0.0, 0.0, 1.652797166192834E9, 0.0, 2022-05-17 16:19:26.192
47.0, 56680.98410141279, 25383.155093569174, -53056.514627518016, -14403.620589211057, 4179.709157909055, -23166.912575592112, 16511.859477980077, 15620.606019569163, -0.024, 1.006, -0.168, 192.0, 0.0, 0.0, 0.0, 0.0, 0.0, 0.0, 0.0, 0.0, 0.0, 1.652797166192838E9, 0.0, 2022-05-17 16:19:26.192
48.0, 56659.39231626896, 25327.745119064468, -53109.35415141036, -14461.221034672384, 4163.258273989949, -23229.36334960024, 16460.584576199602, 15564.391382264064, -0.024, 1.012, -0.164, 192.0, 255.0, 64.0, 31.0, 160.0, 250.0, 224.0, 0.0, 0.0, 0.0, 1.6527971661928425E9, 0.0, 2022-05-17 16:19:26.192
49.0, 56598.752033561716, 25273.85506318272, -53159.46676247916, -14509.992541073865, 4114.822043755298, -23275.922033300645, 16418.675055345902, 15525.722864356383, -0.024, 1.012, -0.164, 192.0, 0.0, 0.0, 0.0, 0.0, 0.0, 0.0, 0.0, 0.0, 0.0, 1.6527971661928463E9, 0.0, 2022-05-17 16:19:26.192
50.0, 56593.45467012581, 25311.473049101, -53127.682581863715, -14472.933348766965, 4114.0397326993625, -23233.096090924275, 16453.92375635192, 15568.101771843645, -0.024, 1.012, -0.164, 192.0, 0.0, 0.0, 0.0, 0.0, 0.0, 0.0, 0.0, 0.0, 0.0, 1.6527971661928508E9, 0.0, 2022-05-17 16:19:26.192
51.0, 56650.58572895357, 25392.07343960684, -53042.34362153335, -14387.348519247595, 4170.589646171289, -23153.322714963284, 16520.420196106457, 15646.757560581871, -0.024, 1.012, -0.164, 192.0, 0.0, 0.0, 0.0, 0.0, 0.0, 0.0, 0.0, 0.0, 0.0, 1.6527971661928551E9, 0.0, 2022-05-17 16:19:26.192
52.0, 56694.81983123063, 25406.959701414075, -53026.093903314344, -14387.013243080764, 4208.878184423231, -23136.80477581081, 16527.975085732352, 15654.021877529845, -0.024, 1.012, -0.164, 192.0, 0.0, 0.0, 0.0, 0.0, 0.0, 0.0, 0.0, 0.0, 0.0, 1.6527971661928592E9, 0.0, 2022-05-17 16:19:26.192
53.0, 56659.81699941361, 25332.081357488794, -53111.07523573342, -14472.508665622314, 4170.96962582703, -23214.74530872647, 16455.77895114171, 15578.584739993184, -0.024, 1.012, -0.164, 192.0, 0.0, 0.0, 0.0, 0.0, 0.0, 0.0, 0.0, 0.0, 0.0, 1.6527971661928632E9, 0.0, 2022-05-17 16:19:26.192
54.0, 56598.48381262825, 25279.152426618628, -53168.58627421693, -14522.7777389023, 4115.425540855592, -23274.402114677683, 16406.58276159558, 15528.270963224288, -0.024, 1.012, -0.164, 192.0, 0.0, 0.0, 0.0, 0.0, 0.0, 0.0, 0.0, 0.0, 0.0, 1.6527971661928675E9, 0.0, 2022-05-17 16:19:26.192
55.0, 56594.281684670656, 25316.591598581268, -53115.25501194657, -14470.318194665695, 4125.327363649293, -23233.498422324472, 16442.81493935763, 15574.89670215806, -0.024, 1.012, -0.164, 192.0, 0.0, 0.0, 0.0, 0.0, 0.0, 0.0, 0.0, 0.0, 0.0, 1.6527971661928732E9, 0.0, 2022-05-17 16:19:26.192
56.0, 56630.692676388346, 25376.561328954856, -53054.32415656139, -14403.151202577497, 4169.472058948524, -23166.264375002906, 16494.78274521622, 15642.95776402447, -0.024, 1.012, -0.164, 192.0, 0.0, 0.0, 0.0, 0.0, 0.0, 0.0, 0.0, 0.0, 0.0, 1.6527971661928773E9, 0.0, 2022-05-17 16:19:26.192
57.0, 56669.18238034039, 25389.77120992794, -53048.44564776965, -14398.345577519605, 4202.0832541088175, -23152.853328329722, 16498.31432084016, 15658.492226420907, -0.024, 1.012, -0.164, 192.0, 0.0, 0.0, 0.0, 0.0, 0.0, 0.0, 0.0, 0.0, 0.0, 1.6527971661928816E9, 0.0, 2022-05-17 16:19:26.192
58.0, 56646.40595274043, 25331.321398177315, -53091.182183168195, -14462.852712017622, 4175.127050295717, -23212.46543079203, 16443.35138122456, 15593.716870989427, -0.02, 1.016, -0.166, 192.0, 255.0, 96.0, 31.0, 192.0, 250.0, 208.0, 0.0, 0.0, 0.0, 1.6527971661928864E9, 0.0, 2022-05-17 16:19:26.192
59.0, 56595.26516142669, 25284.718010988, -53136.39976220128, -14504.158735771029, 4122.555747336834, -23260.94636451559, 16396.18920042386, 15545.280640754778, -0.02, 1.016, -0.166, 192.0, 0.0, 0.0, 0.0, 0.0, 0.0, 0.0, 0.0, 0.0, 0.0, 1.6527971661928916E9, 0.0, 2022-05-17 16:19:26.192
60.0, 56576.24382689522, 25315.943397992065, -53119.300677692976, -14467.77009579779, 4110.128177419684, -23229.74332925598, 16414.85290704404, 15579.590568493673, -0.02, 1.016, -0.166, 192.0, 0.0, 0.0, 0.0, 0.0, 0.0, 0.0, 0.0, 0.0, 0.0, 1.652797166192896E9, 0.0, 2022-05-17 16:19:26.192
61.0, 56627.56343216461, 25389.368878527748, -53050.94904314865, -14388.399051236995, 4160.039622788385, -23148.91942130559, 16481.01407063175, 15654.513615907863, -0.02, 1.016, -0.166, 192.0, 0.0, 0.0, 0.0, 0.0, 0.0, 0.0, 0.0, 0.0, 0.0, 1.6527971661929E9, 0.0, 2022-05-17 16:19:26.192
62.0, 56672.13281060849, 25401.32706181134, -53049.74204894806, -14388.309644259172, 4195.40008251668, -23142.415063669094, 16488.859532935563, 15660.749752610893, -0.02, 1.016, -0.166, 192.0, 0.0, 0.0, 0.0, 0.0, 0.0, 0.0, 0.0, 0.0, 0.0, 1.652797166192904E9, 0.0, 2022-05-17 16:19:26.192
63.0, 56657.55947322363, 25345.64886637317, -53085.4824883321, -14451.565081067693, 4176.82578287432, -23207.480991778495, 16433.40485494195, 15606.077385673212, -0.02, 1.016, -0.166, 192.0, 0.0, 0.0, 0.0, 0.0, 0.0, 0.0, 0.0, 0.0, 0.0, 1.6527971661929085E9, 0.0, 2022-05-17 16:19:26.192
64.0, 56594.92988525986, 25284.896824943644, -53135.81861684545, -14507.422090461505, 4112.430407098581, -23274.13389374422, 16375.960871691808, 15556.434161237976, -0.02, 1.016, -0.166, 192.0, 0.0, 0.0, 0.0, 0.0, 0.0, 0.0, 0.0, 0.0, 0.0, 1.6527971661929147E9, 0.0, 2022-05-17 16:19:26.192
65.0, 56579.50718158569, 25318.91618000462, -53108.63889558779, -14465.445514374438, 4108.205927396528, -23229.855087978256, 16410.78488955318, 15588.598321509162, -0.02, 1.016, -0.166, 192.0, 0.0, 0.0, 0.0, 0.0, 0.0, 0.0, 0.0, 0.0, 0.0, 1.652797166192919E9, 0.0, 2022-05-17 16:19:26.192
66.0, 56637.621717169495, 25399.74008795501, -53027.74793240404, -14384.040461068209, 4172.713061894544, -23140.9622002795, 16484.657404977967, 15672.95380508349, -0.02, 1.016, -0.166, 192.0, 0.0, 0.0, 0.0, 0.0, 0.0, 0.0, 0.0, 0.0, 0.0, 1.6527971661929233E9, 0.0, 2022-05-17 16:19:26.192
67.0, 56673.36215655353, 25410.156000871182, -53016.88498459876, -14380.151257532985, 4209.682847223621, -23132.133261219653, 16495.78857371671, 15685.023747089357, -0.02, 1.016, -0.166, 192.0, 0.0, 0.0, 0.0, 0.0, 0.0, 0.0, 0.0, 0.0, 0.0, 1.6527971661929274E9, 0.0, 2022-05-17 16:19:26.192
68.0, 56642.53910094966, 25340.91029654864, -53083.135555164285, -14454.895490991532, 4175.998768329474, -23208.240951089974, 16430.946163051864, 15609.072519430223, -0.028, 1.012, -0.17, 192.0, 255.0, 32.0, 31.0, 160.0, 250.0, 176.0, 0.0, 0.0, 0.0, 1.6527971661929317E9, 0.0, 2022-05-17 16:19:26.192
69.0, 56588.09025145653, 25287.959013934018, -53136.064486034455, -14499.710738624424, 4116.587831567268, -23262.622745349738, 16380.900607216432, 15566.26892879831, -0.028, 1.012, -0.17, 192.0, 0.0, 0.0, 0.0, 0.0, 0.0, 0.0, 0.0, 0.0, 0.0, 1.6527971661929388E9, 0.0, 2022-05-17 16:19:26.192
70.0, 56572.801658249104, 25313.462354357525, -53108.77300605452, -14465.24434867434, 4105.411959339614, -23230.79386124538, 16404.280531916684, 15601.741147248882, -0.028, 1.012, -0.17, 192.0, 0.0, 0.0, 0.0, 0.0, 0.0, 0.0, 0.0, 0.0, 0.0, 1.652797166192943E9, 0.0, 2022-05-17 16:19:26.192
71.0, 56617.52749890417, 25383.110390080263, -53061.49906653155, -14401.363063021072, 4155.166942497128, -23154.52970916387, 16468.407686758957, 15673.177322528045, -0.028, 1.012, -0.17, 192.0, 0.0, 0.0, 0.0, 0.0, 0.0, 0.0, 0.0, 0.0, 0.0, 1.6527971661929476E9, 0.0, 2022-05-17 16:19:26.192
72.0, 56669.51765650722, 25397.97430014304, -53028.99963009353, -14388.779030892734, 4193.902515638175, -23143.48794740295, 16482.176361343427, 15681.760392398883, -0.028, 1.012, -0.17, 192.0, 0.0, 0.0, 0.0, 0.0, 0.0, 0.0, 0.0, 0.0, 0.0, 1.6527971661929517E9, 0.0, 2022-05-17 16:19:26.192
73.0, 56652.97736561029, 25339.412729670137, -53069.366880579815, -14460.326964894173, 4175.819954373831, -23200.864875419724, 16432.466081674826, 15623.243525414888, -0.028, 1.012, -0.17, 192.0, 0.0, 0.0, 0.0, 0.0, 0.0, 0.0, 0.0, 0.0, 0.0, 1.652797166192956E9, 0.0, 2022-05-17 16:19:26.192
74.0, 56600.361359162496, 25288.38369707867, -53119.74771258208, -14509.053767806741, 4125.416770627114, -23258.97941100352, 16386.48854333026, 15575.23197832489, -0.028, 1.012, -0.17, 192.0, 0.0, 0.0, 0.0, 0.0, 0.0, 0.0, 0.0, 0.0, 0.0, 1.6527971661929605E9, 0.0, 2022-05-17 16:19:26.192
75.0, 56586.41387062238, 25313.842334013265, -53095.69723554817, -14470.698174321435, 4104.808462239321, -23240.248649149973, 16404.63815982797, 15604.46806007243, -0.028, 1.012, -0.17, 192.0, 0.0, 0.0, 0.0, 0.0, 0.0, 0.0, 0.0, 0.0, 0.0, 1.6527971661929648E9, 0.0, 2022-05-17 16:19:26.192
76.0, 56633.68781014536, 25384.049163347383, -53029.42431323818, -14398.502039730793, 4149.6684133611225, -23165.102084291233, 16466.977175113818, 15674.853703362192, -0.028, 1.012, -0.17, 192.0, 0.0, 0.0, 0.0, 0.0, 0.0, 0.0, 0.0, 0.0, 0.0, 1.652797166192969E9, 0.0, 2022-05-17 16:19:26.192
77.0, 56663.326223293094, 25392.386364029215, -53029.379609749274, -14400.826621154145, 4183.196030044082, -23154.954392308522, 16472.475704249824, 15681.179247043045, -0.028, 1.012, -0.17, 192.0, 0.0, 0.0, 0.0, 0.0, 0.0, 0.0, 0.0, 0.0, 0.0, 1.6527971661929734E9, 0.0, 2022-05-17 16:19:26.192
78.0, 56640.281574759676, 25331.477860388502, -53088.947008722665, -14470.832284788166, 4157.670337876122, -23212.599541258758, 16418.92092453491, 15624.495223104386, -0.028, 1.012, -0.166, 192.0, 255.0, 32.0, 31.0, 160.0, 250.0, 208.0, 0.0, 0.0, 0.0, 1.6527971661929781E9, 0.0, 2022-05-17 16:19:26.192
79.0, 56591.9571032473, 25276.76078996191, -53136.01978254555, -14521.280172023795, 4105.255497128427, -23257.437140636106, 16377.793714737145, 15582.540998761773, -0.028, 1.012, -0.166, 192.0, 0.0, 0.0, 0.0, 0.0, 0.0, 0.0, 0.0, 0.0, 0.0, 1.6527971661929824E9, 0.0, 2022-05-17 16:19:26.192
80.0, 56583.28462639864, 25300.744211762456, -53112.21517470064, -14487.8196105742, 4097.790014480354, -23226.01058793194, 16407.43212788488, 15617.096795689678, -0.028, 1.012, -0.166, 192.0, 0.0, 0.0, 0.0, 0.0, 0.0, 0.0, 0.0, 0.0, 0.0, 1.6527971661929865E9, 0.0, 2022-05-17 16:19:26.192
81.0, 56630.558565921616, 25375.287279520904, -53048.11037160282, -14401.430118254439, 4146.114485992728, -23147.332447449262, 16476.342556040592, 15690.902255881103, -0.028, 1.012, -0.166, 192.0, 0.0, 0.0, 0.0, 0.0, 0.0, 0.0, 0.0, 0.0, 0.0, 1.6527971661929908E9, 0.0, 2022-05-17 16:19:26.192
82.0, 56676.625511244005, 25396.476733264535, -53029.82664463838, -14390.522466960248, 4186.4146812456465, -23129.160479207098, 16493.151067870986, 15705.989683388434, -0.028, 1.012, -0.166, 192.0, 0.0, 0.0, 0.0, 0.0, 0.0, 0.0, 0.0, 0.0, 0.0, 1.6527971661929975E9, 0.0, 2022-05-17 16:19:26.192
83.0, 56664.28734830467, 25343.34663669427, -53076.25121787205, -14454.023772957777, 4166.946311825074, -23192.214750315517, 16436.69056137688, 15646.869319304147, -0.028, 1.012, -0.166, 192.0, 0.0, 0.0, 0.0, 0.0, 0.0, 0.0, 0.0, 0.0, 0.0, 1.6527971661930015E9, 0.0, 2022-05-17 16:19:26.193
84.0, 56610.39729242293, 25289.05424941233, -53132.97994529962, -14506.930352083487, 4110.23993614196, -23250.75396904397, 16384.00749969572, 15594.767402978827, -0.028, 1.012, -0.166, 192.0, 0.0, 0.0, 0.0, 0.0, 0.0, 0.0, 0.0, 0.0, 0.0, 1.652797166193006E9, 0.0, 2022-05-17 16:19:26.193
85.0, 56590.43718462434, 25316.21161892553, -53110.1364624663, -14472.285148177762, 4104.540241305857, -23219.059195406342, 16411.00840699773, 15626.99861848338, -0.028, 1.012, -0.166, 192.0, 0.0, 0.0, 0.0, 0.0, 0.0, 0.0, 0.0, 0.0, 0.0, 1.6527971661930103E9, 0.0, 2022-05-17 16:19:26.193
86.0, 56625.46236818581, 25380.472884234536, -53056.49227577356, -14407.398034024005, 4146.874445304209, -23151.512223662405, 16469.234701303805, 15693.964444871479, -0.028, 1.012, -0.166, 192.0, 0.0, 0.0, 0.0, 0.0, 0.0, 0.0, 0.0, 0.0, 0.0, 1.6527971661930177E9, 0.0, 2022-05-17 16:19:26.193
87.0, 56669.852932674046, 25398.4436867766, -53034.54286271845, -14394.344615262105, 4183.978341100018, -23136.894182788634, 16481.4387537764, 15707.330788055753, -0.028, 1.012, -0.166, 192.0, 0.0, 0.0, 0.0, 0.0, 0.0, 0.0, 0.0, 0.0, 0.0, 1.652797166193022E9, 0.0, 2022-05-17 16:19:26.193
88.0, 56647.99292659676, 25338.45160465856, -53087.15886916624, -14460.058743960708, 4165.605207157756, -23200.976634142, 16430.387369440483, 15649.126845494135, -0.024, 1.01, -0.164, 192.0, 255.0, 64.0, 31.0, 144.0, 250.0, 224.0, 0.0, 0.0, 0.0, 1.652797166193026E9, 0.0, 2022-05-17 16:19:26.193
89.0, 56598.10383297251, 25294.57513029279, -53129.0907417644, -14504.292846237762, 4119.739427535466, -23254.93374525711, 16387.427316597383, 15608.290208374288, -0.024, 1.01, -0.164, 192.0, 0.0, 0.0, 0.0, 0.0, 0.0, 0.0, 0.0, 0.0, 0.0, 1.6527971661930304E9, 0.0, 2022-05-17 16:19:26.193
90.0, 56577.65198679591, 25314.15525843564, -53112.25987818955, -14481.404659915526, 4098.482918558469, -23230.54799205637, 16401.95595049333, 15645.595269870195, -0.024, 1.01, -0.164, 192.0, 0.0, 0.0, 0.0, 0.0, 0.0, 0.0, 0.0, 0.0, 0.0, 1.652797166193035E9, 0.0, 2022-05-17 16:19:26.193
91.0, 56619.852080327524, 25380.182311556615, -53054.59237749486, -14406.861592157078, 4142.985241768985, -23150.39463643964, 16464.16085531245, 15718.663122494594, -0.024, 1.01, -0.164, 192.0, 0.0, 0.0, 0.0, 0.0, 0.0, 0.0, 0.0, 0.0, 0.0, 1.6527971661930387E9, 0.0, 2022-05-17 16:19:26.193
92.0, 56662.990947126265, 25399.87419842174, -53040.73429593257, -14396.915065874466, 4188.560448713356, -23126.880601272656, 16480.745849698287, 15730.73306450046, -0.024, 1.01, -0.164, 192.0, 0.0, 0.0, 0.0, 0.0, 0.0, 0.0, 0.0, 0.0, 0.0, 1.652797166193043E9, 0.0, 2022-05-17 16:19:26.193
93.0, 56649.11051381952, 25342.832546571797, -53072.227903870094, -14460.259909660806, 4172.06486130534, -23193.15352358264, 16429.29213396217, 15674.898406851104, -0.024, 1.01, -0.164, 192.0, 0.0, 0.0, 0.0, 0.0, 0.0, 0.0, 0.0, 0.0, 0.0, 1.6527971661930473E9, 0.0, 2022-05-17 16:19:26.193
94.0, 56598.52851611716, 25287.19905462254, -53118.60777361486, -14513.188840530973, 4116.297258889349, -23250.08341671031, 16376.407906580915, 15619.041397457291, -0.024, 1.01, -0.164, 192.0, 0.0, 0.0, 0.0, 0.0, 0.0, 0.0, 0.0, 0.0, 0.0, 1.652797166193051E9, 0.0, 2022-05-17 16:19:26.193
95.0, 56580.781231019646, 25306.868589743208, -53105.06261647494, -14485.025642517287, 4104.696703517045, -23224.848297220266, 16394.199895167338, 15647.651630360084, -0.024, 1.01, -0.164, 192.0, 0.0, 0.0, 0.0, 0.0, 0.0, 0.0, 0.0, 0.0, 0.0, 1.6527971661930554E9, 0.0, 2022-05-17 16:19:26.193
96.0, 56615.113510503, 25370.414599229647, -53050.59141523736, -14417.23280158434, 4151.523608150913, -23154.6638196306, 16453.87905286301, 15727.983799932457, -0.024, 1.01, -0.164, 192.0, 0.0, 0.0, 0.0, 0.0, 0.0, 0.0, 0.0, 0.0, 0.0, 1.6527971661930597E9, 0.0, 2022-05-17 16:19:26.193
97.0, 56662.722726192806, 25395.53795999741, -53033.0676475844, -14399.37375776455, 4189.789794658398, -23140.58222062376, 16466.843064647088, 15741.59601230574, -0.026000000000000002, 1.014, -0.166, 192.0, 255.0, 48.0, 31.0, 176.0, 250.0, 208.0, 0.0, 0.0, 0.0, 1.6527971661930637E9, 0.0, 2022-05-17 16:19:26.193
98.0, 56646.24949052924, 25342.20669772705, -53089.32698837841, -14461.33279339466, 4167.885085092197, -23200.35078529725, 16411.455441886836, 15672.260901005377, -0.026000000000000002, 1.014, -0.166, 192.0, 0.0, 0.0, 0.0, 0.0, 0.0, 0.0, 0.0, 0.0, 0.0, 1.652797166193068E9, 0.0, 2022-05-17 16:19:26.193
99.0, 56591.01832998018, 25283.15338887613, -53130.70006736518, -14520.006122589843, 4115.626706555689, -23252.36329464475, 16364.025040152676, 15621.880069003115, -0.026000000000000002, 1.014, -0.166, 192.0, 0.0, 0.0, 0.0, 0.0, 0.0, 0.0, 0.0, 0.0, 0.0, 1.6527971661930723E9, 0.0, 2022-05-17 16:19:26.193
100.0, 56568.130143657945, 25303.24760714145, -53108.99652349908, -14486.813782073712, 4104.2943721168485, -23223.30602685285, 16384.63334854047, 15658.939261310014, -0.026000000000000002, 1.014, -0.166, 192.0, 0.0, 0.0, 0.0, 0.0, 0.0, 0.0, 0.0, 0.0, 0.0, 1.6527971661930766E9, 0.0, 2022-05-17 16:19:26.193
101.0, 56611.15725173441, 25377.142474310695, -53046.366935535305, -14402.771222921756, 4155.6586808751445, -23150.081712017265, 16445.54185218118, 15743.473558839985, -0.026000000000000002, 1.014, -0.166, 192.0, 0.0, 0.0, 0.0, 0.0, 0.0, 0.0, 0.0, 0.0, 0.0, 1.652797166193081E9, 0.0, 2022-05-17 16:19:26.193
102.0, 56655.39135401146, 25400.7459164555, -53034.29699352944, -14392.936455361421, 4197.232925562015, -23128.66874082908, 16459.39993374347, 15755.16352119011, -0.026000000000000002, 1.014, -0.166, 192.0, 0.0, 0.0, 0.0, 0.0, 0.0, 0.0, 0.0, 0.0, 0.0, 1.6527971661930852E9, 0.0, 2022-05-17 16:19:26.193
103.0, 56653.60321445504, 25352.868479832232, -53066.774078223, -14451.699191534424, 4184.045396333385, -23179.697773420547, 16412.751843065245, 15690.589331458728, -0.026000000000000002, 1.014, -0.166, 192.0, 0.0, 0.0, 0.0, 0.0, 0.0, 0.0, 0.0, 0.0, 0.0, 1.6527971661930892E9, 0.0, 2022-05-17 16:19:26.193
104.0, 56603.356492919505, 25298.017298938907, -53108.63889558779, -14504.516363682314, 4127.227261927994, -23236.69472178158, 16358.012420894198, 15637.079255232724, -0.026000000000000002, 1.014, -0.166, 192.0, 0.0, 0.0, 0.0, 0.0, 0.0, 0.0, 0.0, 0.0, 0.0, 1.6527971661930933E9, 0.0, 2022-05-17 16:19:26.193
105.0, 56579.08249844104, 25314.848162513754, -53101.955723995656, -14476.822552302188, 4108.027113440885, -23215.997006415964, 16375.849112969532, 15670.606871915685, -0.026000000000000002, 1.014, -0.166, 192.0, 0.0, 0.0, 0.0, 0.0, 0.0, 0.0, 0.0, 0.0, 0.0, 1.6527971661930974E9, 0.0, 2022-05-17 16:19:26.193
106.0, 56623.24954548473, 25387.089000593307, -53032.44179873965, -14401.497173487804, 4156.373936697714, -23135.217801954484, 16444.804244614155, 15750.894337999147, -0.026000000000000002, 1.014, -0.166, 192.0, 0.0, 0.0, 0.0, 0.0, 0.0, 0.0, 0.0, 0.0, 0.0, 1.6527971661931014E9, 0.0, 2022-05-17 16:19:26.193
107.0, 56659.772295924704, 25402.17642810064, -53026.384475992265, -14399.530219975737, 4193.388425515703, -23117.224647667965, 16452.82852087361, 15761.98080324898, -0.03, 1.018, -0.168, 192.0, 255.0, 16.0, 31.0, 208.0, 250.0, 192.0, 0.0, 0.0, 0.0, 1.65279716667204E9, 0.0, 2022-05-17 16:19:26.672
108.0, 56651.68096443188, 25352.77907285441, -53070.149191635755, -14454.068476446686, 4179.977378842518, -23173.59574718425, 16402.894723760455, 15717.120852127178, -0.03, 1.018, -0.168, 192.0, 0.0, 0.0, 0.0, 0.0, 0.0, 0.0, 0.0, 0.0, 0.0, 1.652797166672172E9, 0.0, 2022-05-17 16:19:26.672
109.0, 56595.175754448865, 25290.015374423907, -53127.123788252335, -14515.759291143333, 4116.319610633804, -23246.440082364094, 16341.338019530538, 15659.76627585486, -0.03, 1.018, -0.168, 192.0, 0.0, 0.0, 0.0, 0.0, 0.0, 0.0, 0.0, 0.0, 0.0, 1.6527971666722028E9, 0.0, 2022-05-17 16:19:26.672
110.0, 56570.924111714856, 25304.54400831986, -53113.0868927344, -14484.332738439172, 4092.8502789557315, -23233.431367091103, 16352.71505745829, 15671.545645182807, -0.03, 1.018, -0.168, 192.0, 0.0, 0.0, 0.0, 0.0, 0.0, 0.0, 0.0, 0.0, 0.0, 1.652797166672211E9, 0.0, 2022-05-17 16:19:26.672
111.0, 56625.529423419175, 25385.613785459256, -53037.94032787566, -14391.416536738461, 4151.970643040018, -23149.72408410598, 16424.91119204893, 15755.923480501591, -0.03, 1.018, -0.168, 192.0, 0.0, 0.0, 0.0, 0.0, 0.0, 0.0, 0.0, 0.0, 0.0, 1.6527971666722224E9, 0.0, 2022-05-17 16:19:26.672
112.0, 56680.73823222378, 25415.676881751646, -53014.87332759778, -14373.535141174216, 4205.0783878658285, -23123.68430181555, 16450.39218072798, 15786.74653610546, -0.03, 1.018, -0.168, 192.0, 0.0, 0.0, 0.0, 0.0, 0.0, 0.0, 0.0, 0.0, 0.0, 1.652797166672233E9, 0.0, 2022-05-17 16:19:26.672
113.0, 56652.239758043266, 25340.35150293726, -53070.95385443614, -14456.504816592314, 4174.612960173245, -23200.037860874876, 16383.560464806613, 15714.68451198155, -0.03, 1.018, -0.168, 192.0, 0.0, 0.0, 0.0, 0.0, 0.0, 0.0, 0.0, 0.0, 0.0, 1.652797166672244E9, 0.0, 2022-05-17 16:19:26.672
114.0, 56607.625676110474, 25292.295252358348, -53108.01304674304, -14503.15290727054, 4121.326401391792, -23252.765626044944, 16337.85114739551, 15667.075296291745, -0.03, 1.018, -0.168, 192.0, 0.0, 0.0, 0.0, 0.0, 0.0, 0.0, 0.0, 0.0, 0.0, 1.6527971666722553E9, 0.0, 2022-05-17 16:19:26.672
115.0, 56574.85801873899, 25304.208732153027, -53100.212287928145, -14485.740898339856, 4095.1748603790834, -23237.253515392964, 16344.46726375428, 15685.068450578268, -0.03, 1.018, -0.168, 192.0, 0.0, 0.0, 0.0, 0.0, 0.0, 0.0, 0.0, 0.0, 0.0, 1.6527971666722617E9, 0.0, 2022-05-17 16:19:26.672
116.0, 56615.09115875854, 25370.526357951923, -53043.34945003384, -14415.981103894843, 4142.851131302254, -23159.178872010576, 16405.666340072912, 15757.510454357918, -0.03, 1.018, -0.168, 192.0, 0.0, 0.0, 0.0, 0.0, 0.0, 0.0, 0.0, 0.0, 0.0, 1.6527971666722677E9, 0.0, 2022-05-17 16:19:26.672
117.0, 56675.26205483223, 25402.17642810064, -53008.92776357267, -14389.8966181155, 4196.383559272714, -23126.411214639094, 16430.409721184937, 15788.065289028322, -0.034, 1.018, -0.168, 192.0, 254.0, 240.0, 31.0, 208.0, 250.0, 192.0, 0.0, 0.0, 0.0, 1.6527971666722736E9, 0.0, 2022-05-17 16:19:26.672
118.0, 56654.11730457751, 25339.6809506036, -53070.1268398913, -14461.57866258367, 4171.7966403718765, -23181.8211891438, 16377.883121714965, 15733.124701157178, -0.034, 1.018, -0.168, 192.0, 0.0, 0.0, 0.0, 0.0, 0.0, 0.0, 0.0, 0.0, 0.0, 1.6527971666722784E9, 0.0, 2022-05-17 16:19:26.672
119.0, 56595.55573410461, 25279.532406274368, -53127.682581863715, -14520.497860967858, 4116.274907144893, -23244.718998041037, 16325.781205389645, 15677.513560952373, -0.034, 1.018, -0.168, 192.0, 0.0, 0.0, 0.0, 0.0, 0.0, 0.0, 0.0, 0.0, 0.0, 1.6527971666722827E9, 0.0, 2022-05-17 16:19:26.672
120.0, 56578.277835640656, 25302.8229239968, -53102.96155249615, -14479.951796525931, 4103.62381978319, -23216.68991049408, 16349.831682423555, 15711.331750313253, -0.034, 1.018, -0.168, 192.0, 0.0, 0.0, 0.0, 0.0, 0.0, 0.0, 0.0, 0.0, 0.0, 1.6527971666722877E9, 0.0, 2022-05-17 16:19:26.672
121.0, 56619.159176249406, 25371.085151563308, -53034.073476084886, -14412.293066059718, 4144.7286778365, -23144.42672067007, 16409.06380523012, 15781.717393603016, -0.034, 1.018, -0.168, 192.0, 0.0, 0.0, 0.0, 0.0, 0.0, 0.0, 0.0, 0.0, 0.0, 1.6527971666722922E9, 0.0, 2022-05-17 16:19:26.672
122.0, 56659.68288894688, 25394.59918673029, -53011.38645546275, -14397.809135652678, 4181.027910831918, -23122.142031448133, 16422.899535047953, 15805.41024272564, -0.034, 1.018, -0.168, 192.0, 0.0, 0.0, 0.0, 0.0, 0.0, 0.0, 0.0, 0.0, 0.0, 1.6527971666722968E9, 0.0, 2022-05-17 16:19:26.672
123.0, 56656.777162167695, 25351.482671676004, -53047.775095435994, -14452.503854334815, 4175.551733440368, -23168.834825615268, 16379.783019993667, 15759.902091014636, -0.034, 1.018, -0.168, 192.0, 0.0, 0.0, 0.0, 0.0, 0.0, 0.0, 0.0, 0.0, 0.0, 1.6527971666723013E9, 0.0, 2022-05-17 16:19:26.672
124.0, 56593.857001526005, 25283.15338887613, -53118.00427651457, -14519.223811533906, 4112.8103867543205, -23248.295277153884, 16312.32545522755, 15679.39110748662, -0.034, 1.018, -0.168, 192.0, 0.0, 0.0, 0.0, 0.0, 0.0, 0.0, 0.0, 0.0, 0.0, 1.652797166672306E9, 0.0, 2022-05-17 16:19:26.672
125.0, 56562.184579632834, 25292.071734913796, -53116.73022708062, -14498.168468257007, 4089.028130653874, -23240.315704383338, 16318.069853552564, 15695.551418727806, -0.034, 1.018, -0.168, 192.0, 0.0, 0.0, 0.0, 0.0, 0.0, 0.0, 0.0, 0.0, 0.0, 1.6527971666723108E9, 0.0, 2022-05-17 16:19:26.672
126.0, 56606.6645510989, 25366.614802672244, -53043.52826398949, -14415.04233062772, 4143.186407469083, -23148.561793394303, 16389.081345687075, 15791.619216396717, -0.034, 1.018, -0.168, 192.0, 0.0, 0.0, 0.0, 0.0, 0.0, 0.0, 0.0, 0.0, 0.0, 1.6527971666723151E9, 0.0, 2022-05-17 16:19:26.672
127.0, 56660.39814476945, 25395.627366975234, -53004.45741468161, -14389.51663845976, 4195.40008251668, -23111.368490620673, 16422.6760176034, 15824.94566737958, -0.038, 1.012, -0.164, 192.0, 254.0, 208.0, 31.0, 160.0, 250.0, 224.0, 0.0, 0.0, 0.0, 1.65279716667232E9, 0.0, 2022-05-17 16:19:26.672
128.0, 56642.4720457163, 25339.345674436772, -53057.98984265207, -14455.297822391729, 4176.557561940856, -23171.20411052753, 16370.842322211543, 15756.59403283525, -0.038, 1.012, -0.164, 192.0, 0.0, 0.0, 0.0, 0.0, 0.0, 0.0, 0.0, 0.0, 0.0, 1.6527971666723492E9, 0.0, 2022-05-17 16:19:26.672
129.0, 56592.09121371403, 25287.981365678475, -53113.80214855697, -14507.891477095065, 4122.466340359013, -23226.971712943523, 16320.595600676013, 15717.903163183113, -0.038, 1.012, -0.164, 192.0, 0.0, 0.0, 0.0, 0.0, 0.0, 0.0, 0.0, 0.0, 0.0, 1.652797166672354E9, 0.0, 2022-05-17 16:19:26.672
130.0, 56562.69866975531, 25298.844313483754, -53113.57863111242, -14479.370651170095, 4090.9503806770304, -23220.69087275158, 16326.004722834197, 15732.1635761456, -0.038, 1.012, -0.164, 192.0, 0.0, 0.0, 0.0, 0.0, 0.0, 0.0, 0.0, 0.0, 0.0, 1.6527971666723585E9, 0.0, 2022-05-17 16:19:26.672
131.0, 56607.71508308829, 25370.951041096574, -53030.94423186115, -14407.08510960163, 4131.898776519153, -23146.505432904414, 16380.453572327326, 15788.400565195152, -0.038, 1.012, -0.164, 192.0, 0.0, 0.0, 0.0, 0.0, 0.0, 0.0, 0.0, 0.0, 0.0, 1.652797166672363E9, 0.0, 2022-05-17 16:19:26.672
132.0, 56656.486589489774, 25402.17642810064, -52996.23197272205, -14386.342690747106, 4183.866582377742, -23109.066260941778, 16407.9238662629, 15814.03801608539, -0.038, 1.012, -0.164, 192.0, 0.0, 0.0, 0.0, 0.0, 0.0, 0.0, 0.0, 0.0, 0.0, 1.6527971666723676E9, 0.0, 2022-05-17 16:19:26.672
133.0, 56648.238795785765, 25353.382569954705, -53048.51270300302, -14448.458188588404, 4170.544942682379, -23160.028238299878, 16363.600357008025, 15766.45115214004, -0.038, 1.012, -0.164, 192.0, 0.0, 0.0, 0.0, 0.0, 0.0, 0.0, 0.0, 0.0, 0.0, 1.652797166672372E9, 0.0, 2022-05-17 16:19:26.672
134.0, 56596.42745213836, 25293.47989481448, -53102.84979377387, -14506.259799749829, 4109.703494275033, -23226.725843754513, 16302.893019067411, 15708.53778225634, -0.038, 1.012, -0.164, 192.0, 0.0, 0.0, 0.0, 0.0, 0.0, 0.0, 0.0, 0.0, 0.0, 1.6527971666723769E9, 0.0, 2022-05-17 16:19:26.672
135.0, 56568.823047736056, 25304.834580997776, -53095.67488380372, -14486.031471017775, 4088.670502742589, -23217.40516631665, 16310.447908693304, 15722.842898707737, -0.038, 1.012, -0.164, 192.0, 0.0, 0.0, 0.0, 0.0, 0.0, 0.0, 0.0, 0.0, 0.0, 1.6527971666723812E9, 0.0, 2022-05-17 16:19:26.672
136.0, 56602.238905696744, 25363.530261937412, -53040.91310988821, -14422.060778386687, 4128.43425612858, -23154.10502601922, 16360.560519762103, 15779.325756946297, -0.038, 1.012, -0.164, 192.0, 0.0, 0.0, 0.0, 0.0, 0.0, 0.0, 0.0, 0.0, 0.0, 1.6527971666723857E9, 0.0, 2022-05-17 16:19:26.672
137.0, 56655.659574944926, 25389.21241631656, -53018.94134508865, -14411.398996281505, 4170.075556048818, -23121.404423881108, 16381.660566527913, 15803.420937469118, -0.03, 1.008, -0.166, 192.0, 255.0, 16.0, 31.0, 128.0, 250.0, 208.0, 0.0, 0.0, 0.0, 1.6527971666723905E9, 0.0, 2022-05-17 16:19:26.672
138.0, 56647.70235391884, 25344.844203572775, -53060.26972058651, -14469.20060744293, 4157.782096598398, -23166.219671513998, 16336.152414816906, 15756.750495046437, -0.03, 1.008, -0.166, 192.0, 0.0, 0.0, 0.0, 0.0, 0.0, 0.0, 0.0, 0.0, 0.0, 1.6527971666723952E9, 0.0, 2022-05-17 16:19:26.672
139.0, 56590.66070206889, 25278.750095218435, -53115.880860791316, -14515.379311487593, 4106.19427039555, -23235.353617114262, 16284.631643847424, 15706.190849088533, -0.03, 1.008, -0.166, 192.0, 0.0, 0.0, 0.0, 0.0, 0.0, 0.0, 0.0, 0.0, 0.0, 1.6527971666723995E9, 0.0, 2022-05-17 16:19:26.672
140.0, 56554.8979109404, 25285.835598210764, -53118.60777361486, -14494.525133910793, 4082.613179995201, -23228.625742033215, 16299.249684721195, 15734.912840713603, -0.03, 1.008, -0.166, 192.0, 0.0, 0.0, 0.0, 0.0, 0.0, 0.0, 0.0, 0.0, 0.0, 1.6527971666724043E9, 0.0, 2022-05-17 16:19:26.672
141.0, 56586.59268457803, 25355.6847996336, -53046.88102565778, -14424.251249343306, 4124.0756659597955, -23154.77557835288, 16356.80542669361, 15798.727071133504, -0.03, 1.008, -0.166, 192.0, 0.0, 0.0, 0.0, 0.0, 0.0, 0.0, 0.0, 0.0, 0.0, 1.6527971666724088E9, 0.0, 2022-05-17 16:19:26.672
142.0, 56645.444827728854, 25391.20172157308, -53002.66927512518, -14394.098746073098, 4175.39527122918, -23117.828144768257, 16383.62752003998, 15825.70562669106, -0.03, 1.008, -0.166, 192.0, 0.0, 0.0, 0.0, 0.0, 0.0, 0.0, 0.0, 0.0, 0.0, 1.6527971666724133E9, 0.0, 2022-05-17 16:19:26.672
143.0, 56641.801493382634, 25344.419520428124, -53051.99957513805, -14453.889662491043, 4162.431259445102, -23170.39944772714, 16338.968734618276, 15777.0235272674, -0.03, 1.008, -0.166, 192.0, 0.0, 0.0, 0.0, 0.0, 0.0, 0.0, 0.0, 0.0, 0.0, 1.652797166672418E9, 0.0, 2022-05-17 16:19:26.672
144.0, 56586.033890966646, 25281.499359786438, -53107.85658453186, -14515.580477187692, 4102.752101749433, -23239.35457937176, 16283.111725224464, 15719.020750405878, -0.03, 1.008, -0.166, 192.0, 0.0, 0.0, 0.0, 0.0, 0.0, 0.0, 0.0, 0.0, 0.0, 1.6527971666724226E9, 0.0, 2022-05-17 16:19:26.672
145.0, 56560.39644007641, 25296.832656482777, -53091.31629363493, -14490.72533735339, 4084.9824649074635, -23218.343939583774, 16298.646187620901, 15739.852576238225, -0.03, 1.008, -0.166, 192.0, 0.0, 0.0, 0.0, 0.0, 0.0, 0.0, 0.0, 0.0, 0.0, 1.6527971666724272E9, 0.0, 2022-05-17 16:19:26.672
146.0, 56587.82203052307, 25356.48946243399, -53053.094810616356, -14424.89944993251, 4117.928936234586, -23143.44324391404, 16352.066856869085, 15811.422861984118, -0.03, 1.008, -0.166, 192.0, 0.0, 0.0, 0.0, 0.0, 0.0, 0.0, 0.0, 0.0, 0.0, 1.6527971666724317E9, 0.0, 2022-05-17 16:19:26.672
147.0, 56644.08137131708, 25391.246425061992, -53005.48559492655, -14398.546743219704, 4175.2611607624485, -23103.746545761413, 16381.995842694741, 15847.587984512806, -0.034, 1.004, -0.164, 192.0, 254.0, 240.0, 31.0, 96.0, 250.0, 224.0, 0.0, 0.0, 0.0, 1.6527971666724365E9, 0.0, 2022-05-17 16:19:26.672
148.0, 56629.083350787565, 25336.797575568864, -53057.58751125187, -14461.511607350303, 4156.8880268201865, -23170.10887504922, 16326.80938563459, 15789.518152417917, -0.034, 1.004, -0.164, 192.0, 0.0, 0.0, 0.0, 0.0, 0.0, 0.0, 0.0, 0.0, 0.0, 1.6527971666724412E9, 0.0, 2022-05-17 16:19:26.672
