%OpenBCI Raw EEG Data
%Number of channels = 8
%Sample Rate = 250 Hz
%Board = OpenBCI_GUI$BoardCytonSerial
Sample Index, EXG Channel 0, EXG Channel 1, EXG Channel 2, EXG Channel 3, EXG Channel 4, EXG Channel 5, EXG Channel 6, EXG Channel 7, Accel Channel 0, Accel Channel 1, Accel Channel 2, Other, Other, Other, Other, Other, Other, Other, Analog Channel 0, Analog Channel 1, Analog Channel 2, Timestamp, Other, Timestamp (Formatted)
192.0, 48942.139618651825, 43170.38275842462, 1065.6417686512195, -11834.712247218162, 10991.64914985289, -13799.765861006483, -1177.8028223279503, 33382.017419578726, 0.0, 0.0, 0.0, 192.0, 0.0, 0.0, 0.0, 0.0, 0.0, 0.0, 0.0, 0.0, 0.0, 1.6527897510828843E9, 0.0, 2022-05-17 14:15:51.082
193.0, 48919.54200500751, 43069.44228046445, 1007.3037156228681, -11916.698445880229, 11782.342109959378, -13790.82516322436, -882.4245193510675, 33587.27348891181, 0.0, 0.0, 0.0, 192.0, 0.0, 0.0, 0.0, 0.0, 0.0, 0.0, 0.0, 0.0, 0.0, 1.6527897510828907E9, 0.0, 2022-05-17 14:15:51.082
194.0, 48846.58591110539, 42971.36282579456, 917.7402755904527, -12021.773996564627, 13225.773063394197, -13890.849219661859, -678.4424994519353, 33886.675105890645, 0.0, 0.0, 0.0, 192.0, 0.0, 0.0, 0.0, 0.0, 0.0, 0.0, 0.0, 0.0, 0.0, 1.6527897510828967E9, 0.0, 2022-05-17 14:15:51.082
195.0, 48802.6200297618, 42991.814671971166, 915.4827494004667, -12016.454281384264, 13332.659105379476, -13966.442819409707, -852.2720160808583, 33863.831623057325, 0.0, 0.0, 0.0, 192.0, 0.0, 0.0, 0.0, 0.0, 0.0, 0.0, 0.0, 0.0, 0.0, 1.652789751082903E9, 0.0, 2022-05-17 14:15:51.082
196.0, 48841.64617558076, 43101.24881282435, 1005.4708725775329, -11912.675131878274, 11960.731382457183, -13908.887077437292, -1157.1274587067912, 33559.46791880941, 0.0, 0.0, 0.0, 192.0, 0.0, 0.0, 0.0, 0.0, 0.0, 0.0, 0.0, 0.0, 0.0, 1.6527897510829089E9, 0.0, 2022-05-17 14:15:51.082
197.0, 48902.420568754744, 43146.15346743506, 1058.4221551921553, -11852.079552659936, 10986.687062583813, -13801.308131373899, -1182.1167090078245, 33377.122387543015, 0.0, 0.0, 0.0, 192.0, 0.0, 0.0, 0.0, 0.0, 0.0, 0.0, 0.0, 0.0, 0.0, 1.6527897510829144E9, 0.0, 2022-05-17 14:15:51.082
198.0, 48892.9434291057, 43069.554039186725, 997.692465507086, -11931.495300709641, 11760.884435282283, -13793.283855114443, -882.9833129624502, 33578.62336380761, 0.0, 0.0, 0.0, 192.0, 0.0, 0.0, 0.0, 0.0, 0.0, 0.0, 0.0, 0.0, 0.0, 1.6527897510829203E9, 0.0, 2022-05-17 14:15:51.082
199.0, 48826.17876841769, 42990.98765742632, 918.9696215354945, -12030.602935624473, 13207.064653285106, -13893.50907725204, -672.2734179822705, 33876.46035867457, -0.05, 1.022, 0.116, 192.0, 254.0, 112.0, 31.0, 240.0, 3.0, 160.0, 0.0, 0.0, 0.0, 1.6527897510829265E9, 0.0, 2022-05-17 14:15:51.082
200.0, 48794.93102966917, 43010.187805913425, 923.1493977486369, -12023.651543098873, 13340.661029894476, -13970.667299111761, -831.6413559486099, 33865.55270738038, -0.05, 1.022, 0.116, 192.0, 0.0, 0.0, 0.0, 0.0, 0.0, 0.0, 0.0, 0.0, 0.0, 1.652789751082932E9, 0.0, 2022-05-17 14:15:51.082
201.0, 48851.324480929914, 43104.86979542611, 1002.4310353316112, -11928.41075997481, 11995.242475896177, -13919.571211286928, -1134.6639555292077, 33579.428026607995, -0.05, 1.022, 0.116, 192.0, 0.0, 0.0, 0.0, 0.0, 0.0, 0.0, 0.0, 0.0, 0.0, 1.652789751082938E9, 0.0, 2022-05-17 14:15:51.082
202.0, 48937.02106917156, 43172.662636359055, 1058.9585970590826, -11863.903625476793, 11031.681124172346, -13830.54421312144, -1168.0351100009811, 33417.40023105148, -0.05, 1.022, 0.116, 192.0, 0.0, 0.0, 0.0, 0.0, 0.0, 0.0, 0.0, 0.0, 0.0, 1.652789751082944E9, 0.0, 2022-05-17 14:15:51.082
203.0, 48950.320357122466, 43125.411048580536, 1016.9596692275608, -11918.866565092394, 11783.727918115606, -13799.341177861832, -881.9327809730507, 33609.424067667016, -0.05, 1.022, 0.116, 192.0, 0.0, 0.0, 0.0, 0.0, 0.0, 0.0, 0.0, 0.0, 0.0, 1.6527897510829499E9, 0.0, 2022-05-17 14:15:51.082
204.0, 48908.25437405758, 43055.27127447978, 945.2329212704803, -12010.307551659054, 13225.90717386093, -13880.969748612613, -666.4396126794354, 33900.868463619765, -0.05, 1.022, 0.116, 192.0, 0.0, 0.0, 0.0, 0.0, 0.0, 0.0, 0.0, 0.0, 0.0, 1.6527897510829556E9, 0.0, 2022-05-17 14:15:51.082
205.0, 48866.92599855972, 43065.217800762395, 948.3174620053128, -11997.298836386066, 13377.273187312268, -13966.174598476244, -819.0796755647273, 33894.63232691673, -0.05, 1.022, 0.116, 192.0, 0.0, 0.0, 0.0, 0.0, 0.0, 0.0, 0.0, 0.0, 0.0, 1.6527897510829613E9, 0.0, 2022-05-17 14:15:51.082
206.0, 48910.8471764144, 43160.32447341973, 1034.6398990917087, -11893.899666535815, 12028.501871645674, -13922.56634504394, -1127.17612113668, 33599.54459661777, -0.05, 1.022, 0.116, 192.0, 0.0, 0.0, 0.0, 0.0, 0.0, 0.0, 0.0, 0.0, 0.0, 1.6527897510829673E9, 0.0, 2022-05-17 14:15:51.082
207.0, 48995.202659988725, 43220.98710787143, 1088.9993416070154, -11848.749142736095, 11050.23307207025, -13818.608381582306, -1161.7095663201292, 33430.23013236882, -0.05, 1.022, 0.116, 192.0, 0.0, 0.0, 0.0, 0.0, 0.0, 0.0, 0.0, 0.0, 0.0, 1.6527897510829728E9, 0.0, 2022-05-17 14:15:51.082
208.0, 49007.87609909488, 43171.03095901382, 1042.887692795717, -11922.800472116527, 11805.990255593093, -13800.2575993845, -871.1145366566822, 33636.4920302024, -0.05, 1.022, 0.116, 192.0, 0.0, 0.0, 0.0, 0.0, 0.0, 0.0, 0.0, 0.0, 0.0, 1.6527897510829787E9, 0.0, 2022-05-17 14:15:51.082
209.0, 48947.25816813209, 43095.92909764399, 966.9588168810388, -12012.81094703805, 13248.61654622752, -13898.091184865378, -664.3832521895471, 33925.4553825206, -0.05, 1.018, 0.11800000000000001, 192.0, 254.0, 112.0, 31.0, 208.0, 3.0, 176.0, 0.0, 0.0, 0.0, 1.6527897510829844E9, 0.0, 2022-05-17 14:15:51.082
210.0, 48898.12903381933, 43096.08555985517, 964.9024563911506, -11996.494173585676, 13430.179766437981, -13975.584682891928, -816.2633557633586, 33932.38442330175, -0.05, 1.018, 0.11800000000000001, 192.0, 0.0, 0.0, 0.0, 0.0, 0.0, 0.0, 0.0, 0.0, 0.0, 1.6527897510829904E9, 0.0, 2022-05-17 14:15:51.082
211.0, 48937.44575231621, 43198.56830818276, 1043.3794311737338, -11890.278683934055, 12099.803936458104, -13925.449720078674, -1132.3617258503111, 33644.873934373136, -0.05, 1.018, 0.11800000000000001, 192.0, 0.0, 0.0, 0.0, 0.0, 0.0, 0.0, 0.0, 0.0, 0.0, 1.652789751082996E9, 0.0, 2022-05-17 14:15:51.082
212.0, 49017.10736955493, 43262.159021158106, 1098.1412050892359, -11829.928973904727, 11087.739299266255, -13813.623942568773, -1184.038959030981, 33456.42637687044, -0.05, 1.018, 0.11800000000000001, 192.0, 0.0, 0.0, 0.0, 0.0, 0.0, 0.0, 0.0, 0.0, 0.0, 1.652789751083002E9, 0.0, 2022-05-17 14:15:51.083
213.0, 49023.05293358004, 43202.301049506794, 1047.5815591313315, -11896.514820637087, 11802.86101136935, -13786.265407355477, -897.3331329027574, 33639.21894302594, -0.05, 1.018, 0.11800000000000001, 192.0, 0.0, 0.0, 0.0, 0.0, 0.0, 0.0, 0.0, 0.0, 0.0, 1.6527897510830076E9, 0.0, 2022-05-17 14:15:51.083
214.0, 48953.27078739057, 43113.36345831912, 957.7051946765417, -11989.743946760173, 13254.986793397284, -13870.352669996342, -674.7991651057202, 33937.167696615186, -0.05, 1.018, 0.11800000000000001, 192.0, 0.0, 0.0, 0.0, 0.0, 0.0, 0.0, 0.0, 0.0, 0.0, 1.6527897510830183E9, 0.0, 2022-05-17 14:15:51.083
215.0, 48900.83359489842, 43121.29832760076, 949.7703253949077, -11991.75560376115, 13445.401304412044, -13940.045409207989, -826.6569169350764, 33939.69344373864, -0.05, 1.018, 0.11800000000000001, 192.0, 0.0, 0.0, 0.0, 0.0, 0.0, 0.0, 0.0, 0.0, 0.0, 1.652789751083024E9, 0.0, 2022-05-17 14:15:51.083
216.0, 48939.68092676174, 43210.16886355506, 1033.9022915246835, -11879.371032639865, 12094.193648599821, -13889.731632439094, -1148.3432231358556, 33625.87495158613, -0.05, 1.018, 0.11800000000000001, 192.0, 0.0, 0.0, 0.0, 0.0, 0.0, 0.0, 0.0, 0.0, 0.0, 1.6527897510830293E9, 0.0, 2022-05-17 14:15:51.083
217.0, 49018.11319805541, 43263.63423629216, 1086.4288909946551, -11810.460604484155, 11070.014365913197, -13783.2032183651, -1188.554011410953, 33434.25344637078, -0.05, 1.018, 0.11800000000000001, 192.0, 0.0, 0.0, 0.0, 0.0, 0.0, 0.0, 0.0, 0.0, 0.0, 1.6527897510830345E9, 0.0, 2022-05-17 14:15:51.083
218.0, 49024.59520394745, 43202.97160184045, 1031.4435996345997, -11895.866620047882, 11794.4344037097, -13755.844683151805, -882.7821472623524, 33638.54839069228, -0.05, 1.018, 0.11800000000000001, 192.0, 0.0, 0.0, 0.0, 0.0, 0.0, 0.0, 0.0, 0.0, 0.0, 1.65278975108304E9, 0.0, 2022-05-17 14:15:51.083
219.0, 48947.816961743476, 43111.687077484974, 953.2571975299356, -12001.970350977224, 13248.974174138806, -13864.384754226776, -660.3599381875919, 33934.016100646986, -0.048, 1.02, 0.12, 192.0, 254.0, 128.0, 31.0, 224.0, 3.0, 192.0, 0.0, 0.0, 0.0, 1.6527897510830455E9, 0.0, 2022-05-17 14:15:51.083
220.0, 48903.80637691097, 43119.55489153325, 957.0793458317931, -11993.811964251037, 13432.571403094698, -13942.705266798172, -812.5529661837777, 33914.81595215988, -0.048, 1.02, 0.12, 192.0, 0.0, 0.0, 0.0, 0.0, 0.0, 0.0, 0.0, 0.0, 0.0, 1.6527897510830512E9, 0.0, 2022-05-17 14:15:51.083
221.0, 48937.110476149384, 43204.826796630245, 1037.1879979596135, -11891.105698478903, 12106.643570261427, -13891.65388246225, -1124.0915804018475, 33620.21996023893, -0.048, 1.02, 0.12, 192.0, 0.0, 0.0, 0.0, 0.0, 0.0, 0.0, 0.0, 0.0, 0.0, 1.6527897510830567E9, 0.0, 2022-05-17 14:15:51.083
222.0, 48996.85668907841, 43244.50114303841, 1080.662140925186, -11852.705401504685, 11087.784002755167, -13798.78238425045, -1177.0205112720146, 33443.57412380864, -0.048, 1.02, 0.12, 192.0, 0.0, 0.0, 0.0, 0.0, 0.0, 0.0, 0.0, 0.0, 0.0, 1.652789751083062E9, 0.0, 2022-05-17 14:15:51.083
223.0, 49013.59814567544, 43198.79182562731, 1038.01501250446, -11910.93169581076, 11753.486007867576, -13778.53170377394, -904.7762638063746, 33603.72437283091, -0.048, 1.02, 0.12, 192.0, 0.0, 0.0, 0.0, 0.0, 0.0, 0.0, 0.0, 0.0, 0.0, 1.6527897510830688E9, 0.0, 2022-05-17 14:15:51.083
224.0, 48953.13667692384, 43112.84936819665, 951.8043341403406, -12008.98879873619, 13216.765310378709, -13892.436193518186, -672.6086941491001, 33907.32811776735, -0.048, 1.02, 0.12, 192.0, 0.0, 0.0, 0.0, 0.0, 0.0, 0.0, 0.0, 0.0, 0.0, 1.6527897510830748E9, 0.0, 2022-05-17 14:15:51.083
225.0, 48904.67809494473, 43106.90380417154, 945.2329212704803, -12011.872173770926, 13447.681182346485, -13963.380630419331, -810.8989370940849, 33920.06861210687, -0.048, 1.02, 0.12, 192.0, 0.0, 0.0, 0.0, 0.0, 0.0, 0.0, 0.0, 0.0, 0.0, 1.6527897510830803E9, 0.0, 2022-05-17 14:15:51.083
226.0, 48945.82765648695, 43198.16597678256, 1017.9654977280495, -11906.997788786626, 12123.385026858454, -13907.747138470071, -1126.393810080744, 33623.63977714059, -0.048, 1.02, 0.12, 192.0, 0.0, 0.0, 0.0, 0.0, 0.0, 0.0, 0.0, 0.0, 0.0, 1.6527897510830855E9, 0.0, 2022-05-17 14:15:51.083
227.0, 49019.20843353372, 43253.352433842716, 1066.7593558739848, -11836.410979796765, 11086.487601576759, -13804.839706997838, -1173.1536594812465, 33442.36712960805, -0.048, 1.02, 0.12, 192.0, 0.0, 0.0, 0.0, 0.0, 0.0, 0.0, 0.0, 0.0, 0.0, 1.6527897510830908E9, 0.0, 2022-05-17 14:15:51.083
228.0, 49029.311422027524, 43202.524566951346, 1027.4873408660103, -11896.581875870452, 11749.060362465425, -13788.455878312097, -896.0143799798942, 33611.569835134724, -0.048, 1.02, 0.12, 192.0, 0.0, 0.0, 0.0, 0.0, 0.0, 0.0, 0.0, 0.0, 0.0, 1.6527897510830963E9, 0.0, 2022-05-17 14:15:51.083
229.0, 48969.09582246492, 43120.60542352265, 947.5798544382876, -12000.338673631988, 13202.169621249393, -13884.166048069723, -671.9157900709856, 33902.58954794282, -0.048, 1.018, 0.124, 192.0, 254.0, 128.0, 31.0, 208.0, 3.0, 224.0, 0.0, 0.0, 0.0, 1.6527897510831015E9, 0.0, 2022-05-17 14:15:51.083
230.0, 48923.542967265006, 43130.239025382885, 944.3388514922681, -11996.918856730326, 13463.170941254013, -13954.641098337306, -806.7415126253978, 33930.037490133946, -0.048, 1.018, 0.124, 192.0, 0.0, 0.0, 0.0, 0.0, 0.0, 0.0, 0.0, 0.0, 0.0, 1.6527897510831068E9, 0.0, 2022-05-17 14:15:51.083
231.0, 48968.40291838681, 43230.620709731666, 1038.819675304851, -11876.39825062731, 12145.40149514693, -13900.639283733284, -1122.1246268897805, 33630.21119001045, -0.048, 1.018, 0.124, 192.0, 0.0, 0.0, 0.0, 0.0, 0.0, 0.0, 0.0, 0.0, 0.0, 1.6527897510831125E9, 0.0, 2022-05-17 14:15:51.083
232.0, 49049.07036412601, 43291.8197860503, 1097.0683213553812, -11820.742406933596, 11081.726680007778, -13794.44614582612, -1175.9476275381598, 33430.028966668724, -0.048, 1.018, 0.124, 192.0, 0.0, 0.0, 0.0, 0.0, 0.0, 0.0, 0.0, 0.0, 0.0, 1.6527897510831175E9, 0.0, 2022-05-17 14:15:51.083
233.0, 49051.685518227285, 43222.708192194485, 1044.9887567745159, -11898.660588104796, 11756.414086391222, -13772.004994392992, -891.0299409663608, 33620.242311983384, -0.048, 1.018, 0.124, 192.0, 0.0, 0.0, 0.0, 0.0, 0.0, 0.0, 0.0, 0.0, 0.0, 1.6527897510831232E9, 0.0, 2022-05-17 14:15:51.083
234.0, 48987.290142451544, 43137.65980454205, 964.6789389465976, -11991.174458405312, 13236.010162354729, -13866.84344611686, -662.0810225106505, 33934.17256285818, -0.048, 1.018, 0.124, 192.0, 0.0, 0.0, 0.0, 0.0, 0.0, 0.0, 0.0, 0.0, 0.0, 1.6527897510831285E9, 0.0, 2022-05-17 14:15:51.083
235.0, 48947.101705920904, 43151.22731342642, 971.0938896052706, -11975.282368097589, 13490.171848556025, -13937.296144639988, -794.0233700303281, 33944.05203390742, -0.048, 1.018, 0.124, 192.0, 0.0, 0.0, 0.0, 0.0, 0.0, 0.0, 0.0, 0.0, 0.0, 1.6527897510831387E9, 0.0, 2022-05-17 14:15:51.083
236.0, 48986.06079650651, 43237.683860979545, 1047.8050765758844, -11879.39338438432, 12188.942693345869, -13892.145620840267, -1107.3948272937332, 33655.4463095005, -0.048, 1.018, 0.124, 192.0, 0.0, 0.0, 0.0, 0.0, 0.0, 0.0, 0.0, 0.0, 0.0, 1.6527897510831444E9, 0.0, 2022-05-17 14:15:51.083
237.0, 49063.1296113884, 43289.09287322675, 1100.465786512588, -11819.423654010732, 11104.279590163183, -13793.77559349246, -1177.7357670945844, 33445.831649998625, -0.048, 1.018, 0.124, 192.0, 0.0, 0.0, 0.0, 0.0, 0.0, 0.0, 0.0, 0.0, 0.0, 1.6527897510831497E9, 0.0, 2022-05-17 14:15:51.083
238.0, 49070.37157659192, 43228.11731435267, 1053.6388818787195, -11879.572198339964, 11744.634717063274, -13769.546302502908, -892.6392665671428, 33619.25883522735, -0.048, 1.018, 0.124, 192.0, 0.0, 0.0, 0.0, 0.0, 0.0, 0.0, 0.0, 0.0, 0.0, 1.6527897510831552E9, 0.0, 2022-05-17 14:15:51.083
239.0, 49005.551517671534, 43136.16223766354, 967.2270378145025, -11977.092859398468, 13217.94995283484, -13868.944510095658, -655.5543131297009, 33926.125934854266, -0.05, 1.018, 0.124, 192.0, 254.0, 112.0, 31.0, 208.0, 3.0, 224.0, 0.0, 0.0, 0.0, 1.6527897510831604E9, 0.0, 2022-05-17 14:15:51.083
240.0, 48957.89759849282, 43135.71520277443, 948.920959105606, -11986.212371136233, 13511.495412766388, -13951.33304015792, -784.8591548036522, 33957.95481895862, -0.05, 1.018, 0.124, 192.0, 0.0, 0.0, 0.0, 0.0, 0.0, 0.0, 0.0, 0.0, 0.0, 1.652789751083166E9, 0.0, 2022-05-17 14:15:51.083
241.0, 49002.75754961462, 43232.587663243736, 1027.532044354921, -11874.58775932643, 12217.932905904401, -13893.777298185505, -1105.5843359928533, 33666.6445334726, -0.05, 1.018, 0.124, 192.0, 0.0, 0.0, 0.0, 0.0, 0.0, 0.0, 0.0, 0.0, 0.0, 1.6527897510831711E9, 0.0, 2022-05-17 14:15:51.083
242.0, 49075.57953305001, 43298.994696020454, 1079.9692368470714, -11813.478089985621, 11140.44471269187, -13793.507372558997, -1176.4393659161767, 33470.46327238838, -0.05, 1.018, 0.124, 192.0, 0.0, 0.0, 0.0, 0.0, 0.0, 0.0, 0.0, 0.0, 0.0, 1.6527897510831769E9, 0.0, 2022-05-17 14:15:51.083
243.0, 49095.49493735969, 43253.15126814262, 1037.4115154041667, -11883.461401875187, 11759.163350959225, -13769.434543780631, -905.6479818401316, 33632.938102834, -0.05, 1.018, 0.124, 192.0, 0.0, 0.0, 0.0, 0.0, 0.0, 0.0, 0.0, 0.0, 0.0, 1.652789751083182E9, 0.0, 2022-05-17 14:15:51.083
244.0, 49036.173407575305, 43168.50521189037, 949.4126974836228, -11997.008263708147, 13230.869261130007, -13870.84440837436, -670.0829470256505, 33936.29597858143, -0.05, 1.018, 0.124, 192.0, 0.0, 0.0, 0.0, 0.0, 0.0, 0.0, 0.0, 0.0, 0.0, 1.6527897510831873E9, 0.0, 2022-05-17 14:15:51.083
245.0, 48991.44756692023, 43185.045502787296, 943.4671334585112, -11990.839182238482, 13515.585782001708, -13960.519607129052, -805.2662974913476, 33946.466022308596, -0.05, 1.018, 0.124, 192.0, 0.0, 0.0, 0.0, 0.0, 0.0, 0.0, 0.0, 0.0, 0.0, 1.6527897510831928E9, 0.0, 2022-05-17 14:15:51.083
246.0, 49035.055820352536, 43290.14340521615, 1026.2579949209685, -11882.67909081925, 12218.245830326776, -13903.097975623366, -1121.8117024674061, 33644.91863786204, -0.05, 1.018, 0.124, 192.0, 0.0, 0.0, 0.0, 0.0, 0.0, 0.0, 0.0, 0.0, 0.0, 1.652789751083198E9, 0.0, 2022-05-17 14:15:51.083
247.0, 49112.996353268194, 43349.62139721172, 1075.5212397004652, -11833.840529184405, 11131.928698054398, -13801.73281451855, -1186.6764648767073, 33448.80443201118, -0.05, 1.018, 0.124, 192.0, 0.0, 0.0, 0.0, 0.0, 0.0, 0.0, 0.0, 0.0, 0.0, 1.6527897510832033E9, 0.0, 2022-05-17 14:15:51.083
248.0, 49126.429751685835, 43304.11324550072, 1029.1637217001585, -11912.630428389362, 11729.077902922381, -13780.610416008285, -926.8374355837626, 33606.02660250981, -0.05, 1.018, 0.124, 192.0, 0.0, 0.0, 0.0, 0.0, 0.0, 0.0, 0.0, 0.0, 0.0, 1.6527897510832088E9, 0.0, 2022-05-17 14:15:51.083
249.0, 49069.74572774717, 43225.21158757348, 948.8092003833295, -12024.053874499068, 13201.029682282173, -13869.07862056239, -689.0372263237508, 33911.03850734693, -0.056, 1.016, 0.114, 192.0, 254.0, 64.0, 31.0, 192.0, 3.0, 144.0, 0.0, 0.0, 0.0, 1.652789751083214E9, 0.0, 2022-05-17 14:15:51.083
250.0, 49034.11704708541, 43232.31944231027, 949.1891800390697, -11992.85083923946, 13516.725720968929, -13961.950118774192, -817.6491639195876, 33938.9111326827, -0.056, 1.016, 0.114, 192.0, 0.0, 0.0, 0.0, 0.0, 0.0, 0.0, 0.0, 0.0, 0.0, 1.6527897510832193E9, 0.0, 2022-05-17 14:15:51.083
251.0, 49074.50664931615, 43329.28130975739, 1026.8614920212617, -11881.717965807673, 12249.672383030938, -13922.052254921467, -1125.6338507692637, 33662.196536325995, -0.056, 1.016, 0.114, 192.0, 0.0, 0.0, 0.0, 0.0, 0.0, 0.0, 0.0, 0.0, 0.0, 1.6527897510832248E9, 0.0, 2022-05-17 14:15:51.083
252.0, 49148.2003507853, 43392.64850528819, 1080.5056787139988, -11830.666581471753, 11166.216274048838, -13816.037930969946, -1188.0175695440257, 33480.11922599307, -0.056, 1.016, 0.114, 192.0, 0.0, 0.0, 0.0, 0.0, 0.0, 0.0, 0.0, 0.0, 0.0, 1.65278975108323E9, 0.0, 2022-05-17 14:15:51.083
253.0, 49173.07784236406, 43346.76037392144, 1039.9596142720718, -11899.062919504991, 11763.745458572563, -13788.58998877883, -914.5886796222544, 33648.27139953034, -0.056, 1.016, 0.114, 192.0, 0.0, 0.0, 0.0, 0.0, 0.0, 0.0, 0.0, 0.0, 0.0, 1.6527897510832355E9, 0.0, 2022-05-17 14:15:51.083
254.0, 49118.53958589311, 43265.221210148484, 961.6391017006757, -11997.27648464161, 13247.677772960398, -13871.447905474652, -670.485278425846, 33962.894554483246, -0.056, 1.016, 0.114, 192.0, 0.0, 0.0, 0.0, 0.0, 0.0, 0.0, 0.0, 0.0, 0.0, 1.6527897510832407E9, 0.0, 2022-05-17 14:15:51.083
255.0, 49079.155812162855, 43281.292114411845, 959.4933342329663, -11979.462144310732, 13573.007413507392, -13950.886005268814, -794.4480531749789, 33985.469816383105, -0.056, 1.016, 0.114, 192.0, 0.0, 0.0, 0.0, 0.0, 0.0, 0.0, 0.0, 0.0, 0.0, 1.6527897510832465E9, 0.0, 2022-05-17 14:15:51.083
0.0, 49122.00410628368, 43383.081958661314, 1033.3434979133008, -11879.192218684224, 12301.81900284517, -13910.250533849066, -1109.5852982503532, 33694.76302799738, -0.056, 1.016, 0.114, 192.0, 0.0, 0.0, 0.0, 0.0, 0.0, 0.0, 0.0, 0.0, 0.0, 1.6527897510832539E9, 0.0, 2022-05-17 14:15:51.083
1.0, 49211.96987771629, 43457.11093629729, 1092.1285858307583, -11817.367293520843, 11178.39797477698, -13802.44807034112, -1190.722130623118, 33480.43215041544, -0.056, 1.016, 0.114, 192.0, 0.0, 0.0, 0.0, 0.0, 0.0, 0.0, 0.0, 0.0, 0.0, 1.652789751083259E9, 0.0, 2022-05-17 14:15:51.083
2.0, 49243.307023442634, 43416.430761388634, 1055.3599662017782, -11876.174733182757, 11744.679420552186, -13772.317918815366, -921.6071273812208, 33633.3404342342, -0.058, 1.018, 0.116, 192.0, 254.0, 48.0, 31.0, 208.0, 3.0, 160.0, 0.0, 0.0, 0.0, 1.6527897510832644E9, 0.0, 2022-05-17 14:15:51.083
3.0, 49200.57048804408, 43344.480495987, 982.6720932331197, -11974.120077385913, 13218.508746446223, -13865.547044938452, -676.2743802397705, 33938.844077449336, -0.058, 1.018, 0.116, 192.0, 0.0, 0.0, 0.0, 0.0, 0.0, 0.0, 0.0, 0.0, 0.0, 1.6527897510832698E9, 0.0, 2022-05-17 14:15:51.083
4.0, 49147.7980193851, 43347.67679544411, 967.9199418926171, -11980.646786766862, 13578.55064613231, -13954.57404310394, -791.7434920958867, 33982.65349658173, -0.058, 1.018, 0.116, 192.0, 0.0, 0.0, 0.0, 0.0, 0.0, 0.0, 0.0, 0.0, 0.0, 1.6527897510832753E9, 0.0, 2022-05-17 14:15:51.083
5.0, 49178.643426733426, 43441.37530820075, 1047.760373086974, -11876.532361094041, 12329.579869458661, -13927.461377079651, -1110.9711064065823, 33706.452990347505, -0.058, 1.018, 0.116, 192.0, 0.0, 0.0, 0.0, 0.0, 0.0, 0.0, 0.0, 0.0, 0.0, 1.6527897510832808E9, 0.0, 2022-05-17 14:15:51.083
6.0, 49257.85800908304, 43505.86009095432, 1102.3880365357443, -11813.72395917463, 11199.408614564969, -13831.281820688466, -1196.0641975479361, 33496.100723278614, -0.058, 1.018, 0.116, 192.0, 0.0, 0.0, 0.0, 0.0, 0.0, 0.0, 0.0, 0.0, 0.0, 1.6527897510832863E9, 0.0, 2022-05-17 14:15:51.083
7.0, 49270.35263423355, 43454.76400312949, 1051.9401493001162, -11878.745183795118, 11766.360612673834, -13807.052529698913, -928.0667815288045, 33660.90013514759, -0.058, 1.018, 0.116, 192.0, 0.0, 0.0, 0.0, 0.0, 0.0, 0.0, 0.0, 0.0, 0.0, 1.6527897510832915E9, 0.0, 2022-05-17 14:15:51.083
8.0, 49215.54615682914, 43368.97800791002, 971.5856279832874, -11980.691490255773, 13248.661249716431, -13895.65484471975, -685.6397611665442, 33971.20940342062, -0.058, 1.018, 0.116, 192.0, 0.0, 0.0, 0.0, 0.0, 0.0, 0.0, 0.0, 0.0, 0.0, 1.6527897510832968E9, 0.0, 2022-05-17 14:15:51.083
9.0, 49185.2595430922, 43387.75347325247, 970.825668671807, -11966.185208104278, 13585.457335168998, -13957.703287327682, -808.3955417150905, 33977.62435407929, -0.058, 1.018, 0.116, 192.0, 0.0, 0.0, 0.0, 0.0, 0.0, 0.0, 0.0, 0.0, 0.0, 1.6527897510833025E9, 0.0, 2022-05-17 14:15:51.083
10.0, 49227.61609883501, 43489.67742796867, 1047.1345242422253, -11866.474076089155, 12327.791729902236, -13914.095033895379, -1115.754379720018, 33686.71639999347, -0.058, 1.018, 0.116, 192.0, 0.0, 0.0, 0.0, 0.0, 0.0, 0.0, 0.0, 0.0, 0.0, 1.6527897510833116E9, 0.0, 2022-05-17 14:15:51.083
11.0, 49298.64994271397, 43552.61994035482, 1098.2753155559678, -11823.37991277932, 11197.285198841715, -13812.394596623732, -1194.0748922914138, 33483.360228939084, -0.058, 1.018, 0.116, 192.0, 0.0, 0.0, 0.0, 0.0, 0.0, 0.0, 0.0, 0.0, 0.0, 1.6527897510833197E9, 0.0, 2022-05-17 14:15:51.083
12.0, 49321.15814938047, 43508.74346598905, 1059.271521481457, -11873.626634314853, 11750.490874110565, -13784.074936398858, -931.0395635413604, 33646.192687295996, -0.054, 1.022, 0.11800000000000001, 192.0, 254.0, 80.0, 31.0, 240.0, 3.0, 176.0, 0.0, 0.0, 0.0, 1.652789751083325E9, 0.0, 2022-05-17 14:15:51.083
13.0, 49272.386642978985, 43436.010889531484, 991.791604970885, -11965.827580192994, 13228.5223279622, -13873.928949109191, -689.2830955127592, 33952.92567645618, -0.054, 1.022, 0.11800000000000001, 192.0, 0.0, 0.0, 0.0, 0.0, 0.0, 0.0, 0.0, 0.0, 0.0, 1.6527897510833304E9, 0.0, 2022-05-17 14:15:51.083
14.0, 49226.945546501345, 43440.25772097799, 981.1745263546142, -11968.442734294264, 13609.97719883647, -13958.91028152827, -807.3226579812358, 33991.14715947475, -0.054, 1.022, 0.11800000000000001, 192.0, 0.0, 0.0, 0.0, 0.0, 0.0, 0.0, 0.0, 0.0, 0.0, 1.652789751083336E9, 0.0, 2022-05-17 14:15:51.083
15.0, 49256.718070115814, 43522.73565801807, 1044.0052800184824, -11879.147515195313, 12380.40773635003, -13923.169842144232, -1126.1255891472804, 33718.36647014219, -0.054, 1.022, 0.11800000000000001, 192.0, 0.0, 0.0, 0.0, 0.0, 0.0, 0.0, 0.0, 0.0, 0.0, 1.6527897510833411E9, 0.0, 2022-05-17 14:15:51.083
16.0, 49340.73827752331, 43588.04745531648, 1103.1256441027695, -11815.802671408972, 11231.393960880514, -13830.968896266091, -1221.008744360059, 33505.93549083894, -0.054, 1.022, 0.11800000000000001, 192.0, 0.0, 0.0, 0.0, 0.0, 0.0, 0.0, 0.0, 0.0, 0.0, 1.6527897510833468E9, 0.0, 2022-05-17 14:15:51.083
17.0, 49375.025853517756, 43556.50914389004, 1074.336597244334, -11868.575140067953, 11736.74455127055, -13793.39561383672, -961.3932325116674, 33638.61544592565, -0.054, 1.022, 0.11800000000000001, 192.0, 0.0, 0.0, 0.0, 0.0, 0.0, 0.0, 0.0, 0.0, 0.0, 1.6527897510833554E9, 0.0, 2022-05-17 14:15:51.083
18.0, 49315.27964058872, 43471.75132891552, 984.6837502340974, -11977.271673354111, 13227.09181631706, -13875.694736921161, -697.1732613054826, 33959.608848048316, -0.054, 1.022, 0.11800000000000001, 192.0, 0.0, 0.0, 0.0, 0.0, 0.0, 0.0, 0.0, 0.0, 0.0, 1.6527897510833623E9, 0.0, 2022-05-17 14:15:51.083
19.0, 49267.22339000981, 43475.34995977282, 973.2173053285248, -11977.048155909557, 13619.946076863538, -13965.347583931398, -808.6190591596436, 33994.410514165225, -0.054, 1.022, 0.11800000000000001, 192.0, 0.0, 0.0, 0.0, 0.0, 0.0, 0.0, 0.0, 0.0, 0.0, 1.6527897510833678E9, 0.0, 2022-05-17 14:15:51.083
20.0, 49293.352579278064, 43558.990187524585, 1048.3415184428118, -11870.54209358002, 12397.909152258535, -13930.054179436467, -1117.721333232085, 33719.57346434277, -0.054, 1.022, 0.11800000000000001, 192.0, 0.0, 0.0, 0.0, 0.0, 0.0, 0.0, 0.0, 0.0, 0.0, 1.6527897510833733E9, 0.0, 2022-05-17 14:15:51.083
21.0, 49361.83832428913, 43618.825807431436, 1104.3549900478113, -11811.041749839993, 11248.873025044564, -13817.177869937166, -1198.9922760715815, 33514.563264198696, -0.054, 1.022, 0.11800000000000001, 192.0, 0.0, 0.0, 0.0, 0.0, 0.0, 0.0, 0.0, 0.0, 0.0, 1.6527897510833786E9, 0.0, 2022-05-17 14:15:51.083
22.0, 49382.73720535484, 43577.653894144765, 1074.9847978335379, -11872.710212792184, 11756.257624180034, -13790.623997524262, -936.0463542993492, 33660.453100258484, -0.05, 1.018, 0.12, 192.0, 254.0, 112.0, 31.0, 208.0, 3.0, 192.0, 0.0, 0.0, 0.0, 1.652789751083386E9, 0.0, 2022-05-17 14:15:51.083
23.0, 49325.22616687133, 43488.11280585681, 994.4514625610665, -11968.263920338622, 13226.33185700558, -13877.304062521944, -686.2656100112928, 33962.40281610523, -0.05, 1.018, 0.12, 192.0, 0.0, 0.0, 0.0, 0.0, 0.0, 0.0, 0.0, 0.0, 0.0, 1.6527897510833912E9, 0.0, 2022-05-17 14:15:51.083
24.0, 49272.00666332325, 43478.88153539676, 974.7819274403963, -11978.165743132324, 13654.300708091345, -13964.967604275656, -781.3275791797137, 34023.49013370158, -0.05, 1.018, 0.12, 192.0, 0.0, 0.0, 0.0, 0.0, 0.0, 0.0, 0.0, 0.0, 0.0, 1.6527897510833967E9, 0.0, 2022-05-17 14:15:51.083
25.0, 49298.64994271397, 43565.986283539096, 1046.9780620310382, -11883.662567575284, 12452.022725584833, -13942.437045864708, -1099.16938533418, 33762.62292416369, -0.05, 1.018, 0.12, 192.0, 0.0, 0.0, 0.0, 0.0, 0.0, 0.0, 0.0, 0.0, 0.0, 1.652789751083402E9, 0.0, 2022-05-17 14:15:51.083
26.0, 49381.373748943064, 43629.91227268127, 1113.3180395743896, -11816.272058042534, 11269.056650287706, -13837.897937047237, -1204.2896395074893, 33532.82463941868, -0.05, 1.018, 0.12, 192.0, 0.0, 0.0, 0.0, 0.0, 0.0, 0.0, 0.0, 0.0, 0.0, 1.6527897510834074E9, 0.0, 2022-05-17 14:15:51.083
27.0, 49409.22402253438, 43587.60042042738, 1084.7078066715965, -11855.298203861501, 11737.70567628213, -13799.341177861832, -957.6828429320864, 33654.90986763357, -0.05, 1.018, 0.12, 192.0, 0.0, 0.0, 0.0, 0.0, 0.0, 0.0, 0.0, 0.0, 0.0, 1.6527897510834134E9, 0.0, 2022-05-17 14:15:51.083
28.0, 49348.2484636603, 43497.92522167268, 1003.6156777877425, -11946.381562516877, 13219.805147624631, -13872.341975252864, -693.6193339370888, 33967.40960686321, -0.05, 1.018, 0.12, 192.0, 0.0, 0.0, 0.0, 0.0, 0.0, 0.0, 0.0, 0.0, 0.0, 1.6527897510834188E9, 0.0, 2022-05-17 14:15:51.083
29.0, 49290.983294365804, 43486.838756422854, 981.0851193767929, -11956.998641133147, 13662.548501795352, -13961.883063540825, -783.9427332809846, 34026.35115699186, -0.05, 1.018, 0.12, 192.0, 0.0, 0.0, 0.0, 0.0, 0.0, 0.0, 0.0, 0.0, 0.0, 1.652789751083424E9, 0.0, 2022-05-17 14:15:51.083
30.0, 49313.53620452121, 43571.59657139738, 1046.6874893531192, -11862.026078942548, 12469.166513582053, -13940.179519674723, -1103.1479958472248, 33764.120491042195, -0.05, 1.018, 0.12, 192.0, 0.0, 0.0, 0.0, 0.0, 0.0, 0.0, 0.0, 0.0, 0.0, 1.6527897510834293E9, 0.0, 2022-05-17 14:15:51.083
31.0, 49393.98013281586, 43643.88211296584, 1117.3637053208001, -11778.765830846529, 11283.115897550095, -13812.573410579374, -1205.5636889414418, 33537.54085749875, -0.05, 1.018, 0.12, 192.0, 0.0, 0.0, 0.0, 0.0, 0.0, 0.0, 0.0, 0.0, 0.0, 1.6527897510834367E9, 0.0, 2022-05-17 14:15:51.083
32.0, 49417.36005751611, 43600.20680430017, 1082.3832252482446, -11848.279756102535, 11747.272222909001, -13772.094401370812, -951.2008370400473, 33668.5444317513, -0.054, 1.018, 0.11800000000000001, 192.0, 254.0, 80.0, 31.0, 208.0, 3.0, 176.0, 0.0, 0.0, 0.0, 1.652789751083442E9, 0.0, 2022-05-17 14:15:51.083
33.0, 49354.57400734115, 43512.58796603537, 987.5224217799214, -11954.808170176528, 13234.646705942954, -13855.93579482267, -688.3666739900916, 33984.64280183826, -0.054, 1.018, 0.11800000000000001, 192.0, 0.0, 0.0, 0.0, 0.0, 0.0, 0.0, 0.0, 0.0, 0.0, 1.6527897510834477E9, 0.0, 2022-05-17 14:15:51.083
34.0, 49302.00270438227, 43508.47524505559, 967.3164447923238, -11959.904367912337, 13678.75351652545, -13952.204758191678, -782.2440007023813, 34030.620340182824, -0.054, 1.018, 0.11800000000000001, 192.0, 0.0, 0.0, 0.0, 0.0, 0.0, 0.0, 0.0, 0.0, 0.0, 1.6527897510834527E9, 0.0, 2022-05-17 14:15:51.083
35.0, 49324.19798662639, 43588.94152509469, 1036.0257072479376, -11868.284567390034, 12482.510505021872, -13931.32822887042, -1095.0343126099483, 33756.7667671164, -0.054, 1.018, 0.11800000000000001, 192.0, 0.0, 0.0, 0.0, 0.0, 0.0, 0.0, 0.0, 0.0, 0.0, 1.6527897510834582E9, 0.0, 2022-05-17 14:15:51.083
36.0, 49401.1103392971, 43659.64009280683, 1102.5668504913867, -11802.168107291236, 11268.654318887511, -13820.68709381665, -1202.2779825065115, 33512.663365919994, -0.054, 1.018, 0.11800000000000001, 192.0, 0.0, 0.0, 0.0, 0.0, 0.0, 0.0, 0.0, 0.0, 0.0, 1.652789751083464E9, 0.0, 2022-05-17 14:15:51.083
37.0, 49412.755598158314, 43606.08531309191, 1056.4104981911778, -11868.999823212604, 11720.450129562632, -13781.705651486594, -949.5244562058994, 33644.65041692858, -0.054, 1.018, 0.11800000000000001, 192.0, 0.0, 0.0, 0.0, 0.0, 0.0, 0.0, 0.0, 0.0, 0.0, 1.6527897510834692E9, 0.0, 2022-05-17 14:15:51.083
38.0, 49354.50695210778, 43519.31584111641, 978.5370205088878, -11970.65555699534, 13202.303731716125, -13875.381812498787, -694.4910519708458, 33957.17250790269, -0.054, 1.018, 0.11800000000000001, 192.0, 0.0, 0.0, 0.0, 0.0, 0.0, 0.0, 0.0, 0.0, 0.0, 1.6527897510834749E9, 0.0, 2022-05-17 14:15:51.083
39.0, 49315.57021326664, 43524.456742341135, 970.1998198270584, -11960.954899901737, 13656.334716836778, -13965.52639788704, -790.0671112617388, 34001.51836890201, -0.054, 1.018, 0.11800000000000001, 192.0, 0.0, 0.0, 0.0, 0.0, 0.0, 0.0, 0.0, 0.0, 0.0, 1.65278975108348E9, 0.0, 2022-05-17 14:15:51.083
40.0, 49340.09007693411, 43607.60523171488, 1038.462047393566, -11868.463381345677, 12484.432755045029, -13920.04059792049, -1092.5756207198644, 33744.18273498806, -0.054, 1.018, 0.11800000000000001, 192.0, 0.0, 0.0, 0.0, 0.0, 0.0, 0.0, 0.0, 0.0, 0.0, 1.6527897510834851E9, 0.0, 2022-05-17 14:15:51.083
41.0, 49418.365886016596, 43668.78195628905, 1106.2548883265124, -11801.698720657674, 11288.525019708279, -13822.83286128436, -1199.6404766607855, 33526.8120201602, -0.054, 1.018, 0.11800000000000001, 192.0, 0.0, 0.0, 0.0, 0.0, 0.0, 0.0, 0.0, 0.0, 0.0, 1.6527897510834908E9, 0.0, 2022-05-17 14:15:51.083
42.0, 49444.00333690683, 43626.939490668716, 1082.78555664844, -11846.133988634825, 11703.798079943428, -13786.131296888745, -957.9957673544607, 33638.28016975882, -0.048, 1.018, 0.12, 192.0, 254.0, 128.0, 31.0, 208.0, 3.0, 192.0, 0.0, 0.0, 0.0, 1.6527897510834963E9, 0.0, 2022-05-17 14:15:51.083
43.0, 49369.39321391502, 43520.63459403928, 985.8013374568627, -11959.166760345312, 13202.013159038206, -13867.26812926151, -679.0012930633179, 33966.13555742926, -0.048, 1.018, 0.12, 192.0, 0.0, 0.0, 0.0, 0.0, 0.0, 0.0, 0.0, 0.0, 0.0, 1.652789751083504E9, 0.0, 2022-05-17 14:15:51.083
44.0, 49316.79955921168, 43511.716248001605, 963.2260755570026, -11975.304719842045, 13705.620313360729, -13968.275662455042, -759.735794035887, 34045.238381056595, -0.048, 1.018, 0.12, 192.0, 0.0, 0.0, 0.0, 0.0, 0.0, 0.0, 0.0, 0.0, 0.0, 1.6527897510835094E9, 0.0, 2022-05-17 14:15:51.083
45.0, 49347.48850434882, 43600.00563860007, 1033.567015357854, -11880.086288462435, 12523.972990986465, -13937.1396824288, -1086.5853532058422, 33768.90376435564, -0.048, 1.018, 0.12, 192.0, 0.0, 0.0, 0.0, 0.0, 0.0, 0.0, 0.0, 0.0, 0.0, 1.6527897510835147E9, 0.0, 2022-05-17 14:15:51.083
46.0, 49424.19969131943, 43664.53512484254, 1095.0343126099483, -11810.974694606626, 11311.748482197343, -13830.052474743425, -1204.9825435856037, 33539.77603194428, -0.048, 1.018, 0.12, 192.0, 0.0, 0.0, 0.0, 0.0, 0.0, 0.0, 0.0, 0.0, 0.0, 1.65278975108352E9, 0.0, 2022-05-17 14:15:51.083
47.0, 49452.49699979985, 43627.52063602456, 1074.2471902665127, -11848.704439247185, 11728.429702333176, -13787.941788189626, -960.9685493670165, 33662.39770202609, -0.048, 1.018, 0.12, 192.0, 0.0, 0.0, 0.0, 0.0, 0.0, 0.0, 0.0, 0.0, 0.0, 1.652789751083526E9, 0.0, 2022-05-17 14:15:51.083
48.0, 49395.92473458347, 43538.493637859065, 993.2668201049353, -11968.398030805354, 13206.483507929268, -13874.264225276022, -695.1839560489602, 33972.885784254766, -0.048, 1.018, 0.12, 192.0, 0.0, 0.0, 0.0, 0.0, 0.0, 0.0, 0.0, 0.0, 0.0, 1.6527897510835311E9, 0.0, 2022-05-17 14:15:51.083
49.0, 49350.058954961176, 43531.98928022257, 981.6439129881755, -11966.252263337645, 13703.161621470646, -13977.439877681718, -780.187640212493, 34031.3802994943, -0.048, 1.018, 0.12, 192.0, 0.0, 0.0, 0.0, 0.0, 0.0, 0.0, 0.0, 0.0, 0.0, 1.6527897510835364E9, 0.0, 2022-05-17 14:15:51.083
50.0, 49378.222152974864, 43625.08429587893, 1057.4386784361218, -11853.845340471906, 12518.407406617094, -13948.248499423087, -1101.8739464132723, 33741.38876693115, -0.048, 1.018, 0.12, 192.0, 0.0, 0.0, 0.0, 0.0, 0.0, 0.0, 0.0, 0.0, 0.0, 1.6527897510835419E9, 0.0, 2022-05-17 14:15:51.083
51.0, 49456.63207252408, 43697.07926476947, 1133.7922374954508, -11770.227464464602, 11286.289845262749, -13807.477212843563, -1204.6472674187742, 33502.71683963738, -0.048, 1.018, 0.12, 192.0, 0.0, 0.0, 0.0, 0.0, 0.0, 0.0, 0.0, 0.0, 0.0, 1.652789751083547E9, 0.0, 2022-05-17 14:15:51.083
52.0, 49463.89638947206, 43637.95890068518, 1094.2520015540126, -11837.48386353062, 11705.921495666684, -13774.10605837179, -948.2504067719468, 33646.41620474055, -0.052000000000000005, 1.022, 0.116, 192.0, 254.0, 96.0, 31.0, 240.0, 3.0, 160.0, 0.0, 0.0, 0.0, 1.6527897510835526E9, 0.0, 2022-05-17 14:15:51.083
53.0, 49401.28915325274, 43549.893027531274, 1013.3833901147116, -11938.044361835047, 13182.701251828821, -13858.215672757111, -684.8798018550638, 33957.59719104734, -0.052000000000000005, 1.022, 0.116, 192.0, 0.0, 0.0, 0.0, 0.0, 0.0, 0.0, 0.0, 0.0, 0.0, 1.652789751083558E9, 0.0, 2022-05-17 14:15:51.083
54.0, 49338.50310307778, 43540.21472218212, 997.6254102737201, -11939.65368743583, 13708.883668051205, -13944.985144732613, -759.7804975247976, 34035.940055363186, -0.052000000000000005, 1.022, 0.116, 192.0, 0.0, 0.0, 0.0, 0.0, 0.0, 0.0, 0.0, 0.0, 0.0, 1.652789751083563E9, 0.0, 2022-05-17 14:15:51.083
55.0, 49363.09002197862, 43629.800513958995, 1066.7817076184401, -11840.993087410103, 12556.785351846856, -13922.320475854931, -1077.0635100678815, 33771.5189184569, -0.052000000000000005, 1.022, 0.116, 192.0, 0.0, 0.0, 0.0, 0.0, 0.0, 0.0, 0.0, 0.0, 0.0, 1.6527897510835688E9, 0.0, 2022-05-17 14:15:51.083
56.0, 49449.948900931944, 43703.53891891705, 1129.8583304713168, -11772.95437728815, 11321.471491035401, -13815.412082125198, -1196.1759562702127, 33536.289159809254, -0.052000000000000005, 1.022, 0.116, 192.0, 0.0, 0.0, 0.0, 0.0, 0.0, 0.0, 0.0, 0.0, 0.0, 1.652789751083574E9, 0.0, 2022-05-17 14:15:51.083
57.0, 49479.944941990965, 43663.79751727552, 1098.7670539339847, -11816.853203398372, 11704.043949132438, -13771.222683337055, -949.8820841171843, 33656.27332404534, -0.052000000000000005, 1.022, 0.116, 192.0, 0.0, 0.0, 0.0, 0.0, 0.0, 0.0, 0.0, 0.0, 0.0, 1.6527897510835795E9, 0.0, 2022-05-17 14:15:51.083
0.0, 0.0, 0.0, 0.0, 0.0, 0.0, 0.0, 0.0, 0.0, -0.062, 1.018, 0.15, 192.0, 254.0, 16.0, 31.0, 208.0, 4.0, 176.0, 0.0, 0.0, 0.0, 1.6527897511921556E9, 0.0, 2022-05-17 14:15:51.192
1.0, 50057.893998371845, 43838.67756589384, 1459.6359681649171, -11259.154827494005, 19584.10675336203, -13495.245694547379, -443.9727001157642, 35603.04321086922, -0.062, 1.018, 0.15, 192.0, 0.0, 0.0, 0.0, 0.0, 0.0, 0.0, 0.0, 0.0, 0.0, 1.6527897516687531E9, 0.0, 2022-05-17 14:15:51.668
2.0, 50084.40316729584, 43923.92711924638, 1528.0993614315225, -11157.744962900277, 18483.976243016274, -13460.824008086207, -746.4812095738899, 35348.702710712285, -0.062, 1.018, 0.15, 192.0, 0.0, 0.0, 0.0, 0.0, 0.0, 0.0, 0.0, 0.0, 0.0, 1.652789751668831E9, 0.0, 2022-05-17 14:15:51.668
3.0, 50160.84613333299, 43995.67621894792, 1595.2440017752651, -11085.325310865082, 17228.1658325393, -13351.747495144307, -871.896847712618, 35094.228100088614, -0.062, 1.018, 0.15, 192.0, 0.0, 0.0, 0.0, 0.0, 0.0, 0.0, 0.0, 0.0, 0.0, 1.65278975166895E9, 0.0, 2022-05-17 14:15:51.668
4.0, 50178.772232386145, 43953.342014949565, 1563.1916002263547, -11133.001581788252, 17565.52071160325, -13302.126622453527, -629.1569029279832, 35213.67582245777, -0.062, 1.018, 0.15, 192.0, 0.0, 0.0, 0.0, 0.0, 0.0, 0.0, 0.0, 0.0, 0.0, 1.6527897516689744E9, 0.0, 2022-05-17 14:15:51.668
5.0, 50121.641173558375, 43859.77761265965, 1480.7807184196377, -11236.490158616323, 19001.46383064554, -13380.625948980565, -366.4792020892146, 35512.138666169485, -0.062, 1.018, 0.15, 192.0, 0.0, 0.0, 0.0, 0.0, 0.0, 0.0, 0.0, 0.0, 0.0, 1.65278975166898E9, 0.0, 2022-05-17 14:15:51.668
6.0, 50058.09516407194, 43838.834028105026, 1452.4387064503082, -11263.066382773684, 19569.77928516618, -13470.815237857729, -435.41198198938156, 35592.98492586433, -0.062, 1.018, 0.15, 192.0, 0.0, 0.0, 0.0, 0.0, 0.0, 0.0, 0.0, 0.0, 0.0, 1.6527897516689975E9, 0.0, 2022-05-17 14:15:51.668
7.0, 50080.893943416355, 43919.34501163304, 1518.5328148046513, -11170.574864217624, 18494.682728610365, -13452.442103915466, -737.7193257474096, 35353.70950147027, -0.062, 1.018, 0.15, 192.0, 0.0, 0.0, 0.0, 0.0, 0.0, 0.0, 0.0, 0.0, 0.0, 1.6527897516690032E9, 0.0, 2022-05-17 14:15:51.669
8.0, 50164.31065372356, 43994.91625963643, 1597.054493076145, -11065.722830977778, 17238.09000707746, -13347.657125908987, -861.5926935187214, 35102.65470774826, -0.062, 1.004, 0.17, 192.0, 254.0, 16.0, 31.0, 96.0, 5.0, 80.0, 0.0, 0.0, 0.0, 1.6527897516690087E9, 0.0, 2022-05-17 14:15:51.669
9.0, 50195.84896515, 43957.03005278469, 1576.088556777067, -11113.309694923128, 17548.46633058385, -13293.521200838233, -620.3726673570475, 35207.86436889939, -0.062, 1.004, 0.17, 192.0, 0.0, 0.0, 0.0, 0.0, 0.0, 0.0, 0.0, 0.0, 0.0, 1.6527897516690145E9, 0.0, 2022-05-17 14:15:51.669
10.0, 50135.700420820765, 43855.82135389106, 1488.022683623157, -11223.324981132148, 19012.036205772903, -13374.613329722088, -341.7134692327344, 35538.22315194883, -0.062, 1.004, 0.17, 192.0, 0.0, 0.0, 0.0, 0.0, 0.0, 0.0, 0.0, 0.0, 0.0, 1.6527897516690197E9, 0.0, 2022-05-17 14:15:51.669
11.0, 50073.24964681264, 43828.708687866776, 1466.028567079135, -11238.099484217106, 19616.583838055594, -13467.104848278148, -403.0019525291863, 35646.29383639024, -0.062, 1.004, 0.17, 192.0, 0.0, 0.0, 0.0, 0.0, 0.0, 0.0, 0.0, 0.0, 0.0, 1.652789751669025E9, 0.0, 2022-05-17 14:15:51.669
12.0, 50086.414824296815, 43908.4150085944, 1531.7203440332823, -11145.339744727582, 18546.851700169052, -13442.428522399488, -712.1042266016277, 35405.14086546193, -0.062, 1.004, 0.17, 192.0, 0.0, 0.0, 0.0, 0.0, 0.0, 0.0, 0.0, 0.0, 0.0, 1.6527897516690304E9, 0.0, 2022-05-17 14:15:51.669
13.0, 50159.16975249884, 43980.76760539623, 1603.3576850125414, -11065.365203066493, 17298.618531062428, -13340.437512449922, -844.314795054769, 35169.46407192518, -0.062, 1.004, 0.17, 192.0, 0.0, 0.0, 0.0, 0.0, 0.0, 0.0, 0.0, 0.0, 0.0, 1.652789751669036E9, 0.0, 2022-05-17 14:15:51.669
14.0, 50182.817898132555, 43940.8697415435, 1581.2518097462428, -11111.096872222051, 17601.395261454018, -13292.023633959727, -621.5573098131788, 35274.60667784294, -0.062, 1.004, 0.17, 192.0, 0.0, 0.0, 0.0, 0.0, 0.0, 0.0, 0.0, 0.0, 0.0, 1.6527897516690412E9, 0.0, 2022-05-17 14:15:51.669
15.0, 50117.70726653424, 43843.52789444064, 1490.3696167909643, -11221.425082853448, 19047.217851545556, -13378.12255360157, -356.21975138422863, 35588.402818250994, -0.062, 1.004, 0.17, 192.0, 0.0, 0.0, 0.0, 0.0, 0.0, 0.0, 0.0, 0.0, 0.0, 1.6527897516690466E9, 0.0, 2022-05-17 14:15:51.669
16.0, 50071.99794912314, 43834.18486525832, 1470.1636398033668, -11229.829338768643, 19637.326256910117, -13471.351679724656, -419.7434091262113, 35670.63488610207, -0.062, 1.004, 0.17, 192.0, 0.0, 0.0, 0.0, 0.0, 0.0, 0.0, 0.0, 0.0, 0.0, 1.652789751669052E9, 0.0, 2022-05-17 14:15:51.669
17.0, 50095.355522078935, 43916.908671487414, 1538.6940883033383, -11139.572994658112, 18570.522197547223, -13446.585946868176, -714.7864359362645, 35422.508170903704, -0.062, 1.008, 0.176, 192.0, 254.0, 16.0, 31.0, 128.0, 5.0, 128.0, 0.0, 0.0, 0.0, 1.6527897516690571E9, 0.0, 2022-05-17 14:15:51.669
18.0, 50171.48556369371, 43986.355541510056, 1608.1186065815218, -11059.084362874552, 17313.035406236104, -13343.41029446248, -830.4567134924786, 35180.706999386195, -0.062, 1.008, 0.176, 192.0, 0.0, 0.0, 0.0, 0.0, 0.0, 0.0, 0.0, 0.0, 0.0, 1.6527897516690629E9, 0.0, 2022-05-17 14:15:51.669
19.0, 50191.46802323676, 43949.18459048088, 1583.2411150027651, -11116.617753102511, 17609.553648180205, -13304.406500387968, -597.551536268179, 35290.58817512848, -0.062, 1.008, 0.176, 192.0, 0.0, 0.0, 0.0, 0.0, 0.0, 0.0, 0.0, 0.0, 0.0, 1.652789751669068E9, 0.0, 2022-05-17 14:15:51.669
20.0, 50133.532301608604, 43853.54147595662, 1498.639762239428, -11220.307495630681, 19060.606546474286, -13389.387832807046, -335.1867598517847, 35608.47468477186, -0.062, 1.008, 0.176, 192.0, 0.0, 0.0, 0.0, 0.0, 0.0, 0.0, 0.0, 0.0, 0.0, 1.6527897516690736E9, 0.0, 2022-05-17 14:15:51.669
21.0, 50087.97944640869, 43837.76114437117, 1474.7233956722494, -11232.690362058922, 19668.66340263646, -13476.738450138386, -405.3712374414489, 35695.6241364031, -0.062, 1.008, 0.176, 192.0, 0.0, 0.0, 0.0, 0.0, 0.0, 0.0, 0.0, 0.0, 0.0, 1.652789751669079E9, 0.0, 2022-05-17 14:15:51.669
22.0, 50115.80736825554, 43926.07288671409, 1543.5220651056845, -11142.21050050384, 18579.19467439588, -13451.078647503693, -720.8661104281081, 35417.36726967899, -0.062, 1.008, 0.176, 192.0, 0.0, 0.0, 0.0, 0.0, 0.0, 0.0, 0.0, 0.0, 0.0, 1.6527897516690843E9, 0.0, 2022-05-17 14:15:51.669
23.0, 50188.67405517984, 43995.67621894792, 1609.146786826466, -11056.71507796229, 17313.303627169567, -13338.045875793205, -838.6821554520316, 35175.744912117116, -0.062, 1.008, 0.176, 192.0, 0.0, 0.0, 0.0, 0.0, 0.0, 0.0, 0.0, 0.0, 0.0, 1.6527897516690896E9, 0.0, 2022-05-17 14:15:51.669
24.0, 50209.30471531209, 43954.41489868342, 1581.698844635349, -11103.027892473685, 17586.754868835793, -13289.922569980929, -607.5427660397013, 35275.83602378798, -0.062, 1.008, 0.176, 192.0, 0.0, 0.0, 0.0, 0.0, 0.0, 0.0, 0.0, 0.0, 0.0, 1.6527897516690967E9, 0.0, 2022-05-17 14:15:51.669
25.0, 50151.81602857304, 43865.052624351105, 1497.8574511834922, -11211.992646693308, 19019.85931633226, -13367.93015812995, -341.4228965548154, 35579.57387919115, -0.062, 1.008, 0.176, 192.0, 0.0, 0.0, 0.0, 0.0, 0.0, 0.0, 0.0, 0.0, 0.0, 1.652789751669102E9, 0.0, 2022-05-17 14:15:51.669
26.0, 50095.95901917923, 43843.505542696184, 1474.2763607831432, -11232.377437636547, 19632.565335341136, -13464.3779354546, -397.59283037100204, 35665.29281917725, -0.062, 1.008, 0.176, 192.0, 0.0, 0.0, 0.0, 0.0, 0.0, 0.0, 0.0, 0.0, 0.0, 1.6527897516691074E9, 0.0, 2022-05-17 14:15:51.669
27.0, 50111.15820540884, 43920.08261920007, 1537.4200388693857, -11144.378619716004, 18594.72913679232, -13449.46932190291, -694.2228310373821, 35432.29823497513, -0.06, 1.006, 0.17400000000000002, 192.0, 254.0, 32.0, 31.0, 112.0, 5.0, 112.0, 0.0, 0.0, 0.0, 1.6527897516691127E9, 0.0, 2022-05-17 14:15:51.669
28.0, 50172.200819516285, 43985.014436842735, 1600.7872344001812, -11068.740316479245, 17342.942040317303, -13343.678515395943, -823.0806378222272, 35207.50674098811, -0.06, 1.006, 0.17400000000000002, 192.0, 0.0, 0.0, 0.0, 0.0, 0.0, 0.0, 0.0, 0.0, 0.0, 1.6527897516691203E9, 0.0, 2022-05-17 14:15:51.669
29.0, 50196.944200628306, 43949.94454979236, 1579.5754289120948, -11116.01425600222, 17606.849087101113, -13298.438584618401, -604.5699840271454, 35309.475399193216, -0.06, 1.006, 0.17400000000000002, 192.0, 0.0, 0.0, 0.0, 0.0, 0.0, 0.0, 0.0, 0.0, 0.0, 1.6527897516691258E9, 0.0, 2022-05-17 14:15:51.669
30.0, 50146.40690641486, 43854.39084224592, 1500.606715751495, -11214.6972077724, 19031.90690659367, -13377.496704756823, -341.5123035326366, 35607.53591150474, -0.06, 1.006, 0.17400000000000002, 192.0, 0.0, 0.0, 0.0, 0.0, 0.0, 0.0, 0.0, 0.0, 0.0, 1.6527897516691313E9, 0.0, 2022-05-17 14:15:51.669
31.0, 50096.54016453507, 43846.523028197655, 1480.7583666751823, -11223.950829976897, 19639.27085867773, -13460.399324941556, -397.1904989708065, 35677.18394722747, -0.06, 1.006, 0.17400000000000002, 192.0, 0.0, 0.0, 0.0, 0.0, 0.0, 0.0, 0.0, 0.0, 0.0, 1.6527897516691363E9, 0.0, 2022-05-17 14:15:51.669
32.0, 50113.43808334328, 43925.17881693588, 1541.5551115936175, -11140.131788269495, 18595.332633892613, -13438.293449675257, -690.355979246614, 35429.25839772921, -0.06, 1.006, 0.17400000000000002, 192.0, 0.0, 0.0, 0.0, 0.0, 0.0, 0.0, 0.0, 0.0, 0.0, 1.652789751669142E9, 0.0, 2022-05-17 14:15:51.669
33.0, 50194.17258431585, 44001.75589343976, 1615.8970136519688, -11057.631499484956, 17317.975141760726, -13332.055608279183, -817.0009633303838, 35185.02088606607, -0.06, 1.006, 0.17400000000000002, 192.0, 0.0, 0.0, 0.0, 0.0, 0.0, 0.0, 0.0, 0.0, 0.0, 1.6527897516691473E9, 0.0, 2022-05-17 14:15:51.669
34.0, 50225.84500620902, 43965.38960521098, 1592.6735511629047, -11099.317502894104, 17563.1961301799, -13290.257846147759, -598.3785508130254, 35278.987619756175, -0.06, 1.006, 0.17400000000000002, 192.0, 0.0, 0.0, 0.0, 0.0, 0.0, 0.0, 0.0, 0.0, 0.0, 1.6527897516691525E9, 0.0, 2022-05-17 14:15:51.669
35.0, 50173.92190383934, 43875.40148203391, 1524.120750918478, -11195.40765230747, 18971.84776924226, -13362.632794694042, -332.3033848170501, 35562.65360863848, -0.06, 1.006, 0.17400000000000002, 192.0, 0.0, 0.0, 0.0, 0.0, 0.0, 0.0, 0.0, 0.0, 0.0, 1.652789751669158E9, 0.0, 2022-05-17 14:15:51.669
36.0, 50109.43712108578, 43855.888409124425, 1501.1431576184223, -11218.675818285445, 19609.051300174153, -13454.721981849907, -376.8280597720218, 35651.904124248525, -0.06, 1.006, 0.17400000000000002, 192.0, 0.0, 0.0, 0.0, 0.0, 0.0, 0.0, 0.0, 0.0, 0.0, 1.6527897516691635E9, 0.0, 2022-05-17 14:15:51.669
37.0, 50124.166920681826, 43930.43147688288, 1566.8796380614804, -11139.81886384712, 18575.417229582934, -13437.51113861932, -678.643665152033, 35405.34203116203, -0.068, 1.012, 0.178, 192.0, 253.0, 224.0, 31.0, 160.0, 5.0, 144.0, 0.0, 0.0, 0.0, 1.6527897516691687E9, 0.0, 2022-05-17 14:15:51.669
38.0, 50190.864526136465, 43996.480881748306, 1633.2196156048317, -11045.650964456912, 17299.57965607401, -13334.380189702535, -815.7939691297971, 35167.11713875737, -0.068, 1.012, 0.178, 192.0, 0.0, 0.0, 0.0, 0.0, 0.0, 0.0, 0.0, 0.0, 0.0, 1.6527897516691742E9, 0.0, 2022-05-17 14:15:51.669
39.0, 50214.02093339216, 43959.5781516526, 1612.410141516941, -11082.084307919064, 17533.624772265528, -13289.855514747564, -598.713826979855, 35262.6708463038, -0.068, 1.012, 0.178, 192.0, 0.0, 0.0, 0.0, 0.0, 0.0, 0.0, 0.0, 0.0, 0.0, 1.6527897516691797E9, 0.0, 2022-05-17 14:15:51.669
40.0, 50164.2435984902, 43869.83589766454, 1534.5143120901957, -11188.769184204244, 18946.41148405212, -13360.464675481877, -329.62117548241326, 35552.75178584478, -0.068, 1.012, 0.178, 192.0, 0.0, 0.0, 0.0, 0.0, 0.0, 0.0, 0.0, 0.0, 0.0, 1.6527897516691847E9, 0.0, 2022-05-17 14:15:51.669
41.0, 50099.49059480317, 43843.28202525163, 1502.1266343744558, -11215.770091506254, 19593.986224411277, -13449.983412025382, -373.3411876369939, 35641.37645261007, -0.068, 1.012, 0.178, 192.0, 0.0, 0.0, 0.0, 0.0, 0.0, 0.0, 0.0, 0.0, 0.0, 1.6527897516691904E9, 0.0, 2022-05-17 14:15:51.669
42.0, 50104.4750338167, 43914.38292436396, 1556.9554635233242, -11140.914099325431, 18579.217026140337, -13440.32745842069, -674.1062610276057, 35404.58207185055, -0.068, 1.012, 0.178, 192.0, 0.0, 0.0, 0.0, 0.0, 0.0, 0.0, 0.0, 0.0, 0.0, 1.6527897516691957E9, 0.0, 2022-05-17 14:15:51.669
43.0, 50180.31450275356, 43988.858936889046, 1625.4635602788403, -11055.932766906353, 17290.504847825152, -13331.094483267605, -814.3634574846575, 35159.383435175834, -0.068, 1.012, 0.178, 192.0, 0.0, 0.0, 0.0, 0.0, 0.0, 0.0, 0.0, 0.0, 0.0, 1.652789751669201E9, 0.0, 2022-05-17 14:15:51.669
44.0, 50200.76634893016, 43946.50238114624, 1594.0817110635892, -11095.897685992442, 17528.863850696547, -13285.00518620076, -592.2988763211819, 35271.79035804157, -0.068, 1.012, 0.178, 192.0, 0.0, 0.0, 0.0, 0.0, 0.0, 0.0, 0.0, 0.0, 0.0, 1.6527897516692064E9, 0.0, 2022-05-17 14:15:51.669
45.0, 50149.69261284979, 43852.62505443395, 1508.9439164333246, -11208.036387924718, 18972.764190764927, -13364.108009828093, -319.4511317552485, 35593.54371947572, -0.068, 1.012, 0.178, 192.0, 0.0, 0.0, 0.0, 0.0, 0.0, 0.0, 0.0, 0.0, 0.0, 1.6527897516692116E9, 0.0, 2022-05-17 14:15:51.669
46.0, 50097.41188256883, 43840.018670561156, 1488.804994679093, -11223.45909159888, 19640.477852878317, -13456.174845239502, -370.3237021355274, 35691.08673227867, -0.068, 1.012, 0.178, 192.0, 0.0, 0.0, 0.0, 0.0, 0.0, 0.0, 0.0, 0.0, 0.0, 1.6527897516692169E9, 0.0, 2022-05-17 14:15:51.669
47.0, 50121.931746236296, 43925.111761702516, 1559.1682862243995, -11127.950087541352, 18619.427814415434, -13441.154472965536, -675.2461999948264, 35440.63543565696, -0.07200000000000001, 1.012, 0.17400000000000002, 192.0, 253.0, 192.0, 31.0, 160.0, 5.0, 112.0, 0.0, 0.0, 0.0, 1.6527897516692224E9, 0.0, 2022-05-17 14:15:51.669
48.0, 50196.944200628306, 44001.510024250754, 1631.2526620927647, -11045.762723179188, 17299.825525263015, -13333.530823413234, -823.1700448000485, 35168.77116784706, -0.07200000000000001, 1.012, 0.17400000000000002, 192.0, 0.0, 0.0, 0.0, 0.0, 0.0, 0.0, 0.0, 0.0, 0.0, 1.6527897516692276E9, 0.0, 2022-05-17 14:15:51.669
49.0, 50223.07338989656, 43969.70349189085, 1612.2536793057538, -11092.120241179497, 17487.89310310997, -13278.120848908526, -608.8615189625643, 35242.420165827294, -0.07200000000000001, 1.012, 0.17400000000000002, 192.0, 0.0, 0.0, 0.0, 0.0, 0.0, 0.0, 0.0, 0.0, 0.0, 1.652789751669235E9, 0.0, 2022-05-17 14:15:51.669
50.0, 50164.44476419029, 43869.0535866086, 1522.3326113620535, -11199.810945965166, 18920.88579188416, -13348.037105564727, -320.0993323444524, 35558.58559114762, -0.07200000000000001, 1.012, 0.17400000000000002, 192.0, 0.0, 0.0, 0.0, 0.0, 0.0, 0.0, 0.0, 0.0, 0.0, 1.6527897516692405E9, 0.0, 2022-05-17 14:15:51.669
51.0, 50099.557650036535, 43837.17999901534, 1484.669921954861, -11232.84682427011, 19625.368073626527, -13452.017420770815, -358.9466642077761, 35682.101331007645, -0.07200000000000001, 1.012, 0.17400000000000002, 192.0, 0.0, 0.0, 0.0, 0.0, 0.0, 0.0, 0.0, 0.0, 0.0, 1.6527897516692455E9, 0.0, 2022-05-17 14:15:51.669
52.0, 50114.175690910306, 43911.320735373585, 1549.7582018087153, -11137.695448123866, 18621.77474758324, -13442.361467166123, -672.7651563602873, 35438.35555772252, -0.07200000000000001, 1.012, 0.17400000000000002, 192.0, 0.0, 0.0, 0.0, 0.0, 0.0, 0.0, 0.0, 0.0, 0.0, 1.6527897516692512E9, 0.0, 2022-05-17 14:15:51.669
53.0, 50186.28241852313, 43980.47703271831, 1616.4111037744408, -11056.536264006647, 17321.28319994011, -13342.672686895454, -828.1097803246714, 35189.73710414614, -0.07200000000000001, 1.012, 0.17400000000000002, 192.0, 0.0, 0.0, 0.0, 0.0, 0.0, 0.0, 0.0, 0.0, 0.0, 1.6527897516692564E9, 0.0, 2022-05-17 14:15:51.669
54.0, 50227.23081436525, 43964.47318368831, 1607.7386269257818, -11084.207723642317, 17492.832838634593, -13287.754450768763, -624.194815658905, 35254.57951481098, -0.07200000000000001, 1.012, 0.17400000000000002, 192.0, 0.0, 0.0, 0.0, 0.0, 0.0, 0.0, 0.0, 0.0, 0.0, 1.6527897516692617E9, 0.0, 2022-05-17 14:15:51.669
55.0, 50172.84902010549, 43871.08759535404, 1530.4015911104193, -11188.411556292958, 18909.531105700866, -13353.289765511725, -337.75721046414503, 35557.2444864803, -0.07200000000000001, 1.012, 0.17400000000000002, 192.0, 0.0, 0.0, 0.0, 0.0, 0.0, 0.0, 0.0, 0.0, 0.0, 1.6527897516692672E9, 0.0, 2022-05-17 14:15:51.669
56.0, 50100.51877504811, 43834.18486525832, 1492.2248115807547, -11229.203489923893, 19605.92205595041, -13451.99506902636, -376.1128039494519, 35667.10331047813, -0.07200000000000001, 1.012, 0.17400000000000002, 192.0, 0.0, 0.0, 0.0, 0.0, 0.0, 0.0, 0.0, 0.0, 0.0, 1.6527897516692727E9, 0.0, 2022-05-17 14:15:51.669
57.0, 50104.586792538976, 43892.25469735321, 1558.8777135464804, -11125.96078228483, 18622.57941038363, -13440.729789820885, -672.385176704547, 35436.92504607738, -0.076, 1.012, 0.17400000000000002, 192.0, 253.0, 160.0, 31.0, 160.0, 5.0, 112.0, 0.0, 0.0, 0.0, 1.652789751669278E9, 0.0, 2022-05-17 14:15:51.669
58.0, 50151.19017972829, 43944.177799722886, 1631.0067929037564, -11036.129121318952, 17315.270580681634, -13335.117797269559, -817.1797772860263, 35185.44556921072, -0.076, 1.012, 0.17400000000000002, 192.0, 0.0, 0.0, 0.0, 0.0, 0.0, 0.0, 0.0, 0.0, 0.0, 1.6527897516692834E9, 0.0, 2022-05-17 14:15:51.669
59.0, 50169.51861018164, 43896.76974973318, 1605.8834321359911, -11077.613959028002, 17498.152553814954, -13283.999357700272, -605.6428677610002, 35273.77966329809, -0.076, 1.012, 0.17400000000000002, 192.0, 0.0, 0.0, 0.0, 0.0, 0.0, 0.0, 0.0, 0.0, 0.0, 1.6527897516692889E9, 0.0, 2022-05-17 14:15:51.669
60.0, 50095.48963254567, 43783.62521930042, 1522.0420386841345, -11185.505829513768, 18917.153050560126, -13351.255756766292, -328.86121617093283, 35577.96455359037, -0.076, 1.012, 0.17400000000000002, 192.0, 0.0, 0.0, 0.0, 0.0, 0.0, 0.0, 0.0, 0.0, 0.0, 1.6527897516692944E9, 0.0, 2022-05-17 14:15:51.669
61.0, 49999.66770406577, 43728.32700351799, 1483.4852794987298, -11213.713731016367, 19636.432187131904, -13443.300240433246, -362.88057123191015, 35696.11587478112, -0.076, 1.012, 0.17400000000000002, 192.0, 0.0, 0.0, 0.0, 0.0, 0.0, 0.0, 0.0, 0.0, 0.0, 1.6527897516692996E9, 0.0, 2022-05-17 14:15:51.669
62.0, 49994.72796854115, 43786.77681526862, 1553.8709227884917, -11117.511822880724, 18642.427759459944, -13429.75508329333, -673.2345429938488, 35442.87061010249, -0.076, 1.012, 0.17400000000000002, 192.0, 0.0, 0.0, 0.0, 0.0, 0.0, 0.0, 0.0, 0.0, 0.0, 1.652789751669305E9, 0.0, 2022-05-17 14:15:51.669
63.0, 50042.940681331245, 43847.93118809834, 1625.5529672566615, -11036.129121318952, 17310.84493527948, -13325.126567498037, -830.3449547702021, 35171.2522114816, -0.076, 1.012, 0.17400000000000002, 192.0, 0.0, 0.0, 0.0, 0.0, 0.0, 0.0, 0.0, 0.0, 0.0, 1.6527897516693103E9, 0.0, 2022-05-17 14:15:51.669
64.0, 50049.020355823086, 43783.08877743349, 1602.2400977897762, -11073.47888630377, 17467.68712612237, -13269.537779037688, -625.9829552153296, 35247.29284611855, -0.076, 1.012, 0.17400000000000002, 192.0, 0.0, 0.0, 0.0, 0.0, 0.0, 0.0, 0.0, 0.0, 0.0, 1.6527897516693158E9, 0.0, 2022-05-17 14:15:51.669
65.0, 49960.149819868784, 43647.72661301215, 1514.4200938248748, -11195.11707962955, 18883.64778562162, -13336.861233337073, -345.2003413677623, 35550.51661139925, -0.076, 1.012, 0.17400000000000002, 192.0, 0.0, 0.0, 0.0, 0.0, 0.0, 0.0, 0.0, 0.0, 0.0, 1.6527897516693213E9, 0.0, 2022-05-17 14:15:51.669
66.0, 49866.272493156495, 43586.326370993425, 1477.383253262431, -11230.879870758043, 19616.092099677575, -13430.738560049364, -370.8601440024548, 35670.768996568804, -0.076, 1.012, 0.17400000000000002, 192.0, 0.0, 0.0, 0.0, 0.0, 0.0, 0.0, 0.0, 0.0, 0.0, 1.6527897516693265E9, 0.0, 2022-05-17 14:15:51.669
67.0, 49847.40762083622, 43631.67806049324, 1538.157646436411, -11148.267823251226, 18637.979762313338, -13419.249763399335, -674.5979994056224, 35425.615063383, -0.078, 1.01, 0.17200000000000001, 192.0, 253.0, 144.0, 31.0, 144.0, 5.0, 96.0, 0.0, 0.0, 0.0, 1.6527897516693373E9, 0.0, 2022-05-17 14:15:51.669
68.0, 49894.078063258894, 43676.985046504145, 1603.8494233905583, -11067.958005423308, 17304.497039854174, -13322.667875607953, -832.4460187490009, 35156.81298456347, -0.078, 1.01, 0.17200000000000001, 192.0, 0.0, 0.0, 0.0, 0.0, 0.0, 0.0, 0.0, 0.0, 0.0, 1.6527897516693425E9, 0.0, 2022-05-17 14:15:51.669
69.0, 49907.10913027634, 43623.31850806696, 1583.5763911695947, -11102.312636651115, 17445.2683264337, -13272.734078494797, -625.1112371815726, 35227.042165642044, -0.078, 1.01, 0.17200000000000001, 192.0, 0.0, 0.0, 0.0, 0.0, 0.0, 0.0, 0.0, 0.0, 0.0, 1.652789751669348E9, 0.0, 2022-05-17 14:15:51.669
70.0, 49834.44360905214, 43505.23424210957, 1493.6553232258946, -11213.289047871715, 18874.01418376138, -13345.35489623009, -333.97976565119814, 35548.639064865005, -0.078, 1.01, 0.17200000000000001, 192.0, 0.0, 0.0, 0.0, 0.0, 0.0, 0.0, 0.0, 0.0, 0.0, 1.6527897516693554E9, 0.0, 2022-05-17 14:15:51.669
71.0, 49765.35436694078, 43473.31595102739, 1458.5630844310624, -11235.685495815933, 19606.41379432843, -13441.243879943357, -365.2498561441727, 35662.5659063537, -0.078, 1.01, 0.17200000000000001, 192.0, 0.0, 0.0, 0.0, 0.0, 0.0, 0.0, 0.0, 0.0, 0.0, 1.6527897516693609E9, 0.0, 2022-05-17 14:15:51.669
72.0, 49760.772259327445, 43530.670527299706, 1514.4647973137853, -11154.816884376633, 18665.472407993366, -13425.843528013651, -657.4989148973126, 35447.67623516038, -0.078, 1.01, 0.17200000000000001, 192.0, 0.0, 0.0, 0.0, 0.0, 0.0, 0.0, 0.0, 0.0, 0.0, 1.652789751669366E9, 0.0, 2022-05-17 14:15:51.669
73.0, 49830.822626450376, 43613.97547888464, 1586.6832836488825, -11067.488618789748, 17335.700075113782, -13327.16057624347, -823.5947279446993, 35187.30076400051, -0.078, 1.01, 0.17200000000000001, 192.0, 0.0, 0.0, 0.0, 0.0, 0.0, 0.0, 0.0, 0.0, 0.0, 1.6527897516693714E9, 0.0, 2022-05-17 14:15:51.669
74.0, 49852.90614997222, 43590.75201639557, 1569.7406613517596, -11101.843250017555, 17451.348000925544, -13279.730174509308, -628.6651645499664, 35247.38225309637, -0.078, 1.01, 0.17200000000000001, 192.0, 0.0, 0.0, 0.0, 0.0, 0.0, 0.0, 0.0, 0.0, 0.0, 1.6527897516693769E9, 0.0, 2022-05-17 14:15:51.669
75.0, 49803.32998077035, 43502.23910835256, 1486.1674888333666, -11214.630152539034, 18861.83248303324, -13350.272280010258, -340.7299924767009, 35557.66916962495, -0.078, 1.01, 0.17200000000000001, 192.0, 0.0, 0.0, 0.0, 0.0, 0.0, 0.0, 0.0, 0.0, 0.0, 1.6527897516693823E9, 0.0, 2022-05-17 14:15:51.669
76.0, 49763.72268959555, 43493.18665184816, 1456.0820407965232, -11239.21707143987, 19596.31080583463, -13451.548034137253, -371.6201033139352, 35664.689322076956, -0.078, 1.01, 0.17200000000000001, 192.0, 0.0, 0.0, 0.0, 0.0, 0.0, 0.0, 0.0, 0.0, 0.0, 1.652789751669388E9, 0.0, 2022-05-17 14:15:51.669
77.0, 49780.44179444812, 43576.49160343309, 1516.4988060592182, -11143.35043947106, 18643.902974593995, -13439.746313064852, -669.032415036251, 35427.134982005955, -0.07200000000000001, 1.012, 0.176, 192.0, 253.0, 192.0, 31.0, 160.0, 5.0, 128.0, 0.0, 0.0, 0.0, 1.6527897516693933E9, 0.0, 2022-05-17 14:15:51.669
78.0, 49853.50964707252, 43663.3057788975, 1585.8115656151256, -11058.972604152275, 17305.48051661021, -13338.738779871319, -833.6753646940429, 35162.110347999376, -0.07200000000000001, 1.012, 0.176, 192.0, 0.0, 0.0, 0.0, 0.0, 0.0, 0.0, 0.0, 0.0, 0.0, 1.6527897516693988E9, 0.0, 2022-05-17 14:15:51.669
79.0, 49902.97405755211, 43651.79463050302, 1568.2654462177095, -11092.05318594613, 17407.963264937793, -13275.729212251808, -631.3473738846033, 35218.83907542695, -0.07200000000000001, 1.012, 0.176, 192.0, 0.0, 0.0, 0.0, 0.0, 0.0, 0.0, 0.0, 0.0, 0.0, 1.6527897516694045E9, 0.0, 2022-05-17 14:15:51.669
80.0, 49869.17821993568, 43566.455670172654, 1486.9050964003918, -11205.957675690375, 18823.87922094813, -13348.595899176109, -340.3276610765053, 35533.953968757865, -0.07200000000000001, 1.012, 0.176, 192.0, 0.0, 0.0, 0.0, 0.0, 0.0, 0.0, 0.0, 0.0, 0.0, 1.6527897516694095E9, 0.0, 2022-05-17 14:15:51.669
81.0, 49817.38922803274, 43544.1262774618, 1454.159790773367, -11242.815702297175, 19593.78505871118, -13458.342964451667, -368.3791003679157, 35666.03042674428, -0.07200000000000001, 1.012, 0.176, 192.0, 0.0, 0.0, 0.0, 0.0, 0.0, 0.0, 0.0, 0.0, 0.0, 1.6527897516694152E9, 0.0, 2022-05-17 14:15:51.669
82.0, 49853.44259183915, 43645.312624610975, 1519.248070627221, -11152.49230295328, 18646.69694265091, -13450.028115514293, -674.8215168501755, 35425.48095291626, -0.07200000000000001, 1.012, 0.176, 192.0, 0.0, 0.0, 0.0, 0.0, 0.0, 0.0, 0.0, 0.0, 0.0, 1.6527897516694207E9, 0.0, 2022-05-17 14:15:51.669
83.0, 49942.55899698246, 43739.59228272346, 1599.6919989218711, -11060.961909408798, 17294.505810082654, -13338.4482071934, -838.6598037075763, 35149.63807459332, -0.07200000000000001, 1.012, 0.176, 192.0, 0.0, 0.0, 0.0, 0.0, 0.0, 0.0, 0.0, 0.0, 0.0, 1.6527897516694262E9, 0.0, 2022-05-17 14:15:51.669
84.0, 49981.36162535687, 43719.47571271368, 1581.922362079902, -11093.371938868993, 17398.06144214409, -13280.646596031977, -634.5436733417122, 35217.475619015175, -0.07200000000000001, 1.012, 0.176, 192.0, 0.0, 0.0, 0.0, 0.0, 0.0, 0.0, 0.0, 0.0, 0.0, 1.6527897516694317E9, 0.0, 2022-05-17 14:15:51.669
85.0, 49946.40349702877, 43639.5011710526, 1497.768044205671, -11216.328885117637, 18818.850078445685, -13340.795140361208, -341.7805244661003, 35541.084175239106, -0.07200000000000001, 1.012, 0.176, 192.0, 0.0, 0.0, 0.0, 0.0, 0.0, 0.0, 0.0, 0.0, 0.0, 1.6527897516694372E9, 0.0, 2022-05-17 14:15:51.669
86.0, 49888.423071911704, 43619.22813883163, 1460.4853344542187, -11225.98483872233, 19605.78794548368, -13440.796845054252, -364.13226892140733, 35680.11202575112, -0.07200000000000001, 1.012, 0.176, 192.0, 0.0, 0.0, 0.0, 0.0, 0.0, 0.0, 0.0, 0.0, 0.0, 1.6527897516694424E9, 0.0, 2022-05-17 14:15:51.669
87.0, 49917.234470514595, 43716.12295104539, 1536.6600795579052, -11116.461290891326, 18672.669669707975, -13437.13115896358, -665.6573016234996, 35443.87643860298, -0.07, 1.01, 0.178, 192.0, 253.0, 208.0, 31.0, 144.0, 5.0, 144.0, 0.0, 0.0, 0.0, 1.652789751669448E9, 0.0, 2022-05-17 14:15:51.669
88.0, 49998.03602672053, 43807.921565523335, 1609.4150077599297, -11039.705400431802, 17335.588316391506, -13332.659105379476, -819.1690825425485, 35184.01505756558, -0.07, 1.01, 0.178, 192.0, 0.0, 0.0, 0.0, 0.0, 0.0, 0.0, 0.0, 0.0, 0.0, 1.6527897516694531E9, 0.0, 2022-05-17 14:15:51.669
89.0, 50034.33525971595, 43792.208289171256, 1600.8989931224578, -11071.62369151398, 17437.89225076345, -13276.846799474573, -622.0266964467403, 35260.01098871362, -0.07, 1.01, 0.178, 192.0, 0.0, 0.0, 0.0, 0.0, 0.0, 0.0, 0.0, 0.0, 0.0, 1.6527897516694584E9, 0.0, 2022-05-17 14:15:51.669
90.0, 49995.44322436371, 43712.81489286601, 1523.673716029372, -11180.409631777959, 18841.023008945347, -13343.969088073862, -339.724163976212, 35566.743977873804, -0.07, 1.01, 0.178, 192.0, 0.0, 0.0, 0.0, 0.0, 0.0, 0.0, 0.0, 0.0, 0.0, 1.652789751669464E9, 0.0, 2022-05-17 14:15:51.669
91.0, 49947.49873250708, 43691.87130831138, 1485.0499016106012, -11233.18210043694, 19621.881201491502, -13449.13404573608, -356.0409374285862, 35690.32677296719, -0.07, 1.01, 0.178, 192.0, 0.0, 0.0, 0.0, 0.0, 0.0, 0.0, 0.0, 0.0, 0.0, 1.652789751669469E9, 0.0, 2022-05-17 14:15:51.669
92.0, 49968.53172403952, 43779.981884954206, 1544.997280239735, -11159.846026879077, 18706.174934646482, -13456.42071442851, -654.6602433514886, 35462.361331267515, -0.07, 1.01, 0.178, 192.0, 0.0, 0.0, 0.0, 0.0, 0.0, 0.0, 0.0, 0.0, 0.0, 1.6527897516694765E9, 0.0, 2022-05-17 14:15:51.669
93.0, 50055.234140781664, 43870.34998778701, 1626.7823132017033, -11049.718981947779, 17338.33758095951, -13352.350992244601, -826.3439925127021, 35175.588449905925, -0.07, 1.01, 0.178, 192.0, 0.0, 0.0, 0.0, 0.0, 0.0, 0.0, 0.0, 0.0, 0.0, 1.6527897516694818E9, 0.0, 2022-05-17 14:15:51.669
94.0, 50100.742292492665, 43848.825257876546, 1614.600612473561, -11089.952121967332, 17411.070157417078, -13294.281160149714, -628.5757575721452, 35232.67480524478, -0.07, 1.01, 0.178, 192.0, 0.0, 0.0, 0.0, 0.0, 0.0, 0.0, 0.0, 0.0, 0.0, 1.6527897516694872E9, 0.0, 2022-05-17 14:15:51.669
95.0, 50069.38279502187, 43764.69329174677, 1530.2227771547768, -11200.615608765556, 18814.53619176581, -13352.418047477968, -334.8514836849551, 35544.727509585326, -0.07, 1.01, 0.178, 192.0, 0.0, 0.0, 0.0, 0.0, 0.0, 0.0, 0.0, 0.0, 0.0, 1.6527897516694927E9, 0.0, 2022-05-17 14:15:51.669
96.0, 50014.57631761746, 43737.602977466944, 1487.575648734051, -11238.121835961561, 19627.647951560968, -13440.215699698414, -348.10606814695217, 35688.76215085532, -0.07, 1.01, 0.178, 192.0, 0.0, 0.0, 0.0, 0.0, 0.0, 0.0, 0.0, 0.0, 0.0, 1.652789751669498E9, 0.0, 2022-05-17 14:15:51.669
97.0, 50028.8590823244, 43822.4949029082, 1545.958405251313, -11143.328087726604, 18726.13504244507, -13433.04078972826, -648.1335339705389, 35463.277752790185, -0.066, 1.004, 0.18, 192.0, 253.0, 240.0, 31.0, 96.0, 5.0, 160.0, 0.0, 0.0, 0.0, 1.6527897516695037E9, 0.0, 2022-05-17 14:15:51.669
98.0, 50108.654810029846, 43911.20897665131, 1625.0165253897342, -11037.202005052806, 17363.30447951609, -13328.076997766138, -820.9572220989731, 35186.96548783368, -0.066, 1.004, 0.18, 192.0, 0.0, 0.0, 0.0, 0.0, 0.0, 0.0, 0.0, 0.0, 0.0, 1.652789751669509E9, 0.0, 2022-05-17 14:15:51.669
99.0, 50149.44674366078, 43891.58414501955, 1609.79498741567, -11075.222322371284, 17414.19940164082, -13264.642747001977, -635.5942053311117, 35236.765174480104, -0.066, 1.004, 0.18, 192.0, 0.0, 0.0, 0.0, 0.0, 0.0, 0.0, 0.0, 0.0, 0.0, 1.6527897516695144E9, 0.0, 2022-05-17 14:15:51.669
100.0, 50107.738388507176, 43807.27336493413, 1522.5784805510618, -11181.147239344984, 18794.374918267124, -13328.769901844253, -347.70373674675665, 35531.785849545704, -0.066, 1.004, 0.18, 192.0, 0.0, 0.0, 0.0, 0.0, 0.0, 0.0, 0.0, 0.0, 0.0, 1.6527897516695197E9, 0.0, 2022-05-17 14:15:51.669
101.0, 50033.95528006021, 43769.834192971495, 1471.86237238197, -11221.112158431073, 19617.969646211823, -13429.218641426402, -353.58224553850243, 35680.04497051775, -0.066, 1.004, 0.18, 192.0, 0.0, 0.0, 0.0, 0.0, 0.0, 0.0, 0.0, 0.0, 0.0, 1.6527897516695273E9, 0.0, 2022-05-17 14:15:51.669
102.0, 50046.31579474399, 43842.477362451245, 1532.6814690448607, -11139.01420104673, 18741.133062974583, -13419.339170377156, -645.4513246359021, 35470.63147671598, -0.066, 1.004, 0.18, 192.0, 0.0, 0.0, 0.0, 0.0, 0.0, 0.0, 0.0, 0.0, 0.0, 1.652789751669533E9, 0.0, 2022-05-17 14:15:51.669
103.0, 50122.08820844749, 43923.345973890544, 1609.1244350820107, -11052.624708726968, 17385.38800303793, -13320.16448022896, -820.1078558096715, 35205.83036015396, -0.066, 1.004, 0.18, 192.0, 0.0, 0.0, 0.0, 0.0, 0.0, 0.0, 0.0, 0.0, 0.0, 1.6527897516695404E9, 0.0, 2022-05-17 14:15:51.669
104.0, 50152.888912306895, 43898.244964867234, 1589.1866790278768, -11079.603264284524, 17433.10897745001, -13266.363831325036, -627.8828534940307, 35264.61544807142, -0.066, 1.004, 0.18, 192.0, 0.0, 0.0, 0.0, 0.0, 0.0, 0.0, 0.0, 0.0, 0.0, 1.652789751669546E9, 0.0, 2022-05-17 14:15:51.669
105.0, 50111.806405998046, 43808.56976611254, 1510.5979455230172, -11181.057832367163, 18803.24856081588, -13330.915669311962, -345.08858264548576, 35553.19882073389, -0.066, 1.004, 0.18, 192.0, 0.0, 0.0, 0.0, 0.0, 0.0, 0.0, 0.0, 0.0, 0.0, 1.6527897516695514E9, 0.0, 2022-05-17 14:15:51.669
106.0, 50048.662727911804, 43773.2316581287, 1472.9352561158248, -11219.88281248603, 19629.480794606305, -13420.70262678893, -340.4394197987819, 35695.57943291419, -0.066, 1.0, 0.182, 192.0, 253.0, 240.0, 31.0, 64.0, 5.0, 176.0, 0.0, 0.0, 0.0, 1.6527897516695569E9, 0.0, 2022-05-17 14:15:51.669
107.0, 50046.24873951063, 43841.270368250654, 1522.1985008953216, -11149.050134307163, 18775.085362802194, -13428.61514432611, -626.4076383599804, 35499.24170961878, -0.066, 1.0, 0.182, 192.0, 0.0, 0.0, 0.0, 0.0, 0.0, 0.0, 0.0, 0.0, 0.0, 1.6527897516695623E9, 0.0, 2022-05-17 14:15:51.669
108.0, 50128.34669689497, 43936.354689163534, 1608.990324615279, -11051.775342437666, 17397.457945043796, -13335.855404836584, -812.3518004836799, 35213.899339902324, -0.066, 1.0, 0.182, 192.0, 0.0, 0.0, 0.0, 0.0, 0.0, 0.0, 0.0, 0.0, 0.0, 1.6527897516695676E9, 0.0, 2022-05-17 14:15:51.669
109.0, 50172.960778827764, 43926.16229369191, 1608.8338624040919, -11068.315633334594, 17402.040052657136, -13267.190845869882, -628.8663302500642, 35241.97313093819, -0.066, 1.0, 0.182, 192.0, 0.0, 0.0, 0.0, 0.0, 0.0, 0.0, 0.0, 0.0, 0.0, 1.6527897516695733E9, 0.0, 2022-05-17 14:15:51.669
110.0, 50132.39236264138, 43835.682432136826, 1528.9487277208243, -11180.789611433698, 18774.213644768435, -13332.815567590664, -338.42776279780423, 35533.77515480222, -0.066, 1.0, 0.182, 192.0, 0.0, 0.0, 0.0, 0.0, 0.0, 0.0, 0.0, 0.0, 0.0, 1.6527897516695788E9, 0.0, 2022-05-17 14:15:51.669
111.0, 50064.57716996398, 43790.95659148176, 1482.3229887870539, -11209.243382125305, 19632.990018485787, -13436.035923485271, -337.7125069752344, 35697.59108991517, -0.066, 1.0, 0.182, 192.0, 0.0, 0.0, 0.0, 0.0, 0.0, 0.0, 0.0, 0.0, 0.0, 1.652789751669584E9, 0.0, 2022-05-17 14:15:51.669
112.0, 50072.06500435651, 43866.863115651984, 1547.5006756187292, -11122.920945038908, 18779.980394837905, -13442.383818910577, -639.9751472443518, 35493.74318048277, -0.066, 1.0, 0.182, 192.0, 0.0, 0.0, 0.0, 0.0, 0.0, 0.0, 0.0, 0.0, 0.0, 1.6527897516695895E9, 0.0, 2022-05-17 14:15:51.669
113.0, 50152.08424950651, 43958.929951063394, 1629.1963016028765, -11027.031961325642, 17401.458907301298, -13335.430721691933, -825.9193093680512, 35212.021793368076, -0.066, 1.0, 0.182, 192.0, 0.0, 0.0, 0.0, 0.0, 0.0, 0.0, 0.0, 0.0, 0.0, 1.6527897516695971E9, 0.0, 2022-05-17 14:15:51.669
114.0, 50186.46123247877, 43940.24389269875, 1620.1885485873877, -11052.669412215879, 17418.200363898322, -13269.113095893037, -642.9926327458182, 35262.559087581525, -0.066, 1.0, 0.182, 192.0, 0.0, 0.0, 0.0, 0.0, 0.0, 0.0, 0.0, 0.0, 0.0, 1.6527897516696024E9, 0.0, 2022-05-17 14:15:51.669
115.0, 50141.44481914578, 43845.4501444638, 1540.3481173930309, -11160.382468746004, 18784.00370883986, -13337.867061837562, -357.6726147738236, 35552.57297188914, -0.066, 1.0, 0.182, 192.0, 0.0, 0.0, 0.0, 0.0, 0.0, 0.0, 0.0, 0.0, 0.0, 1.6527897516696079E9, 0.0, 2022-05-17 14:15:51.669
116.0, 50076.71416720321, 43803.585327099005, 1497.410416294386, -11202.73902448881, 19620.718910779826, -13442.093246232658, -363.0817369320079, 35686.39286594306, -0.068, 1.004, 0.182, 192.0, 253.0, 224.0, 31.0, 96.0, 5.0, 176.0, 0.0, 0.0, 0.0, 1.6527897516696131E9, 0.0, 2022-05-17 14:15:51.669
117.0, 50089.700530731745, 43879.98358964725, 1557.380146667975, -11120.216383959816, 18778.773400637318, -13434.717170562408, -643.2161501903713, 35482.18732859938, -0.068, 1.004, 0.182, 192.0, 0.0, 0.0, 0.0, 0.0, 0.0, 0.0, 0.0, 0.0, 0.0, 1.6527897516696184E9, 0.0, 2022-05-17 14:15:51.669
118.0, 50162.477810678225, 43958.929951063394, 1634.7171824833374, -11039.928917876354, 17402.665901501885, -13333.888451324518, -823.4159139890569, 35205.89741538733, -0.068, 1.004, 0.182, 192.0, 0.0, 0.0, 0.0, 0.0, 0.0, 0.0, 0.0, 0.0, 0.0, 1.652789751669624E9, 0.0, 2022-05-17 14:15:51.669
119.0, 50197.97238087325, 43929.96209024931, 1624.8153596896364, -11056.223339584272, 17409.147907393923, -13270.141276137982, -634.4766181083463, 35257.93227647928, -0.068, 1.004, 0.182, 192.0, 0.0, 0.0, 0.0, 0.0, 0.0, 0.0, 0.0, 0.0, 0.0, 1.6527897516696293E9, 0.0, 2022-05-17 14:15:51.669
120.0, 50145.64694710338, 43834.698955380794, 1535.1401609349443, -11163.511712969746, 18799.225246813923, -13336.883585081529, -339.16537036482936, 35577.361056490074, -0.068, 1.004, 0.182, 192.0, 0.0, 0.0, 0.0, 0.0, 0.0, 0.0, 0.0, 0.0, 0.0, 1.6527897516696348E9, 0.0, 2022-05-17 14:15:51.669
121.0, 50080.268094571606, 43797.34919039598, 1491.286038313632, -11214.518393816757, 19655.475873407828, -13451.413923670521, -349.55893153654716, 35722.31211928274, -0.068, 1.004, 0.182, 192.0, 0.0, 0.0, 0.0, 0.0, 0.0, 0.0, 0.0, 0.0, 0.0, 1.652789752148974E9, 0.0, 2022-05-17 14:15:52.148
122.0, 50088.784109209075, 43872.4063482769, 1550.6075680980168, -11134.543852155668, 18814.37972955462, -13451.95036553745, -641.7409350563211, 35514.0832679371, -0.068, 1.004, 0.182, 192.0, 0.0, 0.0, 0.0, 0.0, 0.0, 0.0, 0.0, 0.0, 0.0, 1.6527897521493008E9, 0.0, 2022-05-17 14:15:52.149
123.0, 50159.52738041012, 43964.16025926593, 1631.0738481371222, -11039.727752176255, 17426.716378535795, -13345.131378785538, -828.5344634693222, 35229.32204357649, -0.068, 1.004, 0.182, 192.0, 0.0, 0.0, 0.0, 0.0, 0.0, 0.0, 0.0, 0.0, 0.0, 1.6527897521493134E9, 0.0, 2022-05-17 14:15:52.149
124.0, 50204.432035020836, 43952.04561377116, 1622.9154614109352, -11063.9123396769, 17403.470564302275, -13277.182075641404, -653.7214700843657, 35262.782605026085, -0.068, 1.004, 0.182, 192.0, 0.0, 0.0, 0.0, 0.0, 0.0, 0.0, 0.0, 0.0, 0.0, 1.6527897521493237E9, 0.0, 2022-05-17 14:15:52.149
125.0, 50150.027889016616, 43854.03321433464, 1536.4365621133522, -11175.514599742246, 18774.72773489091, -13344.416122962968, -356.8903037178879, 35565.64874239549, -0.068, 1.004, 0.182, 192.0, 0.0, 0.0, 0.0, 0.0, 0.0, 0.0, 0.0, 0.0, 0.0, 1.6527897521493337E9, 0.0, 2022-05-17 14:15:52.149
126.0, 50077.65294047033, 43809.754408568675, 1491.8895354139252, -11219.234611896827, 19634.152309197463, -13461.248691230858, -362.0759084315191, 35700.85444460565, -0.074, 1.01, 0.184, 192.0, 253.0, 176.0, 31.0, 144.0, 5.0, 192.0, 0.0, 0.0, 0.0, 1.6527897521493433E9, 0.0, 2022-05-17 14:15:52.149
127.0, 50085.76662370761, 43881.36939780348, 1547.634786085461, -11132.643953876968, 18804.09792710518, -13468.401249456556, -653.6991183399103, 35491.44095080387, -0.074, 1.01, 0.184, 192.0, 0.0, 0.0, 0.0, 0.0, 0.0, 0.0, 0.0, 0.0, 0.0, 1.6527897521493533E9, 0.0, 2022-05-17 14:15:52.149
128.0, 50154.25236871867, 43960.539276664174, 1623.8318829336029, -11045.919185390376, 17429.555050081617, -13358.207149291891, -835.3964490171014, 35223.15296210682, -0.074, 1.01, 0.184, 192.0, 0.0, 0.0, 0.0, 0.0, 0.0, 0.0, 0.0, 0.0, 0.0, 1.652789752149364E9, 0.0, 2022-05-17 14:15:52.149
129.0, 50196.20659306128, 43945.78712532367, 1618.7803886867034, -11063.219435598783, 17382.459924514285, -13291.353081626068, -670.1276505145611, 35243.9177327058, -0.074, 1.01, 0.184, 192.0, 0.0, 0.0, 0.0, 0.0, 0.0, 0.0, 0.0, 0.0, 0.0, 1.6527897521493757E9, 0.0, 2022-05-17 14:15:52.149
130.0, 50147.68095584881, 43852.759164900686, 1534.8719400014807, -11158.527273956213, 18740.261344940824, -13357.156617302493, -371.84362075848827, 35538.46902113784, -0.074, 1.01, 0.184, 192.0, 0.0, 0.0, 0.0, 0.0, 0.0, 0.0, 0.0, 0.0, 0.0, 1.6527897521493857E9, 0.0, 2022-05-17 14:15:52.149
131.0, 50080.603370738434, 43815.20823421577, 1492.1577563473888, -11200.928533187931, 19623.132899180997, -13456.733638850885, -354.23044612770633, 35690.57264215621, -0.074, 1.01, 0.184, 192.0, 0.0, 0.0, 0.0, 0.0, 0.0, 0.0, 0.0, 0.0, 0.0, 1.6527897521493957E9, 0.0, 2022-05-17 14:15:52.149
132.0, 50083.46439402871, 43885.70563622781, 1538.2023499253214, -11136.331991712093, 18804.67907246102, -13464.28852847678, -640.645699578011, 35482.83552918858, -0.074, 1.01, 0.184, 192.0, 0.0, 0.0, 0.0, 0.0, 0.0, 0.0, 0.0, 0.0, 0.0, 1.6527897521494062E9, 0.0, 2022-05-17 14:15:52.149
133.0, 50165.5399996686, 43991.54114622369, 1606.8445571475695, -11032.575193950557, 17422.44719534483, -13366.83492265164, -827.1933588020038, 35209.54074973354, -0.074, 1.01, 0.184, 192.0, 0.0, 0.0, 0.0, 0.0, 0.0, 0.0, 0.0, 0.0, 0.0, 1.652789752149416E9, 0.0, 2022-05-17 14:15:52.149
134.0, 50235.29979411361, 43980.6334949295, 1604.5870309575835, -11053.47407501627, 17377.140209333924, -13305.725253310831, -660.0470137652176, 35242.46486931621, -0.074, 1.01, 0.184, 192.0, 0.0, 0.0, 0.0, 0.0, 0.0, 0.0, 0.0, 0.0, 0.0, 1.6527897521494684E9, 0.0, 2022-05-17 14:15:52.149
135.0, 50179.71100565327, 43848.93701659882, 1534.4025533679192, -11163.981099603308, 18737.400321650544, -13358.453018480901, -359.3266438635163, 35542.98407351781, -0.074, 1.01, 0.184, 192.0, 0.0, 0.0, 0.0, 0.0, 0.0, 0.0, 0.0, 0.0, 0.0, 1.6527897521494787E9, 0.0, 2022-05-17 14:15:52.149
136.0, 50087.86768768641, 43771.7340912502, 1500.9419919183247, -11199.565076776156, 19636.722759809825, -13457.180673739991, -339.2324255981953, 35702.93315683999, -0.068, 1.018, 0.182, 192.0, 253.0, 224.0, 31.0, 208.0, 5.0, 176.0, 0.0, 0.0, 0.0, 1.652789752149491E9, 0.0, 2022-05-17 14:15:52.149
137.0, 50085.43134754078, 43836.75531587069, 1554.5414751221508, -11134.745017855766, 18849.181395671534, -13468.46830468992, -620.4620743348687, 35514.48559933729, -0.068, 1.018, 0.182, 192.0, 0.0, 0.0, 0.0, 0.0, 0.0, 0.0, 0.0, 0.0, 0.0, 1.6527897521495006E9, 0.0, 2022-05-17 14:15:52.149
138.0, 50152.64304311789, 43915.76873252019, 1648.6423192789937, -11042.454664999803, 17437.959305996814, -13366.901977885007, -821.6277744326323, 35213.139380590845, -0.068, 1.018, 0.182, 192.0, 0.0, 0.0, 0.0, 0.0, 0.0, 0.0, 0.0, 0.0, 0.0, 1.6527897521495094E9, 0.0, 2022-05-17 14:15:52.149
139.0, 50190.81982264755, 43888.4101973069, 1652.7773920032255, -11058.458514029804, 17361.516339959664, -13291.15191592597, -642.7020600678993, 35225.41048829681, -0.068, 1.018, 0.182, 192.0, 0.0, 0.0, 0.0, 0.0, 0.0, 0.0, 0.0, 0.0, 0.0, 1.652789752149518E9, 0.0, 2022-05-17 14:15:52.149
140.0, 50142.09301973499, 43778.57372505352, 1568.2207427287988, -11185.796402191687, 18728.392568635056, -13353.289765511725, -334.1585796068406, 35536.43501239241, -0.068, 1.018, 0.182, 192.0, 0.0, 0.0, 0.0, 0.0, 0.0, 0.0, 0.0, 0.0, 0.0, 1.6527897521495275E9, 0.0, 2022-05-17 14:15:52.149
141.0, 50060.978539106676, 43724.05782032703, 1519.8739194719697, -11238.859443528587, 19637.8850505215, -13465.89785407756, -324.43557076878204, 35697.456979448434, -0.068, 1.018, 0.182, 192.0, 0.0, 0.0, 0.0, 0.0, 0.0, 0.0, 0.0, 0.0, 0.0, 1.652789752149537E9, 0.0, 2022-05-17 14:15:52.149
142.0, 50056.061155326504, 43788.14027168039, 1573.1381265089665, -11161.880035624508, 18855.238718418925, -13471.306976235746, -614.9188417099526, 35506.84130273358, -0.068, 1.018, 0.182, 192.0, 0.0, 0.0, 0.0, 0.0, 0.0, 0.0, 0.0, 0.0, 0.0, 1.6527897521495464E9, 0.0, 2022-05-17 14:15:52.149
143.0, 50124.54690033757, 43871.467575009774, 1646.6753657669267, -11074.037679915153, 17462.70268710884, -13378.211960579392, -816.218652274448, 35229.23263659867, -0.068, 1.018, 0.182, 192.0, 0.0, 0.0, 0.0, 0.0, 0.0, 0.0, 0.0, 0.0, 0.0, 1.6527897521495576E9, 0.0, 2022-05-17 14:15:52.149
144.0, 50173.13959278341, 43867.73483368574, 1643.8813977100133, -11066.058107144609, 17368.467732485264, -13309.167421956949, -658.9070747979969, 35238.59801752544, -0.068, 1.018, 0.182, 192.0, 0.0, 0.0, 0.0, 0.0, 0.0, 0.0, 0.0, 0.0, 0.0, 1.6527897521495671E9, 0.0, 2022-05-17 14:15:52.149
145.0, 50141.3330604235, 43790.598963570475, 1561.0458327586452, -11166.953881615864, 18706.71137651341, -13360.285861526236, -361.338300864494, 35525.92969249841, -0.068, 1.018, 0.182, 192.0, 0.0, 0.0, 0.0, 0.0, 0.0, 0.0, 0.0, 0.0, 0.0, 1.6527897521495767E9, 0.0, 2022-05-17 14:15:52.149
146.0, 50072.13205958987, 43749.53880900607, 1506.9546111768022, -11222.117986931562, 19615.667416532924, -13463.66267963203, -344.1498093783628, 35678.07801700569, -0.062, 1.014, 0.18, 192.0, 254.0, 16.0, 31.0, 176.0, 5.0, 160.0, 0.0, 0.0, 0.0, 1.652789752149586E9, 0.0, 2022-05-17 14:15:52.149
147.0, 50069.60631246642, 43816.77285632764, 1553.088611732556, -11152.559358186647, 18839.614849044665, -13471.57519716921, -629.7380482838212, 35482.76847395521, -0.062, 1.014, 0.18, 192.0, 0.0, 0.0, 0.0, 0.0, 0.0, 0.0, 0.0, 0.0, 0.0, 1.6527897521495967E9, 0.0, 2022-05-17 14:15:52.149
148.0, 50148.53032213811, 43912.706543529814, 1634.538368527695, -11052.557653493603, 17430.806747771116, -13368.108972085593, -833.9882891164171, 35191.748761147115, -0.062, 1.014, 0.18, 192.0, 0.0, 0.0, 0.0, 0.0, 0.0, 0.0, 0.0, 0.0, 0.0, 1.652789752149606E9, 0.0, 2022-05-17 14:15:52.149
149.0, 50190.283380780624, 43901.463616068795, 1627.8328451911027, -11071.958967680808, 17329.039255266103, -13298.148011940482, -667.6913103689326, 35206.47856074316, -0.062, 1.014, 0.18, 192.0, 0.0, 0.0, 0.0, 0.0, 0.0, 0.0, 0.0, 0.0, 0.0, 1.6527897521496174E9, 0.0, 2022-05-17 14:15:52.149
150.0, 50140.170769711825, 43803.65238233237, 1536.2577481577098, -11184.656463224466, 18691.89216993954, -13361.470503982366, -355.5491990505694, 35523.91803549743, -0.062, 1.014, 0.18, 192.0, 0.0, 0.0, 0.0, 0.0, 0.0, 0.0, 0.0, 0.0, 0.0, 1.6527897521496277E9, 0.0, 2022-05-17 14:15:52.149
151.0, 50070.79095492255, 43763.91098069084, 1489.542602246118, -11237.451283627903, 19626.016274215734, -13469.362374468134, -339.09831513146344, 35693.567775913216, -0.062, 1.014, 0.18, 192.0, 0.0, 0.0, 0.0, 0.0, 0.0, 0.0, 0.0, 0.0, 0.0, 1.6527897521496382E9, 0.0, 2022-05-17 14:15:52.149
152.0, 50078.81523118201, 43833.782533858124, 1547.120695962989, -11141.539948170179, 18859.619660332162, -13469.80940935724, -624.6418505480111, 35499.59933753006, -0.062, 1.014, 0.18, 192.0, 0.0, 0.0, 0.0, 0.0, 0.0, 0.0, 0.0, 0.0, 0.0, 1.6527897521496496E9, 0.0, 2022-05-17 14:15:52.149
153.0, 50151.03371751711, 43917.69098254335, 1621.8649294215359, -11053.049391871618, 17465.519006910206, -13370.657070953497, -816.1963005299928, 35224.02468014058, -0.062, 1.014, 0.18, 192.0, 0.0, 0.0, 0.0, 0.0, 0.0, 0.0, 0.0, 0.0, 0.0, 1.6527897521496608E9, 0.0, 2022-05-17 14:15:52.149
154.0, 50191.80329940359, 43906.13513065995, 1616.791083430181, -11067.890950189943, 17363.148017304902, -13307.044006233695, -654.3696706735695, 35247.24814262964, -0.062, 1.014, 0.18, 192.0, 0.0, 0.0, 0.0, 0.0, 0.0, 0.0, 0.0, 0.0, 0.0, 1.6527897521496756E9, 0.0, 2022-05-17 14:15:52.149
155.0, 50151.65956636186, 43810.73788532471, 1532.7261725337712, -11174.575826475124, 18704.140925901047, -13357.4024864915, -352.7328792492008, 35548.8402305651, -0.062, 1.014, 0.18, 192.0, 0.0, 0.0, 0.0, 0.0, 0.0, 0.0, 0.0, 0.0, 0.0, 1.6527897521496851E9, 0.0, 2022-05-17 14:15:52.149
156.0, 50077.0717951145, 43760.669977744816, 1477.9196951293584, -11221.380379364537, 19648.971515771333, -13464.33323196569, -329.84469292696633, 35719.96518611493, -0.06, 1.014, 0.182, 192.0, 254.0, 32.0, 31.0, 176.0, 5.0, 176.0, 0.0, 0.0, 0.0, 1.6527897521496997E9, 0.0, 2022-05-17 14:15:52.149
157.0, 50074.85897241342, 43826.942900054804, 1530.1780736658661, -11144.244509249273, 18899.808096862806, -13472.335156480689, -613.9130132094638, 35530.62355883403, -0.06, 1.014, 0.182, 192.0, 0.0, 0.0, 0.0, 0.0, 0.0, 0.0, 0.0, 0.0, 0.0, 1.6527897521497087E9, 0.0, 2022-05-17 14:15:52.149
158.0, 50153.78298208511, 43918.58505232156, 1616.276993307709, -11050.94832789282, 17492.31874851212, -13375.417992522478, -821.0019255878838, 35244.56593329501, -0.06, 1.014, 0.182, 192.0, 0.0, 0.0, 0.0, 0.0, 0.0, 0.0, 0.0, 0.0, 0.0, 1.6527897521497211E9, 0.0, 2022-05-17 14:15:52.149
159.0, 50201.12397684145, 43908.236194638754, 1615.6734962074156, -11066.102810633518, 17356.934232346324, -13307.87102077854, -675.4920691838347, 35247.38225309637, -0.06, 1.014, 0.182, 192.0, 0.0, 0.0, 0.0, 0.0, 0.0, 0.0, 0.0, 0.0, 0.0, 1.652789752149732E9, 0.0, 2022-05-17 14:15:52.149
160.0, 50147.83741806, 43805.93226026682, 1525.3277451190645, -11185.058794624663, 18694.529675785267, -13363.079829583148, -375.0846237045078, 35552.483564911316, -0.06, 1.014, 0.182, 192.0, 0.0, 0.0, 0.0, 0.0, 0.0, 0.0, 0.0, 0.0, 0.0, 1.6527897521497412E9, 0.0, 2022-05-17 14:15:52.149
161.0, 50077.02709162558, 43757.09369863197, 1470.9906543482132, -11239.977030751352, 19657.956917042367, -13465.89785407756, -344.68625124529024, 35734.672633966526, -0.06, 1.014, 0.182, 192.0, 0.0, 0.0, 0.0, 0.0, 0.0, 0.0, 0.0, 0.0, 0.0, 1.6527897521497507E9, 0.0, 2022-05-17 14:15:52.149
162.0, 50090.28167608758, 43833.2460919912, 1537.2412249137433, -11159.041364078685, 18892.67789038156, -13479.599473428665, -635.907129753486, 35519.44768660637, -0.06, 1.014, 0.182, 192.0, 0.0, 0.0, 0.0, 0.0, 0.0, 0.0, 0.0, 0.0, 0.0, 1.65278975214976E9, 0.0, 2022-05-17 14:15:52.149
163.0, 50162.16488625585, 43920.68611630036, 1620.7920456876811, -11067.958005423308, 17461.562748141616, -13383.464620526389, -836.7152019399646, 35213.698174202225, -0.06, 1.014, 0.182, 192.0, 0.0, 0.0, 0.0, 0.0, 0.0, 0.0, 0.0, 0.0, 0.0, 1.652789752149769E9, 0.0, 2022-05-17 14:15:52.149
164.0, 50213.5515467586, 43916.55104357613, 1626.8493684350692, -11076.608130527513, 17316.47757488222, -13309.033311490217, -676.3414354731364, 35220.58251149446, -0.06, 1.014, 0.182, 192.0, 0.0, 0.0, 0.0, 0.0, 0.0, 0.0, 0.0, 0.0, 0.0, 1.6527897521497784E9, 0.0, 2022-05-17 14:15:52.149
165.0, 50170.56914217104, 43823.3442691975, 1543.92439650588, -11191.183172605417, 18656.196434044414, -13363.862140639085, -371.79891726957766, 35531.20470418986, -0.06, 1.014, 0.182, 192.0, 0.0, 0.0, 0.0, 0.0, 0.0, 0.0, 0.0, 0.0, 0.0, 1.6527897521497874E9, 0.0, 2022-05-17 14:15:52.149
166.0, 50109.839452485976, 43787.872050746926, 1501.836061696537, -11239.664106328977, 19627.156213182952, -13473.273929747813, -344.5744925230137, 35710.465694721424, -0.066, 1.012, 0.182, 192.0, 253.0, 240.0, 31.0, 160.0, 5.0, 176.0, 0.0, 0.0, 0.0, 1.6527897521497967E9, 0.0, 2022-05-17 14:15:52.149
167.0, 50114.95800196624, 43857.698900425305, 1560.0847077470671, -11159.15312280096, 18897.01412880589, -13485.500333964865, -625.5359203262235, 35521.07936395161, -0.066, 1.012, 0.182, 192.0, 0.0, 0.0, 0.0, 0.0, 0.0, 0.0, 0.0, 0.0, 0.0, 1.6527897521498055E9, 0.0, 2022-05-17 14:15:52.149
168.0, 50165.22707524623, 43935.88530252997, 1632.213787104343, -11072.7636304812, 17505.394519018475, -13403.692949258442, -827.3945245021015, 35255.719453778205, -0.066, 1.012, 0.182, 192.0, 0.0, 0.0, 0.0, 0.0, 0.0, 0.0, 0.0, 0.0, 0.0, 1.652789752149815E9, 0.0, 2022-05-17 14:15:52.149
169.0, 50214.82559619255, 43936.53350311917, 1639.634566263505, -11085.325310865082, 17348.038238053112, -13333.195547246403, -683.2034210209157, 35260.23450615817, -0.066, 1.012, 0.182, 192.0, 0.0, 0.0, 0.0, 0.0, 0.0, 0.0, 0.0, 0.0, 0.0, 1.6527897521498241E9, 0.0, 2022-05-17 14:15:52.149
170.0, 50188.6964069243, 43856.648368435905, 1567.4160799284077, -11171.558340973657, 18652.083713064636, -13371.12645758706, -383.2206586862396, 35538.156096715466, -0.066, 1.012, 0.182, 192.0, 0.0, 0.0, 0.0, 0.0, 0.0, 0.0, 0.0, 0.0, 0.0, 1.652789752149834E9, 0.0, 2022-05-17 14:15:52.149
171.0, 50109.79474899707, 43801.55131835357, 1505.769968720671, -11232.802120781198, 19620.964779968832, -13478.839514117184, -349.78244898110023, 35707.8281888757, -0.066, 1.012, 0.182, 192.0, 0.0, 0.0, 0.0, 0.0, 0.0, 0.0, 0.0, 0.0, 0.0, 1.6527897521498425E9, 0.0, 2022-05-17 14:15:52.149
172.0, 50106.91137396233, 43871.66874070987, 1551.3004721761313, -11160.427172234915, 18896.924721828073, -13485.790906642784, -630.4086006174804, 35517.32427088312, -0.066, 1.012, 0.182, 192.0, 0.0, 0.0, 0.0, 0.0, 0.0, 0.0, 0.0, 0.0, 0.0, 1.6527897521498513E9, 0.0, 2022-05-17 14:15:52.149
173.0, 50174.21247651726, 43961.56745690912, 1626.603499246061, -11057.698554718323, 17462.032134775178, -13384.023414137771, -842.0125653758723, 35213.631118968864, -0.066, 1.012, 0.182, 192.0, 0.0, 0.0, 0.0, 0.0, 0.0, 0.0, 0.0, 0.0, 0.0, 1.6527897521498609E9, 0.0, 2022-05-17 14:15:52.149
174.0, 50221.553471273604, 43952.89498006046, 1620.8143974321363, -11078.642139272946, 17296.27159789462, -13308.183945200915, -683.2704762542816, 35220.694270216736, -0.066, 1.012, 0.182, 192.0, 0.0, 0.0, 0.0, 0.0, 0.0, 0.0, 0.0, 0.0, 0.0, 1.6527897521498692E9, 0.0, 2022-05-17 14:15:52.149
175.0, 50177.67699690783, 43854.25673177919, 1531.4297713553633, -11186.712823714355, 18628.92730580894, -13358.721239414364, -376.40337662737096, 35531.025890234225, -0.066, 1.012, 0.182, 192.0, 0.0, 0.0, 0.0, 0.0, 0.0, 0.0, 0.0, 0.0, 0.0, 1.652789752149878E9, 0.0, 2022-05-17 14:15:52.149
176.0, 50099.08826340298, 43796.34336189549, 1470.1636398033668, -11217.759396762776, 19620.830669502102, -13461.561615653232, -346.11676289042987, 35714.176084301005, -0.066, 1.01, 0.184, 192.0, 253.0, 240.0, 31.0, 144.0, 5.0, 192.0, 0.0, 0.0, 0.0, 1.6527897521498866E9, 0.0, 2022-05-17 14:15:52.149
177.0, 50098.44006281377, 43862.86215339448, 1524.2995648741205, -11148.5807476736, 18903.317320742288, -13480.71706065143, -635.1024669530949, 35516.07257319362, -0.066, 1.01, 0.184, 192.0, 0.0, 0.0, 0.0, 0.0, 0.0, 0.0, 0.0, 0.0, 0.0, 1.6527897521498995E9, 0.0, 2022-05-17 14:15:52.149
178.0, 50161.919017066844, 43943.88722704497, 1599.893164621969, -11056.603319240014, 17505.193353318376, -13383.419917037478, -831.0825623372272, 35247.22579088519, -0.066, 1.01, 0.184, 192.0, 0.0, 0.0, 0.0, 0.0, 0.0, 0.0, 0.0, 0.0, 0.0, 1.652789752149908E9, 0.0, 2022-05-17 14:15:52.149
179.0, 50213.66330548088, 43945.51890439021, 1607.7162751813264, -11066.23692110025, 17327.027598265126, -13317.594029616599, -693.2617060258038, 35249.63977928636, -0.066, 1.01, 0.184, 192.0, 0.0, 0.0, 0.0, 0.0, 0.0, 0.0, 0.0, 0.0, 0.0, 1.652789752149917E9, 0.0, 2022-05-17 14:15:52.149
180.0, 50183.62256093295, 43865.65612145139, 1533.6649458008942, -11167.915006627441, 18624.07697726214, -13361.6046144491, -395.9388012813093, 35531.294111167685, -0.066, 1.01, 0.184, 192.0, 0.0, 0.0, 0.0, 0.0, 0.0, 0.0, 0.0, 0.0, 0.0, 1.6527897521499255E9, 0.0, 2022-05-17 14:15:52.149
181.0, 50106.59844953995, 43809.396780657386, 1475.349244516998, -11233.338562648125, 19622.954085225356, -13471.61990065812, -356.1079926619521, 35713.907863367545, -0.066, 1.01, 0.184, 192.0, 0.0, 0.0, 0.0, 0.0, 0.0, 0.0, 0.0, 0.0, 0.0, 1.6527897521499343E9, 0.0, 2022-05-17 14:15:52.149
182.0, 50101.77047273761, 43864.18090631734, 1524.5901375520396, -11159.421343734426, 18927.434853009567, -13489.277778777812, -640.9586240003854, 35526.7343552988, -0.066, 1.01, 0.184, 192.0, 0.0, 0.0, 0.0, 0.0, 0.0, 0.0, 0.0, 0.0, 0.0, 1.6527897521499436E9, 0.0, 2022-05-17 14:15:52.149
183.0, 50167.32813922503, 43946.79295382416, 1605.9951908582677, -11061.811275698099, 17511.384786532497, -13395.93689393245, -856.9211789275622, 35241.83902047146, -0.066, 1.01, 0.184, 192.0, 0.0, 0.0, 0.0, 0.0, 0.0, 0.0, 0.0, 0.0, 0.0, 1.652789752149953E9, 0.0, 2022-05-17 14:15:52.149
184.0, 50219.81003520609, 43945.451849156845, 1616.5899177300832, -11069.366165323992, 17314.801194048072, -13315.068282493148, -712.4842062573679, 35240.38615708186, -0.066, 1.01, 0.184, 192.0, 0.0, 0.0, 0.0, 0.0, 0.0, 0.0, 0.0, 0.0, 0.0, 1.6527897521499617E9, 0.0, 2022-05-17 14:15:52.149
185.0, 50183.6449126774, 43853.42971723434, 1538.5599778366063, -11175.648710208978, 18596.941959493393, -13360.665841181975, -410.7356561107226, 35513.256253392254, -0.066, 1.012, 0.178, 192.0, 253.0, 240.0, 31.0, 160.0, 5.0, 144.0, 0.0, 0.0, 0.0, 1.6527897521499703E9, 0.0, 2022-05-17 14:15:52.149
186.0, 50119.003667712655, 43800.724303808725, 1488.6038289789951, -11225.873080000054, 19608.179582140398, -13465.070839532715, -355.23627462819513, 35699.558043427234, -0.066, 1.012, 0.178, 192.0, 0.0, 0.0, 0.0, 0.0, 0.0, 0.0, 0.0, 0.0, 0.0, 1.6527897521499789E9, 0.0, 2022-05-17 14:15:52.149
187.0, 50120.83651075799, 43864.2032580618, 1538.3811638809639, -11152.000564575263, 18935.25796356892, -13478.995976328371, -623.7254290253436, 35524.54388434218, -0.066, 1.012, 0.178, 192.0, 0.0, 0.0, 0.0, 0.0, 0.0, 0.0, 0.0, 0.0, 0.0, 1.6527897521499872E9, 0.0, 2022-05-17 14:15:52.149
188.0, 50186.05890107858, 43952.87262831601, 1621.7978741881698, -11056.446857028826, 17533.133033887512, -13380.737707702841, -830.9931553594059, 35252.9701892102, -0.066, 1.012, 0.178, 192.0, 0.0, 0.0, 0.0, 0.0, 0.0, 0.0, 0.0, 0.0, 0.0, 1.652789752149997E9, 0.0, 2022-05-17 14:15:52.149
189.0, 50226.69437249832, 43945.96593927931, 1626.8493684350692, -11070.215531613296, 17324.837127308503, -13305.702901566376, -692.2111740364044, 35248.00810194112, -0.066, 1.012, 0.178, 192.0, 0.0, 0.0, 0.0, 0.0, 0.0, 0.0, 0.0, 0.0, 0.0, 1.6527897521500063E9, 0.0, 2022-05-17 14:15:52.150
190.0, 50177.721700396745, 43850.792211388616, 1550.6075680980168, -11176.632186965011, 18617.86319230356, -13357.514245213777, -396.1623187258624, 35534.75863155826, -0.066, 1.012, 0.178, 192.0, 0.0, 0.0, 0.0, 0.0, 0.0, 0.0, 0.0, 0.0, 0.0, 1.652789752150016E9, 0.0, 2022-05-17 14:15:52.150
191.0, 50108.00660944064, 43805.93226026682, 1508.541585033129, -11225.962486977875, 19624.45165210386, -13463.595624398664, -355.079812417008, 35707.15763654204, -0.066, 1.012, 0.178, 192.0, 0.0, 0.0, 0.0, 0.0, 0.0, 0.0, 0.0, 0.0, 0.0, 1.652789752150025E9, 0.0, 2022-05-17 14:15:52.150
192.0, 50105.25734487264, 43869.590028475526, 1560.956425780824, -11155.040401821185, 18960.60484178124, -13478.459534461444, -620.0373911902179, 35532.009366990256, -0.066, 1.012, 0.178, 192.0, 0.0, 0.0, 0.0, 0.0, 0.0, 0.0, 0.0, 0.0, 0.0, 1.6527897521500337E9, 0.0, 2022-05-17 14:15:52.150
193.0, 50173.16194452786, 43952.60440738254, 1645.4236680774295, -11064.269967588183, 17536.53049904472, -13375.775620433764, -827.9980216023948, 35244.1188984059, -0.066, 1.012, 0.178, 192.0, 0.0, 0.0, 0.0, 0.0, 0.0, 0.0, 0.0, 0.0, 0.0, 1.6527897521500435E9, 0.0, 2022-05-17 14:15:52.150
194.0, 50222.04520965162, 43941.45088689934, 1651.8386187361025, -11069.835551957554, 17325.82060406454, -13309.435642890412, -684.4327669659575, 35249.908000219824, -0.066, 1.012, 0.178, 192.0, 0.0, 0.0, 0.0, 0.0, 0.0, 0.0, 0.0, 0.0, 0.0, 1.6527897521500528E9, 0.0, 2022-05-17 14:15:52.150
195.0, 50195.80426166109, 43861.67751093835, 1581.698844635349, -11163.221140291827, 18602.149915951482, -13364.64445169502, -388.33920816650493, 35525.25914016475, -0.07200000000000001, 1.014, 0.182, 192.0, 253.0, 192.0, 31.0, 176.0, 5.0, 176.0, 0.0, 0.0, 0.0, 1.6527897521500614E9, 0.0, 2022-05-17 14:15:52.150
196.0, 50126.64796431637, 43809.62029810194, 1525.148931163422, -11223.41438810997, 19630.710140551346, -13458.789999340774, -340.8193994545221, 35712.007965088844, -0.07200000000000001, 1.014, 0.182, 192.0, 0.0, 0.0, 0.0, 0.0, 0.0, 0.0, 0.0, 0.0, 0.0, 1.6527897521500704E9, 0.0, 2022-05-17 14:15:52.150
197.0, 50110.44294958627, 43872.22753432125, 1565.0691467606005, -11154.995698332275, 19001.687348090094, -13463.975604054405, -605.9781439278298, 35558.563239403156, -0.07200000000000001, 1.014, 0.182, 192.0, 0.0, 0.0, 0.0, 0.0, 0.0, 0.0, 0.0, 0.0, 0.0, 1.6527897521500793E9, 0.0, 2022-05-17 14:15:52.150
198.0, 50170.92677008233, 43963.22148599881, 1643.0096796762562, -11059.419639041382, 17576.62952859754, -13372.936948887938, -830.2108443034703, 35266.336532394474, -0.07200000000000001, 1.014, 0.182, 192.0, 0.0, 0.0, 0.0, 0.0, 0.0, 0.0, 0.0, 0.0, 0.0, 1.652789752150092E9, 0.0, 2022-05-17 14:15:52.150
199.0, 50227.476683554254, 43962.10389877605, 1648.5752640456278, -11062.079496631563, 17339.321057715544, -13288.849686247075, -692.8370228811531, 35257.73111077918, -0.07200000000000001, 1.014, 0.182, 192.0, 0.0, 0.0, 0.0, 0.0, 0.0, 0.0, 0.0, 0.0, 0.0, 1.652789752150102E9, 0.0, 2022-05-17 14:15:52.150
200.0, 50195.6477994499, 43869.47826975325, 1570.2994549631424, -11161.656518179956, 18617.192639969904, -13330.379227445035, -393.2565919466725, 35543.96755027385, -0.07200000000000001, 1.014, 0.182, 192.0, 0.0, 0.0, 0.0, 0.0, 0.0, 0.0, 0.0, 0.0, 0.0, 1.6527897521501107E9, 0.0, 2022-05-17 14:15:52.150
201.0, 50126.29033640508, 43819.7903418291, 1517.7505037487156, -11211.009169937273, 19644.74703606928, -13428.145757692548, -344.77565822311146, 35726.24602630687, -0.07200000000000001, 1.014, 0.182, 192.0, 0.0, 0.0, 0.0, 0.0, 0.0, 0.0, 0.0, 0.0, 0.0, 1.6527897521501205E9, 0.0, 2022-05-17 14:15:52.150
202.0, 50137.89089177739, 43898.84846196753, 1573.3616439535194, -11125.558450884635, 19000.212132956047, -13438.494615375355, -609.2191468738494, 35550.00252127678, -0.07200000000000001, 1.014, 0.182, 192.0, 0.0, 0.0, 0.0, 0.0, 0.0, 0.0, 0.0, 0.0, 0.0, 1.6527897521501298E9, 0.0, 2022-05-17 14:15:52.150
203.0, 50207.293058311116, 43990.15533806745, 1652.6209297920384, -11033.759836406689, 17556.200034165387, -13343.142073529014, -829.1826640585261, 35243.58245653897, -0.07200000000000001, 1.014, 0.182, 192.0, 0.0, 0.0, 0.0, 0.0, 0.0, 0.0, 0.0, 0.0, 0.0, 1.6527897521501386E9, 0.0, 2022-05-17 14:15:52.150
204.0, 50258.00916648021, 43985.39441649848, 1655.9289879714238, -11036.799673652611, 17309.123850956425, -13260.127694622004, -686.8914588560414, 35235.714642490704, -0.07200000000000001, 1.014, 0.182, 192.0, 0.0, 0.0, 0.0, 0.0, 0.0, 0.0, 0.0, 0.0, 0.0, 1.6527897521501496E9, 0.0, 2022-05-17 14:15:52.150
205.0, 50218.692447983325, 43888.83488045155, 1573.8757340759914, -11139.148311513462, 18590.549360579178, -13311.961390013861, -375.4869551047033, 35530.958835000856, -0.07200000000000001, 1.012, 0.182, 192.0, 253.0, 192.0, 31.0, 160.0, 5.0, 176.0, 0.0, 0.0, 0.0, 1.6527897521501603E9, 0.0, 2022-05-17 14:15:52.150
206.0, 50147.56919712653, 43836.330632726036, 1518.8233874825703, -11205.510640801269, 19642.60126860157, -13420.300295388735, -314.69021018626813, 35728.95058738597, -0.07200000000000001, 1.012, 0.182, 192.0, 0.0, 0.0, 0.0, 0.0, 0.0, 0.0, 0.0, 0.0, 0.0, 1.652789752150169E9, 0.0, 2022-05-17 14:15:52.150
207.0, 50134.26990917563, 43887.560831017596, 1554.9661582668018, -11146.01029706124, 19027.57066816934, -13437.779359552786, -581.0112453712518, 35569.51559418626, -0.07200000000000001, 1.012, 0.182, 192.0, 0.0, 0.0, 0.0, 0.0, 0.0, 0.0, 0.0, 0.0, 0.0, 1.6527897521501777E9, 0.0, 2022-05-17 14:15:52.150
208.0, 50206.108415854986, 43979.828832129104, 1638.114647640544, -11042.499368488714, 17608.123136535065, -13349.199396276403, -800.1700997555375, 35287.81655881603, -0.07200000000000001, 1.012, 0.182, 192.0, 0.0, 0.0, 0.0, 0.0, 0.0, 0.0, 0.0, 0.0, 0.0, 1.6527897521501868E9, 0.0, 2022-05-17 14:15:52.150
209.0, 50257.42802112437, 43983.29335251968, 1643.1661418874435, -11054.122275605474, 17346.875947341436, -13273.382279084002, -670.1276505145611, 35274.852547031944, -0.07200000000000001, 1.012, 0.182, 192.0, 0.0, 0.0, 0.0, 0.0, 0.0, 0.0, 0.0, 0.0, 0.0, 1.6527897521501951E9, 0.0, 2022-05-17 14:15:52.150
210.0, 50216.47962528225, 43890.04187465213, 1556.3296146785754, -11163.712878669845, 18632.570640155154, -13317.3928639165, -359.8407339859884, 35579.819748380156, -0.07200000000000001, 1.012, 0.182, 192.0, 0.0, 0.0, 0.0, 0.0, 0.0, 0.0, 0.0, 0.0, 0.0, 1.6527897521502047E9, 0.0, 2022-05-17 14:15:52.150
211.0, 50157.00163328667, 43849.518161954664, 1514.0177624246792, -11202.515507044258, 19674.631318406024, -13420.501461088832, -311.0468758400531, 35762.9922941914, -0.07200000000000001, 1.012, 0.182, 192.0, 0.0, 0.0, 0.0, 0.0, 0.0, 0.0, 0.0, 0.0, 0.0, 1.6527897521502156E9, 0.0, 2022-05-17 14:15:52.150
212.0, 50161.02494728863, 43922.92129074589, 1576.893219577458, -11128.084198008084, 19015.925409308125, -13431.498519360843, -592.2541728322713, 35552.99765503379, -0.07200000000000001, 1.012, 0.182, 192.0, 0.0, 0.0, 0.0, 0.0, 0.0, 0.0, 0.0, 0.0, 0.0, 1.6527897521502252E9, 0.0, 2022-05-17 14:15:52.150
213.0, 50226.33674458704, 44008.483768520804, 1655.9513397158792, -11026.853147369999, 17579.155275720987, -13328.836957077618, -802.6511433900766, 35256.85939274543, -0.07200000000000001, 1.012, 0.182, 192.0, 0.0, 0.0, 0.0, 0.0, 0.0, 0.0, 0.0, 0.0, 0.0, 1.652789752150236E9, 0.0, 2022-05-17 14:15:52.150
214.0, 50275.48823064426, 44004.0357713742, 1658.6782525394265, -11031.010571838686, 17304.13941194289, -13259.85947368854, -670.194705747927, 35243.18012513878, -0.07200000000000001, 1.012, 0.182, 192.0, 0.0, 0.0, 0.0, 0.0, 0.0, 0.0, 0.0, 0.0, 0.0, 1.6527897521502457E9, 0.0, 2022-05-17 14:15:52.150
215.0, 50236.864416225486, 43912.19245340735, 1571.3052834636312, -11147.507863939747, 18574.09847666007, -13317.325808683136, -369.40728061285984, 35536.971454259336, -0.076, 1.004, 0.18, 192.0, 253.0, 160.0, 31.0, 96.0, 5.0, 160.0, 0.0, 0.0, 0.0, 1.6527897521502557E9, 0.0, 2022-05-17 14:15:52.150
216.0, 50181.40973823187, 43869.947656386816, 1516.185881636844, -11204.616571023056, 19631.380692885006, -13426.737597791864, -320.8145881670223, 35725.374308273116, -0.076, 1.004, 0.18, 192.0, 0.0, 0.0, 0.0, 0.0, 0.0, 0.0, 0.0, 0.0, 0.0, 1.6527897521502664E9, 0.0, 2022-05-17 14:15:52.150
217.0, 50159.90736006587, 43912.438322596354, 1572.668739875405, -11130.63229687599, 19025.04492104589, -13434.583060095676, -584.5875244841009, 35555.45634692387, -0.076, 1.004, 0.18, 192.0, 0.0, 0.0, 0.0, 0.0, 0.0, 0.0, 0.0, 0.0, 0.0, 1.6527897521502767E9, 0.0, 2022-05-17 14:15:52.150
218.0, 50211.42813103535, 43984.723864164815, 1653.8949792259907, -11030.116502060475, 17598.176610252456, -13339.789311860719, -802.7629021123531, 35267.14119519487, -0.076, 1.004, 0.18, 192.0, 0.0, 0.0, 0.0, 0.0, 0.0, 0.0, 0.0, 0.0, 0.0, 1.6527897521502867E9, 0.0, 2022-05-17 14:15:52.150
219.0, 50273.45422189882, 43996.27971604821, 1659.2593978952646, -11035.145644562917, 17309.682644567805, -13269.247206359769, -677.1908017624381, 35250.17622115329, -0.076, 1.004, 0.18, 192.0, 0.0, 0.0, 0.0, 0.0, 0.0, 0.0, 0.0, 0.0, 0.0, 1.6527897521503017E9, 0.0, 2022-05-17 14:15:52.150
220.0, 50238.540797059635, 43904.2128806368, 1578.726062622793, -11145.563262172134, 18573.562034793144, -13321.170308729448, -376.0010452271754, 35544.21341946285, -0.076, 1.004, 0.18, 192.0, 0.0, 0.0, 0.0, 0.0, 0.0, 0.0, 0.0, 0.0, 0.0, 1.6527897521503198E9, 0.0, 2022-05-17 14:15:52.150
221.0, 50175.21830501775, 43849.96519684377, 1528.5910998095394, -11203.946018689398, 19646.289306436694, -13427.430501869978, -315.8301491534888, 35738.27126482383, -0.076, 1.004, 0.18, 192.0, 0.0, 0.0, 0.0, 0.0, 0.0, 0.0, 0.0, 0.0, 0.0, 1.6527897521503327E9, 0.0, 2022-05-17 14:15:52.150
222.0, 50166.12114502444, 43906.67157252688, 1577.2731992331983, -11136.242584734271, 19057.72317143955, -13441.646211343554, -575.5797714686122, 35574.56708843316, -0.076, 1.004, 0.18, 192.0, 0.0, 0.0, 0.0, 0.0, 0.0, 0.0, 0.0, 0.0, 0.0, 1.6527897521503463E9, 0.0, 2022-05-17 14:15:52.150
223.0, 50220.03355265064, 43992.61402995754, 1650.5198658132394, -11044.891005145431, 17632.039503102245, -13352.328640500145, -801.3994457005795, 35290.61052687294, -0.076, 1.004, 0.18, 192.0, 0.0, 0.0, 0.0, 0.0, 0.0, 0.0, 0.0, 0.0, 0.0, 1.6527897521503565E9, 0.0, 2022-05-17 14:15:52.150
224.0, 50271.48726838676, 43998.60429747156, 1666.0766799541332, -11040.420656254371, 17323.406615663363, -13269.247206359769, -682.9799035763626, 35266.492994605665, -0.076, 1.004, 0.18, 192.0, 0.0, 0.0, 0.0, 0.0, 0.0, 0.0, 0.0, 0.0, 0.0, 1.6527897521503665E9, 0.0, 2022-05-17 14:15:52.150
225.0, 50239.434866837844, 43907.409180093906, 1588.7843476276814, -11153.654593664956, 18574.34434584908, -13303.91476200995, -375.7104725492564, 35555.7916230907, -0.066, 1.004, 0.176, 192.0, 253.0, 240.0, 31.0, 96.0, 5.0, 128.0, 0.0, 0.0, 0.0, 1.6527897521503804E9, 0.0, 2022-05-17 14:15:52.150
226.0, 50176.78292712962, 43854.971987601755, 1531.9662132222907, -11198.983931420318, 19670.07156253714, -13410.778452250774, -306.2636025266174, 35768.46847158295, -0.066, 1.004, 0.176, 192.0, 0.0, 0.0, 0.0, 0.0, 0.0, 0.0, 0.0, 0.0, 0.0, 1.652789752150392E9, 0.0, 2022-05-17 14:15:52.150
227.0, 50163.61774964545, 43904.771674248186, 1567.21491422831, -11131.213442231829, 19103.38778536174, -13449.536377136277, -576.8314691581094, 35617.01305115379, -0.066, 1.004, 0.176, 192.0, 0.0, 0.0, 0.0, 0.0, 0.0, 0.0, 0.0, 0.0, 0.0, 1.6527897521504037E9, 0.0, 2022-05-17 14:15:52.150
228.0, 50226.04617190912, 43997.12908233751, 1649.178761145921, -11042.007630110696, 17658.794541215248, -13361.850483638107, -817.380942986124, 35314.37043122893, -0.066, 1.004, 0.176, 192.0, 0.0, 0.0, 0.0, 0.0, 0.0, 0.0, 0.0, 0.0, 0.0, 1.6527897521504154E9, 0.0, 2022-05-17 14:15:52.150
229.0, 50281.61260862501, 44002.04646611768, 1655.7725257602365, -11046.61208946849, 17332.3920169344, -13276.556226796654, -693.999313592829, 35284.240279703175, -0.066, 1.004, 0.176, 192.0, 0.0, 0.0, 0.0, 0.0, 0.0, 0.0, 0.0, 0.0, 0.0, 1.6527897521504364E9, 0.0, 2022-05-17 14:15:52.150
230.0, 50257.98681473575, 43914.94171797535, 1578.8825248339804, -11138.991849302274, 18553.490168272278, -13317.862250550063, -387.4898418772032, 35550.248390465786, -0.066, 1.004, 0.176, 192.0, 0.0, 0.0, 0.0, 0.0, 0.0, 0.0, 0.0, 0.0, 0.0, 1.652789752150493E9, 0.0, 2022-05-17 14:15:52.150
231.0, 50189.881049380434, 43852.803868389594, 1522.4667218287852, -11203.208411122372, 19654.157120484964, -13421.574344822688, -303.08965481396376, 35760.15362264557, -0.066, 1.004, 0.176, 192.0, 0.0, 0.0, 0.0, 0.0, 0.0, 0.0, 0.0, 0.0, 0.0, 1.652789752150519E9, 0.0, 2022-05-17 14:15:52.150
232.0, 50189.92575286934, 43912.77359876318, 1575.0380247876674, -11130.654648620444, 19085.93107294215, -13441.936784021473, -568.2036957983609, 35594.90717588749, -0.066, 1.004, 0.176, 192.0, 0.0, 0.0, 0.0, 0.0, 0.0, 0.0, 0.0, 0.0, 0.0, 1.6527897521505363E9, 0.0, 2022-05-17 14:15:52.150
233.0, 50256.355137390514, 44007.36618129804, 1657.2253891498315, -11033.223394539762, 17632.68770369145, -13346.047800308204, -803.4781579349229, 35285.08964599248, -0.066, 1.004, 0.176, 192.0, 0.0, 0.0, 0.0, 0.0, 0.0, 0.0, 0.0, 0.0, 0.0, 1.6527897521505654E9, 0.0, 2022-05-17 14:15:52.150
234.0, 50299.494004189255, 44000.83947191709, 1661.4275171074294, -11027.926031103854, 17297.09861243947, -13262.988717912283, -678.643665152033, 35255.786509011574, -0.066, 1.004, 0.176, 192.0, 0.0, 0.0, 0.0, 0.0, 0.0, 0.0, 0.0, 0.0, 0.0, 1.6527897521505747E9, 0.0, 2022-05-17 14:15:52.150
235.0, 50264.893503772444, 43911.41014235141, 1586.9515045823462, -11123.770311328211, 18533.463005240323, -13304.026520732228, -366.0992224334744, 35540.68184383892, -0.066, 1.006, 0.178, 192.0, 253.0, 240.0, 31.0, 112.0, 5.0, 144.0, 0.0, 0.0, 0.0, 1.6527897521505837E9, 0.0, 2022-05-17 14:15:52.150
236.0, 50197.279476795135, 43854.65906317939, 1527.4288090978635, -11182.734213201311, 19627.424434116416, -13402.08362365766, -297.7475878891454, 35734.29265431078, -0.066, 1.006, 0.178, 192.0, 0.0, 0.0, 0.0, 0.0, 0.0, 0.0, 0.0, 0.0, 0.0, 1.6527897521505928E9, 0.0, 2022-05-17 14:15:52.150
237.0, 50198.73234018473, 43916.88631974296, 1574.7251003652932, -11113.712026323323, 19070.262500078978, -13426.715246047408, -560.8052683836542, 35567.928620329934, -0.066, 1.006, 0.178, 192.0, 0.0, 0.0, 0.0, 0.0, 0.0, 0.0, 0.0, 0.0, 0.0, 1.6527897521506028E9, 0.0, 2022-05-17 14:15:52.150
238.0, 50264.49117237225, 44009.71311446585, 1656.0854501826109, -11015.632571653436, 17618.09201456213, -13333.35200945759, -791.2741054623253, 35259.899229991344, -0.066, 1.006, 0.178, 192.0, 0.0, 0.0, 0.0, 0.0, 0.0, 0.0, 0.0, 0.0, 0.0, 1.652789752150614E9, 0.0, 2022-05-17 14:15:52.150
239.0, 50310.20048978335, 44006.472111519826, 1664.2214851643428, -11018.873574599455, 17272.22112086071, -13254.159778852438, -673.0557290382063, 35230.886665688355, -0.066, 1.006, 0.178, 192.0, 0.0, 0.0, 0.0, 0.0, 0.0, 0.0, 0.0, 0.0, 0.0, 1.6527897521506307E9, 0.0, 2022-05-17 14:15:52.150
240.0, 50274.90708528842, 43914.78525576416, 1589.0078650722344, -11125.446692162359, 18517.034473065673, -13289.140258924994, -357.38204209590464, 35530.869428023034, -0.066, 1.006, 0.178, 192.0, 0.0, 0.0, 0.0, 0.0, 0.0, 0.0, 0.0, 0.0, 0.0, 1.6527897521506429E9, 0.0, 2022-05-17 14:15:52.150
241.0, 50203.73913094272, 43857.94476961432, 1526.4900358307405, -11188.433908037414, 19638.0862162216, -13394.4616787984, -281.6766836257796, 35744.57445676022, -0.066, 1.006, 0.178, 192.0, 0.0, 0.0, 0.0, 0.0, 0.0, 0.0, 0.0, 0.0, 0.0, 1.6527897526296475E9, 0.0, 2022-05-17 14:15:52.629
242.0, 50180.40390973138, 43901.21774687979, 1566.052623516634, -11132.800416088154, 19113.222552922078, -13431.90085076104, -548.1318292774951, 35599.57869047865, -0.066, 1.006, 0.178, 192.0, 0.0, 0.0, 0.0, 0.0, 0.0, 0.0, 0.0, 0.0, 0.0, 1.6527897526298292E9, 0.0, 2022-05-17 14:15:52.629
243.0, 50251.63891931045, 44000.727713194814, 1660.1758194179322, -11035.793845152122, 17664.337773840165, -13344.684343896432, -791.3411606956912, 35295.03617227509, -0.066, 1.006, 0.178, 192.0, 0.0, 0.0, 0.0, 0.0, 0.0, 0.0, 0.0, 0.0, 0.0, 1.6527897526298454E9, 0.0, 2022-05-17 14:15:52.629
244.0, 50311.742760150766, 44017.0891901361, 1679.688892327415, -11052.04356337113, 17276.870283707416, -13258.965403910328, -681.6611506534995, 35237.458078558215, -0.066, 1.006, 0.178, 192.0, 0.0, 0.0, 0.0, 0.0, 0.0, 0.0, 0.0, 0.0, 0.0, 1.652789752629852E9, 0.0, 2022-05-17 14:15:52.629
245.0, 50272.40368990943, 43919.702639544324, 1592.3159232516198, -11111.409796644426, 18495.442687921844, -13307.423985889434, -366.4792020892146, 35518.151285427964, -0.06, 1.01, 0.17400000000000002, 192.0, 254.0, 32.0, 31.0, 144.0, 5.0, 112.0, 0.0, 0.0, 0.0, 1.6527897526298592E9, 0.0, 2022-05-17 14:15:52.629
246.0, 50195.334875027525, 43854.971987601755, 1531.3850678664528, -11179.269692810738, 19634.30877140865, -13421.686103544964, -284.87298308288854, 35742.83102069271, -0.06, 1.01, 0.17400000000000002, 192.0, 0.0, 0.0, 0.0, 0.0, 0.0, 0.0, 0.0, 0.0, 0.0, 1.6527897526298652E9, 0.0, 2022-05-17 14:15:52.629
247.0, 50180.56037194257, 43913.712372030306, 1574.8368590875698, -11124.731436339789, 19122.07384372638, -13448.23997595787, -545.0025850537521, 35599.466931756375, -0.06, 1.01, 0.17400000000000002, 192.0, 0.0, 0.0, 0.0, 0.0, 0.0, 0.0, 0.0, 0.0, 0.0, 1.6527897526298757E9, 0.0, 2022-05-17 14:15:52.629
248.0, 50249.85077975402, 44015.14458836849, 1667.0601567101667, -11022.449853712304, 17673.92667221149, -13360.330565015145, -788.3460269386801, 35295.483207164194, -0.06, 1.01, 0.17400000000000002, 192.0, 0.0, 0.0, 0.0, 0.0, 0.0, 0.0, 0.0, 0.0, 0.0, 1.652789752629882E9, 0.0, 2022-05-17 14:15:52.629
249.0, 50293.12375701949, 44014.04935289018, 1671.172877689943, -11026.048484569608, 17299.981987474202, -13286.77097401273, -675.8496970951196, 35261.307389892034, -0.06, 1.01, 0.17400000000000002, 192.0, 0.0, 0.0, 0.0, 0.0, 0.0, 0.0, 0.0, 0.0, 0.0, 1.6527897526298895E9, 0.0, 2022-05-17 14:15:52.629
250.0, 50254.72346004528, 43914.539386575154, 1586.727987137793, -11130.319372453616, 18520.878973111987, -13333.128492013037, -367.1050509339632, 35549.823707321135, -0.06, 1.01, 0.17400000000000002, 192.0, 0.0, 0.0, 0.0, 0.0, 0.0, 0.0, 0.0, 0.0, 0.0, 1.652789752629896E9, 0.0, 2022-05-17 14:15:52.629
251.0, 50184.0472440776, 43857.2518655362, 1528.6805067873606, -11200.7944227212, 19654.51474839625, -13438.338153164168, -294.3948262208493, 35760.93593370151, -0.06, 1.01, 0.17400000000000002, 192.0, 0.0, 0.0, 0.0, 0.0, 0.0, 0.0, 0.0, 0.0, 0.0, 1.6527897526299036E9, 0.0, 2022-05-17 14:15:52.629
252.0, 50183.577857444034, 43921.334316889566, 1579.3966149564524, -11134.901480066954, 19137.36243693381, -13453.246766715858, -554.2562072582492, 35600.025725367756, -0.06, 1.01, 0.17400000000000002, 192.0, 0.0, 0.0, 0.0, 0.0, 0.0, 0.0, 0.0, 0.0, 0.0, 1.6527897526299105E9, 0.0, 2022-05-17 14:15:52.629
253.0, 50255.90810250141, 44016.79861745818, 1667.306025899175, -11018.761815877178, 17681.25804439283, -13361.559910960188, -794.0680735192387, 35286.00606751515, -0.06, 1.01, 0.17400000000000002, 192.0, 0.0, 0.0, 0.0, 0.0, 0.0, 0.0, 0.0, 0.0, 0.0, 1.6527897526299183E9, 0.0, 2022-05-17 14:15:52.629
254.0, 50305.35016123655, 44023.325326839135, 1681.0299969947337, -11018.046560054609, 17276.69146975177, -13274.633976773499, -681.2141157643933, 35232.00425291112, -0.06, 1.01, 0.17400000000000002, 192.0, 0.0, 0.0, 0.0, 0.0, 0.0, 0.0, 0.0, 0.0, 0.0, 1.6527897526299255E9, 0.0, 2022-05-17 14:15:52.629
255.0, 50273.92360853239, 43928.59863383754, 1599.9825715997902, -11130.989924787275, 18462.831492761554, -13317.884602294518, -373.0282632146196, 35496.000706672756, -0.07200000000000001, 1.016, 0.17200000000000001, 192.0, 253.0, 192.0, 31.0, 192.0, 5.0, 96.0, 0.0, 0.0, 0.0, 1.6527897526299343E9, 0.0, 2022-05-17 14:15:52.629
0.0, 50204.72260769876, 43867.62307496346, 1539.7893237816481, -11196.97227441934, 19613.16402115393, -13422.42371111199, -278.7709568465897, 35719.07111633672, -0.07200000000000001, 1.016, 0.17200000000000001, 192.0, 0.0, 0.0, 0.0, 0.0, 0.0, 0.0, 0.0, 0.0, 0.0, 1.6527897526299472E9, 0.0, 2022-05-17 14:15:52.629
1.0, 50186.796508645595, 43920.909633744915, 1577.9437515668574, -11130.095855009062, 19119.950428003125, -13446.451836401444, -537.2912332166711, 35573.449501210394, -0.07200000000000001, 1.016, 0.17200000000000001, 192.0, 0.0, 0.0, 0.0, 0.0, 0.0, 0.0, 0.0, 0.0, 0.0, 1.652789752629955E9, 0.0, 2022-05-17 14:15:52.629
2.0, 50252.95767223331, 44016.46334129135, 1666.0766799541332, -11018.359484476983, 17679.760477514326, -13353.915614356472, -775.1361459655936, 35278.07119823351, -0.07200000000000001, 1.016, 0.17200000000000001, 192.0, 0.0, 0.0, 0.0, 0.0, 0.0, 0.0, 0.0, 0.0, 0.0, 1.652789752629963E9, 0.0, 2022-05-17 14:15:52.629
3.0, 50305.5736786811, 44020.464303548855, 1680.2700376832531, -11016.861917598477, 17276.870283707416, -13270.945938938374, -665.7690603457762, 35239.78265998157, -0.07200000000000001, 1.016, 0.17200000000000001, 192.0, 0.0, 0.0, 0.0, 0.0, 0.0, 0.0, 0.0, 0.0, 0.0, 1.6527897526299715E9, 0.0, 2022-05-17 14:15:52.629
4.0, 50264.22295143878, 43921.15550293392, 1596.9427343538684, -11127.190128229873, 18466.4077718744, -13318.264581950258, -364.19932415477325, 35514.70911678185, -0.07200000000000001, 1.016, 0.17200000000000001, 192.0, 0.0, 0.0, 0.0, 0.0, 0.0, 0.0, 0.0, 0.0, 0.0, 1.652789752629979E9, 0.0, 2022-05-17 14:15:52.629
5.0, 50192.0938720815, 43858.682377181336, 1536.7494865357264, -11197.128736630528, 19610.995901941766, -13431.61027808312, -279.1956399912405, 35727.78829667429, -0.07200000000000001, 1.016, 0.17200000000000001, 192.0, 0.0, 0.0, 0.0, 0.0, 0.0, 0.0, 0.0, 0.0, 0.0, 1.652789752629985E9, 0.0, 2022-05-17 14:15:52.629
6.0, 50190.35043601399, 43923.54713959064, 1586.057434804134, -11127.078369507595, 19107.67932029716, -13453.179711482491, -539.2581867287382, 35561.647780137995, -0.07200000000000001, 1.016, 0.17200000000000001, 192.0, 0.0, 0.0, 0.0, 0.0, 0.0, 0.0, 0.0, 0.0, 0.0, 1.6527897526300635E9, 0.0, 2022-05-17 14:15:52.630
7.0, 50251.32599488807, 44013.2893935787, 1665.182610175921, -11032.888118372932, 17673.83726523367, -13349.042934065215, -768.6988435624652, 35272.483262119684, -0.07200000000000001, 1.016, 0.17200000000000001, 192.0, 0.0, 0.0, 0.0, 0.0, 0.0, 0.0, 0.0, 0.0, 0.0, 1.6527897526300733E9, 0.0, 2022-05-17 14:15:52.630
8.0, 50299.6728181449, 44013.6917249789, 1671.4410986234068, -11036.37499050796, 17272.109362138435, -13273.337575595091, -667.3336824576477, 35245.63881702886, -0.07200000000000001, 1.016, 0.17200000000000001, 192.0, 0.0, 0.0, 0.0, 0.0, 0.0, 0.0, 0.0, 0.0, 0.0, 1.6527897526300805E9, 0.0, 2022-05-17 14:15:52.630
9.0, 50267.50865787371, 43925.17881693588, 1597.5015279652512, -11129.179433486395, 18464.865501506985, -13312.453128391879, -364.69106253279006, 35532.99284374629, -0.074, 1.016, 0.17200000000000001, 192.0, 253.0, 176.0, 31.0, 192.0, 5.0, 96.0, 0.0, 0.0, 0.0, 1.6527897526300883E9, 0.0, 2022-05-17 14:15:52.630
10.0, 50198.77704367365, 43867.04192960762, 1532.927338233869, -11197.396957563991, 19607.21845712882, -13419.920315732994, -286.50466042812593, 35736.43842177849, -0.074, 1.016, 0.17200000000000001, 192.0, 0.0, 0.0, 0.0, 0.0, 0.0, 0.0, 0.0, 0.0, 0.0, 1.652789752630096E9, 0.0, 2022-05-17 14:15:52.630
11.0, 50185.09777606699, 43913.4665028413, 1569.4947921627513, -11129.626468375502, 19142.25746896952, -13451.391571926068, -540.1075530180399, 35595.22010030986, -0.074, 1.016, 0.17200000000000001, 192.0, 0.0, 0.0, 0.0, 0.0, 0.0, 0.0, 0.0, 0.0, 0.0, 1.6527897526301064E9, 0.0, 2022-05-17 14:15:52.630
12.0, 50250.633090809955, 44006.51681500874, 1653.5597030591612, -11026.942554347821, 17699.608826590636, -13357.961280102883, -784.9709135259287, 35292.86805306293, -0.074, 1.016, 0.17200000000000001, 192.0, 0.0, 0.0, 0.0, 0.0, 0.0, 0.0, 0.0, 0.0, 0.0, 1.6527897526301138E9, 0.0, 2022-05-17 14:15:52.630
13.0, 50302.13151003498, 44013.06587613415, 1659.2593978952646, -11032.41873173937, 17282.055888421048, -13275.237473873793, -690.6465519245329, 35257.35113112344, -0.074, 1.016, 0.17200000000000001, 192.0, 0.0, 0.0, 0.0, 0.0, 0.0, 0.0, 0.0, 0.0, 0.0, 1.6527897526301217E9, 0.0, 2022-05-17 14:15:52.630
14.0, 50276.359948678015, 43926.45286636983, 1587.7338156382818, -11142.054038292652, 18459.523434582166, -13314.688302837409, -390.6414378454015, 35533.77515480222, -0.074, 1.016, 0.17200000000000001, 192.0, 0.0, 0.0, 0.0, 0.0, 0.0, 0.0, 0.0, 0.0, 0.0, 1.6527897526301303E9, 0.0, 2022-05-17 14:15:52.630
15.0, 50204.09675885401, 43863.53270572814, 1527.7864370091484, -11208.394015836004, 19626.64212306048, -13422.691932045453, -299.6921896567571, 35755.012721420855, -0.074, 1.016, 0.17200000000000001, 192.0, 0.0, 0.0, 0.0, 0.0, 0.0, 0.0, 0.0, 0.0, 0.0, 1.6527897526301365E9, 0.0, 2022-05-17 14:15:52.630
16.0, 50185.65656967838, 43914.71820053079, 1567.8854665619692, -11146.21146276134, 19169.1242658048, -13454.856092316639, -552.780992124199, 35609.748734205816, -0.074, 1.016, 0.17200000000000001, 192.0, 0.0, 0.0, 0.0, 0.0, 0.0, 0.0, 0.0, 0.0, 0.0, 1.6527897526301444E9, 0.0, 2022-05-17 14:15:52.630
17.0, 50257.51742810219, 44012.6411929895, 1657.8959414834908, -11038.699571931313, 17730.431882194505, -13353.44622772291, -791.4529194179678, 35310.458875949254, -0.074, 1.016, 0.17200000000000001, 192.0, 0.0, 0.0, 0.0, 0.0, 0.0, 0.0, 0.0, 0.0, 0.0, 1.6527897526301517E9, 0.0, 2022-05-17 14:15:52.630
18.0, 50319.32000152111, 44020.55371052667, 1675.084432969622, -11042.029981855152, 17280.155990142346, -13273.315223850635, -699.8107671512088, 35253.193706654754, -0.074, 1.016, 0.17400000000000002, 192.0, 253.0, 176.0, 31.0, 192.0, 5.0, 112.0, 0.0, 0.0, 0.0, 1.652789752630159E9, 0.0, 2022-05-17 14:15:52.630
19.0, 50293.79430935315, 43933.53836936216, 1600.1390338109773, -11124.351456684048, 18432.164899368872, -13317.772843572242, -401.48203390622547, 35512.205721402854, -0.074, 1.016, 0.17400000000000002, 192.0, 0.0, 0.0, 0.0, 0.0, 0.0, 0.0, 0.0, 0.0, 0.0, 1.6527897526301663E9, 0.0, 2022-05-17 14:15:52.630
20.0, 50244.15108491792, 43889.2595635962, 1543.2761959166762, -11183.136544601506, 19597.92013143541, -13410.912562717505, -299.98276233467607, 35729.487029252894, -0.074, 1.016, 0.17400000000000002, 192.0, 0.0, 0.0, 0.0, 0.0, 0.0, 0.0, 0.0, 0.0, 0.0, 1.6527897526301727E9, 0.0, 2022-05-17 14:15:52.630
21.0, 50221.821692207064, 43936.04176474116, 1571.3499869525417, -11135.214404489328, 19182.848236900358, -13440.148644465047, -535.5477971491572, 35616.923644175964, -0.074, 1.016, 0.17400000000000002, 192.0, 0.0, 0.0, 0.0, 0.0, 0.0, 0.0, 0.0, 0.0, 0.0, 1.6527897526301794E9, 0.0, 2022-05-17 14:15:52.630
22.0, 50256.511599601705, 44011.1883295999, 1655.593711804594, -11036.620859696968, 17757.209272051965, -13351.300460255201, -776.8125267997417, 35331.67068143734, -0.074, 1.016, 0.17400000000000002, 192.0, 0.0, 0.0, 0.0, 0.0, 0.0, 0.0, 0.0, 0.0, 0.0, 1.6527897526301866E9, 0.0, 2022-05-17 14:15:52.630
23.0, 50322.80687365614, 44037.80925724617, 1680.5159068722614, -11022.449853712304, 17282.212350632235, -13269.537779037688, -691.4735664693793, 35261.26268640312, -0.074, 1.016, 0.17400000000000002, 192.0, 0.0, 0.0, 0.0, 0.0, 0.0, 0.0, 0.0, 0.0, 0.0, 1.652789752630196E9, 0.0, 2022-05-17 14:15:52.630
24.0, 50303.6737804024, 43958.14764000745, 1606.9786676143012, -11116.058959491129, 18420.944323652308, -13295.666968305943, -378.4597371172592, 35513.59152955908, -0.074, 1.016, 0.17400000000000002, 192.0, 0.0, 0.0, 0.0, 0.0, 0.0, 0.0, 0.0, 0.0, 0.0, 1.6527897526302125E9, 0.0, 2022-05-17 14:15:52.630
25.0, 50221.03938115113, 43874.23919132223, 1525.7077247748048, -11202.806079722177, 19636.11926270953, -13406.59867603763, -266.1198694848859, 35770.100148928184, -0.074, 1.016, 0.17400000000000002, 192.0, 0.0, 0.0, 0.0, 0.0, 0.0, 0.0, 0.0, 0.0, 0.0, 1.652789752630226E9, 0.0, 2022-05-17 14:15:52.630
