%OpenBCI Raw EEG Data
%Number of channels = 8
%Sample Rate = 250 Hz
%Board = OpenBCI_GUI$BoardCytonSerial
Sample Index, EXG Channel 0, EXG Channel 1, EXG Channel 2, EXG Channel 3, EXG Channel 4, EXG Channel 5, EXG Channel 6, EXG Channel 7, Accel Channel 0, Accel Channel 1, Accel Channel 2, Other, Other, Other, Other, Other, Other, Other, Analog Channel 0, Analog Channel 1, Analog Channel 2, Timestamp, Other, Timestamp (Formatted)
0.0, 0.0, 0.0, 0.0, 0.0, 0.0, 0.0, 0.0, 0.0, 0.034, 0.93, 0.442, 192.0, 1.0, 16.0, 29.0, 16.0, 13.0, 208.0, 0.0, 0.0, 0.0, 1.6541737130113685E9, 0.0, 2022-06-02 14:41:53.011
1.0, -15582.764516206327, 7216.931249729544, -46538.16479899464, -35663.8176040432, -21182.189426683122, -22602.955711240258, -9294.972931739441, -10518.46271973404, 0.034, 0.93, 0.442, 192.0, 0.0, 0.0, 0.0, 0.0, 0.0, 0.0, 0.0, 0.0, 0.0, 1.6541737130273707E9, 0.0, 2022-06-02 14:41:53.027
2.0, -15559.764571161817, 7241.093485485731, -46496.90347873014, -35620.499923288815, -21138.670580228638, -22558.319277563012, -9211.220945265406, -10460.884626017169, 0.034, 0.93, 0.442, 192.0, 0.0, 0.0, 0.0, 0.0, 0.0, 0.0, 0.0, 0.0, 0.0, 1.6541737135055592E9, 0.0, 2022-06-02 14:41:53.505
3.0, -15533.747140615838, 7269.837828855256, -46449.98716711845, -35572.48837619882, -21092.134248272687, -22508.89957057233, -9170.272549423284, -10414.817680694781, 0.034, 0.93, 0.442, 192.0, 0.0, 0.0, 0.0, 0.0, 0.0, 0.0, 0.0, 0.0, 0.0, 1.6541737135056818E9, 0.0, 2022-06-02 14:41:53.505
4.0, -15544.431274465476, 7260.003061294921, -46469.27672258338, -35597.87995790005, -21114.329530516807, -22528.97143709319, -9209.835137109178, -10454.693192803048, 0.034, 0.93, 0.442, 192.0, 0.0, 0.0, 0.0, 0.0, 0.0, 0.0, 0.0, 0.0, 0.0, 1.6541737135056896E9, 0.0, 2022-06-02 14:41:53.505
5.0, -15573.376783535097, 7229.694095813525, -46523.30088893186, -35656.75445279532, -21172.600528311796, -22589.544664567075, -9257.556111521259, -10509.946705096569, 0.034, 0.93, 0.442, 192.0, 0.0, 0.0, 0.0, 0.0, 0.0, 0.0, 0.0, 0.0, 0.0, 1.654173713505696E9, 0.0, 2022-06-02 14:41:53.505
6.0, -15579.523513260308, 7219.077017197254, -46546.74786886548, -35679.68734260647, -21198.52855187995, -22615.651502090874, -9268.754335493366, -10531.270269306931, 0.034, 0.93, 0.442, 192.0, 0.0, 0.0, 0.0, 0.0, 0.0, 0.0, 0.0, 0.0, 0.0, 1.6541737135057037E9, 0.0, 2022-06-02 14:41:53.505
7.0, -15559.853978139638, 7237.00311625041, -46502.89374624417, -35631.98871993885, -21149.712341989558, -22565.337725321977, -9226.956573361942, -10482.655225116638, 0.038, 0.924, 0.454, 192.0, 1.0, 48.0, 28.0, 224.0, 14.0, 48.0, 0.0, 0.0, 0.0, 1.6541737135057104E9, 0.0, 2022-06-02 14:41:53.505
8.0, -15539.290373240754, 7264.831038097267, -46457.34089104425, -35581.496129214305, -21098.66095765364, -22512.654663640817, -9179.123840227585, -10430.463901813497, 0.038, 0.924, 0.454, 192.0, 0.0, 0.0, 0.0, 0.0, 0.0, 0.0, 0.0, 0.0, 0.0, 1.6541737135057168E9, 0.0, 2022-06-02 14:41:53.505
9.0, -15550.421541979498, 7254.303366458817, -46479.513821543915, -35606.463027770886, -21119.22456255252, -22539.07442558699, -9187.751613587334, -10466.36080340872, 0.038, 0.924, 0.454, 192.0, 0.0, 0.0, 0.0, 0.0, 0.0, 0.0, 0.0, 0.0, 0.0, 1.6541737135057259E9, 0.0, 2022-06-02 14:41:53.505
10.0, -15581.490466772375, 7215.836014251235, -46533.292118703386, -35665.13635696606, -21175.90858649118, -22594.32793788051, -9246.313184060238, -10504.537582938383, 0.038, 0.924, 0.454, 192.0, 0.0, 0.0, 0.0, 0.0, 0.0, 0.0, 0.0, 0.0, 0.0, 1.6541737135057433E9, 0.0, 2022-06-02 14:41:53.505
11.0, -15580.171713849511, 7212.863232238678, -46545.13854326469, -35679.77674958429, -21186.257444173985, -22601.771068784128, -9267.055602914763, -10502.995312570967, 0.038, 0.924, 0.454, 192.0, 0.0, 0.0, 0.0, 0.0, 0.0, 0.0, 0.0, 0.0, 0.0, 1.6541737135057507E9, 0.0, 2022-06-02 14:41:53.505
12.0, -15558.758742661328, 7234.544424360326, -46514.94133650557, -35639.36479560909, -21150.829929212327, -22568.22110035671, -9236.232547310896, -10497.295617734864, 0.038, 0.924, 0.454, 192.0, 0.0, 0.0, 0.0, 0.0, 0.0, 0.0, 0.0, 0.0, 0.0, 1.654173713505758E9, 0.0, 2022-06-02 14:41:53.505
13.0, -15526.460471923408, 7274.062308557309, -46458.90551315612, -35575.70702740038, -21092.201303506055, -22508.74310836114, -9183.169505973996, -10450.535768334363, 0.038, 0.924, 0.454, 192.0, 0.0, 0.0, 0.0, 0.0, 0.0, 0.0, 0.0, 0.0, 0.0, 1.6541737135057676E9, 0.0, 2022-06-02 14:41:53.505
14.0, -15538.463358695908, 7264.406354952616, -46479.6702837551, -35599.57869047865, -21114.553047961363, -22527.69738765924, -9213.34436098866, -10456.615442826205, 0.038, 0.924, 0.454, 192.0, 0.0, 0.0, 0.0, 0.0, 0.0, 0.0, 0.0, 0.0, 0.0, 1.6541737135057745E9, 0.0, 2022-06-02 14:41:53.505
15.0, -15555.785960648771, 7247.57549137777, -46518.36115340724, -35634.80503974021, -21152.95334493558, -22563.37077180991, -9259.92539643352, -10496.513306678928, 0.038, 0.924, 0.454, 192.0, 0.0, 0.0, 0.0, 0.0, 0.0, 0.0, 0.0, 0.0, 0.0, 1.654173713505787E9, 0.0, 2022-06-02 14:41:53.505
16.0, -15580.864617927626, 7217.288877640829, -46551.173514267626, -35669.11496747911, -21185.989223240522, -22594.529103580608, -9275.661024530056, -10515.288772021386, 0.038, 0.924, 0.454, 192.0, 0.0, 0.0, 0.0, 0.0, 0.0, 0.0, 0.0, 0.0, 0.0, 1.6541737135057957E9, 0.0, 2022-06-02 14:41:53.505
17.0, -15571.253367811843, 7229.7611510468905, -46531.593386124776, -35643.924551477976, -21163.078685173834, -22568.578728267996, -9246.715515460433, -10473.98274826798, 0.03, 0.924, 0.454, 192.0, 0.0, 240.0, 28.0, 224.0, 14.0, 48.0, 0.0, 0.0, 0.0, 1.6541737135058017E9, 0.0, 2022-06-02 14:41:53.505
18.0, -15545.906489599525, 7260.092468272743, -46489.19212689306, -35597.27646079975, -21120.23039105301, -22523.852887612928, -9202.436709694472, -10445.596032809739, 0.03, 0.924, 0.454, 192.0, 0.0, 0.0, 0.0, 0.0, 0.0, 0.0, 0.0, 0.0, 0.0, 1.6541737135058079E9, 0.0, 2022-06-02 14:41:53.505
19.0, -15543.31368724271, 7264.160485763608, -46484.610019279724, -35598.394048022514, -21121.593847464785, -22524.70225390223, -9188.064538009708, -10427.334657589754, 0.03, 0.924, 0.454, 192.0, 0.0, 0.0, 0.0, 0.0, 0.0, 0.0, 0.0, 0.0, 0.0, 1.6541737135058148E9, 0.0, 2022-06-02 14:41:53.505
20.0, -15555.942422859958, 7247.329622188762, -46512.77321729341, -35630.04411817123, -21152.349847835285, -22558.922774663304, -9209.745730131357, -10459.141189949654, 0.03, 0.924, 0.454, 192.0, 0.0, 0.0, 0.0, 0.0, 0.0, 0.0, 0.0, 0.0, 0.0, 1.6541737135058224E9, 0.0, 2022-06-02 14:41:53.505
21.0, -15560.07749558419, 7241.317002930285, -46525.26784244393, -35641.73408052136, -21164.66565903016, -22572.1773591253, -9224.20730879394, -10492.557047910339, 0.03, 0.924, 0.454, 192.0, 0.0, 0.0, 0.0, 0.0, 0.0, 0.0, 0.0, 0.0, 0.0, 1.6541737135058289E9, 0.0, 2022-06-02 14:41:53.505
22.0, -15547.001725077836, 7252.67168911358, -46494.333028117784, -35618.15299012101, -21138.51411801745, -22552.999562382647, -9202.593171905657, -10489.025472286401, 0.03, 0.924, 0.454, 192.0, 0.0, 0.0, 0.0, 0.0, 0.0, 0.0, 0.0, 0.0, 0.0, 1.654173713505872E9, 0.0, 2022-06-02 14:41:53.505
23.0, -15527.890983568548, 7273.302349245829, -46453.20581832002, -35580.95968734738, -21097.632777408693, -22517.16971602079, -9175.547561114736, -10442.243271141442, 0.03, 0.924, 0.454, 192.0, 0.0, 0.0, 0.0, 0.0, 0.0, 0.0, 0.0, 0.0, 0.0, 1.6541737135058787E9, 0.0, 2022-06-02 14:41:53.505
24.0, -15528.092149268647, 7274.330529490773, -46461.94535040204, -35589.09572232911, -21103.980672834, -22521.483602700664, -9190.00913977732, -10427.468768056486, 0.03, 0.924, 0.454, 192.0, 0.0, 0.0, 0.0, 0.0, 0.0, 0.0, 0.0, 0.0, 0.0, 1.6541737135058897E9, 0.0, 2022-06-02 14:41:53.505
25.0, -15545.88413785507, 7251.53175014636, -46497.95401071954, -35629.61943502658, -21142.716245975047, -22556.531138006587, -9236.858396155643, -10472.127553478189, 0.03, 0.924, 0.454, 192.0, 0.0, 0.0, 0.0, 0.0, 0.0, 0.0, 0.0, 0.0, 0.0, 1.6541737135058959E9, 0.0, 2022-06-02 14:41:53.505
26.0, -15560.546882217752, 7231.057552225298, -46520.68573483059, -35657.425005128986, -21168.420752098653, -22581.118056907424, -9283.797059511788, -10501.40833871464, 0.03, 0.924, 0.454, 192.0, 0.0, 0.0, 0.0, 0.0, 0.0, 0.0, 0.0, 0.0, 0.0, 1.6541737135059018E9, 0.0, 2022-06-02 14:41:53.505
27.0, -15547.582870433675, 7246.413200666095, -46493.30484787284, -35629.440621070935, -21133.596734237282, -22552.865451915917, -9236.701933944456, -10474.876818046192, 0.02, 0.926, 0.452, 192.0, 0.0, 160.0, 28.0, 240.0, 14.0, 32.0, 0.0, 0.0, 0.0, 1.6541737135059092E9, 0.0, 2022-06-02 14:41:53.505
28.0, -15526.013437034302, 7275.96220683601, -46445.405059505116, -35589.0510188402, -21089.094411026766, -22510.955931062213, -9167.925616255478, -10435.627154782673, 0.02, 0.926, 0.452, 192.0, 0.0, 0.0, 0.0, 0.0, 0.0, 0.0, 0.0, 0.0, 0.0, 1.6541737135059164E9, 0.0, 2022-06-02 14:41:53.505
29.0, -15534.194175504945, 7267.53559917636, -46459.82193467879, -35609.256995827796, -21110.79795489287, -22529.194954537747, -9184.220037963396, -10443.9643554645, 0.02, 0.926, 0.452, 192.0, 0.0, 0.0, 0.0, 0.0, 0.0, 0.0, 0.0, 0.0, 0.0, 1.6541737135059233E9, 0.0, 2022-06-02 14:41:53.505
30.0, -15540.296201741243, 7259.645433383636, -46485.951123947045, -35626.378432080564, -21135.161356349156, -22557.246393829155, -9200.849735838145, -10468.685384832072, 0.02, 0.926, 0.452, 192.0, 0.0, 0.0, 0.0, 0.0, 0.0, 0.0, 0.0, 0.0, 0.0, 1.6541737135059297E9, 0.0, 2022-06-02 14:41:53.505
31.0, -15556.70238217144, 7242.702811086513, -46513.488473115984, -35652.44056611545, -21162.89987121819, -22579.57578654001, -9237.30543104475, -10476.463791902517, 0.02, 0.926, 0.452, 192.0, 0.0, 0.0, 0.0, 0.0, 0.0, 0.0, 0.0, 0.0, 0.0, 1.654173713505936E9, 0.0, 2022-06-02 14:41:53.505
32.0, -15542.956059331425, 7252.425819924572, -46497.909307230635, -35634.31330136219, -21148.55005127788, -22561.51557702012, -9233.326820531705, -10469.490047632462, 0.02, 0.926, 0.452, 192.0, 0.0, 0.0, 0.0, 0.0, 0.0, 0.0, 0.0, 0.0, 0.0, 1.654173713505942E9, 0.0, 2022-06-02 14:41:53.505
33.0, -15491.2564744063, 7303.007817626932, -46429.736486641945, -35563.32416097214, -21082.768867345916, -22492.918073286783, -9174.09469772514, -10424.227765110465, 0.02, 0.926, 0.452, 192.0, 0.0, 0.0, 0.0, 0.0, 0.0, 0.0, 0.0, 0.0, 0.0, 1.6541737135059483E9, 0.0, 2022-06-02 14:41:53.505
34.0, -15491.569398828675, 7303.901887405144, -46436.017326833884, -35573.33774248812, -21095.665823896627, -22500.428259423767, -9178.028604749275, -10438.64464028414, 0.02, 0.926, 0.452, 192.0, 0.0, 0.0, 0.0, 0.0, 0.0, 0.0, 0.0, 0.0, 0.0, 1.6541737135059595E9, 0.0, 2022-06-02 14:41:53.505
35.0, -15535.870556339092, 7259.265453727896, -46496.858775241235, -35635.92262696298, -21159.770626994447, -22561.448521786755, -9234.310297287739, -10493.629931644195, 0.02, 0.926, 0.452, 192.0, 0.0, 0.0, 0.0, 0.0, 0.0, 0.0, 0.0, 0.0, 0.0, 1.654173713505966E9, 0.0, 2022-06-02 14:41:53.505
36.0, -15532.607201648618, 7255.778581592868, -46501.30677238784, -35640.080051431665, -21167.392571853707, -22569.808074213037, -9238.333611289694, -10496.93798982358, 0.02, 0.926, 0.452, 192.0, 0.0, 0.0, 0.0, 0.0, 0.0, 0.0, 0.0, 0.0, 0.0, 1.6541737135059724E9, 0.0, 2022-06-02 14:41:53.505
37.0, -15518.25738170831, 7269.346090477239, -46481.92780994509, -35612.07331562917, -21143.02917039742, -22544.79647216755, -9218.30644825774, -10481.381175682685, 0.018000000000000002, 0.932, 0.448, 192.0, 0.0, 144.0, 29.0, 32.0, 14.0, 0.0, 0.0, 0.0, 0.0, 1.6541737135059798E9, 0.0, 2022-06-02 14:41:53.505
38.0, -15502.700567567417, 7289.149736064642, -46449.741297929446, -35575.349399489096, -21099.577379176306, -22511.872352584884, -9181.560180373213, -10473.602768612238, 0.018000000000000002, 0.932, 0.448, 192.0, 0.0, 0.0, 0.0, 0.0, 0.0, 0.0, 0.0, 0.0, 0.0, 1.6541737135059855E9, 0.0, 2022-06-02 14:41:53.505
39.0, -15506.612122847097, 7287.294541274851, -46452.82583866428, -35583.68660017093, -21102.863085611236, -22520.522477689086, -9182.655415851525, -10456.123704448188, 0.018000000000000002, 0.932, 0.448, 192.0, 0.0, 0.0, 0.0, 0.0, 0.0, 0.0, 0.0, 0.0, 0.0, 1.6541737135059948E9, 0.0, 2022-06-02 14:41:53.505
40.0, -15536.608163906118, 7253.6551658696135, -46499.652743298146, -35631.18405713845, -21152.640420513206, -22566.85764394494, -9226.263669283828, -10469.73591682147, 0.018000000000000002, 0.932, 0.448, 192.0, 0.0, 0.0, 0.0, 0.0, 0.0, 0.0, 0.0, 0.0, 0.0, 1.6541737135060034E9, 0.0, 2022-06-02 14:41:53.506
41.0, -15558.64698393905, 7228.889433013133, -46527.16774072263, -35658.34142665165, -21182.792923783414, -22591.28810063459, -9249.956518406454, -10496.960341568034, 0.018000000000000002, 0.932, 0.448, 192.0, 0.0, 0.0, 0.0, 0.0, 0.0, 0.0, 0.0, 0.0, 0.0, 1.6541737135060112E9, 0.0, 2022-06-02 14:41:53.506
42.0, -15531.847242337137, 7254.616290881192, -46495.29415312936, -35623.96444367939, -21149.935859434114, -22558.43103628529, -9229.191747807474, -10496.222734001009, 0.018000000000000002, 0.932, 0.448, 192.0, 0.0, 0.0, 0.0, 0.0, 0.0, 0.0, 0.0, 0.0, 0.0, 1.654173713506018E9, 0.0, 2022-06-02 14:41:53.506
43.0, -15499.236047176844, 7289.8649918872115, -46446.4108880056, -35582.23373678133, -21097.386908219687, -22514.82278285298, -9188.064538009708, -10476.866123302714, 0.018000000000000002, 0.932, 0.448, 192.0, 0.0, 0.0, 0.0, 0.0, 0.0, 0.0, 0.0, 0.0, 0.0, 1.6541737135060353E9, 0.0, 2022-06-02 14:41:53.506
44.0, -15503.102898967612, 7287.316893019306, -46450.076574096274, -35584.55831820468, -21100.09146929878, -22519.449593955233, -9192.557238645226, -10439.762227506904, 0.018000000000000002, 0.932, 0.448, 192.0, 0.0, 0.0, 0.0, 0.0, 0.0, 0.0, 0.0, 0.0, 0.0, 1.6541737135060441E9, 0.0, 2022-06-02 14:41:53.506
45.0, -15526.125195756578, 7258.013756038399, -46492.589592050266, -35624.702051246415, -21143.252687841974, -22560.75561770864, -9213.031436566287, -10481.627044871693, 0.018000000000000002, 0.932, 0.448, 192.0, 0.0, 0.0, 0.0, 0.0, 0.0, 0.0, 0.0, 0.0, 0.0, 1.65417371350605E9, 0.0, 2022-06-02 14:41:53.506
46.0, -15527.622762635085, 7250.190645479041, -46507.29703990186, -35639.40949909801, -21153.33332459132, -22566.969402667215, -9196.558200902726, -10474.452134901541, 0.018000000000000002, 0.932, 0.448, 192.0, 0.0, 0.0, 0.0, 0.0, 0.0, 0.0, 0.0, 0.0, 0.0, 1.654173713506056E9, 0.0, 2022-06-02 14:41:53.506
47.0, -15522.727730599372, 7255.9126920596, -46492.589592050266, -35620.231702355355, -21135.697798216082, -22544.528251234085, -9192.959570045421, -10420.696189486527, 0.016, 0.92, 0.442, 192.0, 0.0, 128.0, 28.0, 192.0, 13.0, 208.0, 0.0, 0.0, 0.0, 1.654173713506062E9, 0.0, 2022-06-02 14:41:53.506
48.0, -15480.01354694528, 7303.7230734495015, -46420.46051269299, -35555.74691960179, -21068.46375089452, -22483.619747593373, -9164.259930164806, -10383.81581113527, 0.016, 0.92, 0.442, 192.0, 0.0, 0.0, 0.0, 0.0, 0.0, 0.0, 0.0, 0.0, 0.0, 1.6541737135060675E9, 0.0, 2022-06-02 14:41:53.506
49.0, -15496.665596564484, 7287.428651741583, -46445.62857694967, -35583.105454815086, -21096.112858785735, -22510.17362000628, -9205.923581829498, -10429.815701224292, 0.016, 0.92, 0.442, 192.0, 0.0, 0.0, 0.0, 0.0, 0.0, 0.0, 0.0, 0.0, 0.0, 1.654173713506075E9, 0.0, 2022-06-02 14:41:53.506
50.0, -15530.796710347739, 7253.00696528041, -46495.47296708501, -35635.07326067368, -21149.310010589365, -22564.42130379931, -9215.937163345476, -10472.440477900564, 0.016, 0.92, 0.442, 192.0, 0.0, 0.0, 0.0, 0.0, 0.0, 0.0, 0.0, 0.0, 0.0, 1.654173713506081E9, 0.0, 2022-06-02 14:41:53.506
51.0, -15527.73452135736, 7251.487046657449, -46507.18528117958, -35642.67285378848, -21156.440217070605, -22575.351306837954, -9203.330779472682, -10481.492934404961, 0.016, 0.92, 0.442, 192.0, 0.0, 0.0, 0.0, 0.0, 0.0, 0.0, 0.0, 0.0, 0.0, 1.6541737135060892E9, 0.0, 2022-06-02 14:41:53.506
52.0, -15530.148509758534, 7251.95643329101, -46507.900537002155, -35632.61456878359, -21151.344019334796, -22567.23762360068, -9211.600924921147, -10503.621161415716, 0.016, 0.92, 0.442, 192.0, 0.0, 0.0, 0.0, 0.0, 0.0, 0.0, 0.0, 0.0, 0.0, 1.6541737135060964E9, 0.0, 2022-06-02 14:41:53.506
53.0, -15514.032902006258, 7273.928198090577, -46472.2718563404, -35592.04615259721, -21111.535562459896, -22524.45638471322, -9188.958607787921, -10456.973070737491, 0.016, 0.92, 0.442, 192.0, 0.0, 0.0, 0.0, 0.0, 0.0, 0.0, 0.0, 0.0, 0.0, 1.6541737135061092E9, 0.0, 2022-06-02 14:41:53.506
54.0, -15512.468279894387, 7279.96316909351, -46469.14261211665, -35592.49318748632, -21116.31883577333, -22519.717814888696, -9196.357035202627, -10417.030503395856, 0.016, 0.92, 0.442, 192.0, 0.0, 0.0, 0.0, 0.0, 0.0, 0.0, 0.0, 0.0, 0.0, 1.6541737135061152E9, 0.0, 2022-06-02 14:41:53.506
55.0, -15524.895849811537, 7266.9768055649765, -46496.18822290757, -35623.18213262345, -21144.392626809196, -22550.540870492565, -9217.546488946258, -10460.012907983411, 0.016, 0.92, 0.442, 192.0, 0.0, 0.0, 0.0, 0.0, 0.0, 0.0, 0.0, 0.0, 0.0, 1.6541737135061224E9, 0.0, 2022-06-02 14:41:53.506
56.0, -15540.184443018967, 7247.53078788886, -46524.28436568789, -35649.177211424976, -21173.785170767926, -22582.816789486027, -9269.827219227222, -10520.98846685749, 0.016, 0.92, 0.442, 192.0, 0.0, 0.0, 0.0, 0.0, 0.0, 0.0, 0.0, 0.0, 0.0, 1.6541737135061295E9, 0.0, 2022-06-02 14:41:53.506
57.0, -15535.937611572459, 7250.369459434683, -46515.14250220567, -35636.28025487426, -21164.911528219167, -22572.55733878104, -9250.515312017837, -10508.493841706973, 0.012, 0.922, 0.444, 192.0, 0.0, 96.0, 28.0, 208.0, 13.0, 224.0, 0.0, 0.0, 0.0, 1.6541737135061364E9, 0.0, 2022-06-02 14:41:53.506
58.0, -15505.047500735225, 7283.003006339432, -46460.04545212334, -35582.45725422588, -21102.639568166684, -22517.348529976432, -9174.139401214052, -10464.751477807937, 0.012, 0.922, 0.444, 192.0, 0.0, 0.0, 0.0, 0.0, 0.0, 0.0, 0.0, 0.0, 0.0, 1.654173713506146E9, 0.0, 2022-06-02 14:41:53.506
59.0, -15503.661692578995, 7287.24983778594, -46461.408908535115, -35583.46308272637, -21105.299425756864, -22509.45836418371, -9184.242389707852, -10455.207282925521, 0.012, 0.922, 0.444, 192.0, 0.0, 0.0, 0.0, 0.0, 0.0, 0.0, 0.0, 0.0, 0.0, 1.6541737135061545E9, 0.0, 2022-06-02 14:41:53.506
60.0, -15532.383684204066, 7256.046802526332, -46509.48751085848, -35632.39105133904, -21159.547109549894, -22552.59723098245, -9253.666907986035, -10487.974940297001, 0.012, 0.922, 0.444, 192.0, 0.0, 0.0, 0.0, 0.0, 0.0, 0.0, 0.0, 0.0, 0.0, 1.6541737135061631E9, 0.0, 2022-06-02 14:41:53.506
61.0, -15547.851091367138, 7234.253851682407, -46536.130790249204, -35659.995455741344, -21188.760839552982, -22581.162760396335, -9275.54926580778, -10517.970981356024, 0.012, 0.922, 0.444, 192.0, 0.0, 0.0, 0.0, 0.0, 0.0, 0.0, 0.0, 0.0, 0.0, 1.6541737135061696E9, 0.0, 2022-06-02 14:41:53.506
62.0, -15523.68885561095, 7258.617253138692, -46500.144481676165, -35621.28223434475, -21142.649190741682, -22549.490338503165, -9186.231694964374, -10469.668861588105, 0.012, 0.922, 0.444, 192.0, 0.0, 0.0, 0.0, 0.0, 0.0, 0.0, 0.0, 0.0, 0.0, 1.6541737135061755E9, 0.0, 2022-06-02 14:41:53.506
63.0, -15505.02514899077, 7279.024395826387, -46456.55857998831, -35577.09283555661, -21101.924312344112, -22508.720756616684, -9144.702153766413, -10398.992645620423, 0.012, 0.922, 0.444, 192.0, 0.0, 0.0, 0.0, 0.0, 0.0, 0.0, 0.0, 0.0, 0.0, 1.6541737135061843E9, 0.0, 2022-06-02 14:41:53.506
64.0, -15493.916331996481, 7289.77558490939, -46448.3107862843, -35572.51072794327, -21098.549198931363, -22499.288320456544, -9150.692421280435, -10388.934360615536, 0.012, 0.922, 0.444, 192.0, 0.0, 0.0, 0.0, 0.0, 0.0, 0.0, 0.0, 0.0, 0.0, 1.6541737135062022E9, 0.0, 2022-06-02 14:41:53.506
65.0, -15512.781204316761, 7268.921407332588, -46484.967647191006, -35615.22491159736, -21137.061254627857, -22537.442748241752, -9196.602904391635, -10450.088733445256, 0.012, 0.922, 0.444, 192.0, 0.0, 0.0, 0.0, 0.0, 0.0, 0.0, 0.0, 0.0, 0.0, 1.6541737135062113E9, 0.0, 2022-06-02 14:41:53.506
66.0, -15516.625704363074, 7264.361651463706, -46498.98219096449, -35625.66317625799, -21148.974734422536, -22554.385370538876, -9215.221907522906, -10487.997292041457, 0.012, 0.922, 0.444, 192.0, 0.0, 0.0, 0.0, 0.0, 0.0, 0.0, 0.0, 0.0, 0.0, 1.6541737135062191E9, 0.0, 2022-06-02 14:41:53.506
67.0, -15493.312834896189, 7283.807669139823, -46476.74220523146, -35595.84594915461, -21117.972864863023, -22531.02779758308, -9185.896418797543, -10471.255835444432, 0.02, 0.926, 0.444, 192.0, 0.0, 160.0, 28.0, 240.0, 13.0, 224.0, 0.0, 0.0, 0.0, 1.6541737135062253E9, 0.0, 2022-06-02 14:41:53.506
68.0, -15488.06017494919, 7292.636608199669, -46452.892893897646, -35575.90819310048, -21093.721222129014, -22507.334948460455, -9168.931444755966, -10439.49400657344, 0.02, 0.926, 0.444, 192.0, 0.0, 0.0, 0.0, 0.0, 0.0, 0.0, 0.0, 0.0, 0.0, 1.6541737135062337E9, 0.0, 2022-06-02 14:41:53.506
69.0, -15496.375023886565, 7287.182782552574, -46463.778193447375, -35585.65355368299, -21106.439364724087, -22519.628407910874, -9195.999407291343, -10431.380323336163, 0.02, 0.926, 0.444, 192.0, 0.0, 0.0, 0.0, 0.0, 0.0, 0.0, 0.0, 0.0, 0.0, 1.654173713506241E9, 0.0, 2022-06-02 14:41:53.506
70.0, -15516.089262496145, 7264.540465419348, -46501.66440029912, -35621.841027956136, -21144.884365187212, -22557.84989092945, -9234.198538565463, -10473.513361634417, 0.02, 0.926, 0.444, 192.0, 0.0, 0.0, 0.0, 0.0, 0.0, 0.0, 0.0, 0.0, 0.0, 1.6541737135062473E9, 0.0, 2022-06-02 14:41:53.506
71.0, -15517.78799507475, 7257.790238593846, -46512.84027252677, -35634.17919089546, -21152.126330390733, -22569.428094557297, -9215.579535434192, -10507.823289373313, 0.02, 0.926, 0.444, 192.0, 0.0, 0.0, 0.0, 0.0, 0.0, 0.0, 0.0, 0.0, 0.0, 1.654173713506254E9, 0.0, 2022-06-02 14:41:53.506
72.0, -15512.289465938744, 7263.288767729851, -46500.88208924319, -35616.90129243151, -21136.524812760927, -22547.94806813575, -9198.167526503506, -10456.704849804026, 0.02, 0.926, 0.444, 192.0, 0.0, 0.0, 0.0, 0.0, 0.0, 0.0, 0.0, 0.0, 0.0, 1.6541737135062623E9, 0.0, 2022-06-02 14:41:53.506
73.0, -15488.06017494919, 7293.910657633622, -46458.48083001147, -35568.04037905221, -21090.502570927452, -22503.333986202953, -9167.724450555379, -10407.642770724628, 0.02, 0.926, 0.444, 192.0, 0.0, 0.0, 0.0, 0.0, 0.0, 0.0, 0.0, 0.0, 0.0, 1.6541737135062695E9, 0.0, 2022-06-02 14:41:53.506
74.0, -15488.127230182557, 7295.5646867233145, -46459.307844556315, -35571.66136165397, -21094.481181440497, -22509.92775081727, -9167.590340088647, -10436.722390260982, 0.02, 0.926, 0.444, 192.0, 0.0, 0.0, 0.0, 0.0, 0.0, 0.0, 0.0, 0.0, 0.0, 1.6541737135062757E9, 0.0, 2022-06-02 14:41:53.506
75.0, -15517.16214623, 7261.277110728874, -46509.59926958076, -35622.06454540069, -21145.46551054305, -22561.381466553386, -9206.996465563354, -10492.1770682546, 0.02, 0.926, 0.444, 192.0, 0.0, 0.0, 0.0, 0.0, 0.0, 0.0, 0.0, 0.0, 0.0, 1.654173713506283E9, 0.0, 2022-06-02 14:41:53.506
76.0, -15514.479936895365, 7261.366517706695, -46519.61285109673, -35626.53489429175, -21155.434388570116, -22564.62246949941, -9226.263669283828, -10502.03418755939, 0.02, 0.926, 0.444, 192.0, 0.0, 0.0, 0.0, 0.0, 0.0, 0.0, 0.0, 0.0, 0.0, 1.6541737135062895E9, 0.0, 2022-06-02 14:41:53.506
77.0, -15509.406090904009, 7268.809648610312, -46505.91123174563, -35609.56992025017, -21142.492728530495, -22544.438844256263, -9222.195651792963, -10450.893396245647, 0.026000000000000002, 0.932, 0.446, 192.0, 0.0, 208.0, 29.0, 32.0, 13.0, 240.0, 0.0, 0.0, 0.0, 1.6541737135062957E9, 0.0, 2022-06-02 14:41:53.506
78.0, -15492.999910473814, 7288.412128497616, -46467.64504523815, -35569.38148371953, -21103.37717573371, -22504.384518192353, -9189.495049654848, -10379.233703521932, 0.026000000000000002, 0.932, 0.446, 192.0, 0.0, 0.0, 0.0, 0.0, 0.0, 0.0, 0.0, 0.0, 0.0, 1.6541737135063028E9, 0.0, 2022-06-02 14:41:53.506
79.0, -15503.2593611788, 7280.6560731716245, -46475.468155797505, -35577.31635300116, -21114.88832412819, -22508.810163594506, -9215.087797056174, -10379.948959344501, 0.026000000000000002, 0.932, 0.446, 192.0, 0.0, 0.0, 0.0, 0.0, 0.0, 0.0, 0.0, 0.0, 0.0, 1.6541737135063093E9, 0.0, 2022-06-02 14:41:53.506
80.0, -15512.848259550126, 7268.25085499893, -46503.25137415545, -35606.19480683742, -21142.98446690851, -22534.78289065157, -9243.519216003326, -10434.554271048817, 0.026000000000000002, 0.932, 0.446, 192.0, 0.0, 0.0, 0.0, 0.0, 0.0, 0.0, 0.0, 0.0, 0.0, 1.654173713506317E9, 0.0, 2022-06-02 14:41:53.506
81.0, -15519.330265442166, 7257.566721149293, -46520.79749355287, -35626.646653014024, -21161.983449695523, -22558.095760118456, -9245.866149171132, -10464.460905130018, 0.026000000000000002, 0.932, 0.446, 192.0, 0.0, 0.0, 0.0, 0.0, 0.0, 0.0, 0.0, 0.0, 0.0, 1.6541737135063238E9, 0.0, 2022-06-02 14:41:53.506
82.0, -15513.138832228045, 7261.76884910689, -46510.269821914415, -35611.201597595405, -21149.33236233382, -22547.635143713374, -9221.659209926034, -10461.286957417364, 0.026000000000000002, 0.932, 0.446, 192.0, 0.0, 0.0, 0.0, 0.0, 0.0, 0.0, 0.0, 0.0, 0.0, 1.654173713506339E9, 0.0, 2022-06-02 14:41:53.506
83.0, -15477.331337610643, 7301.823175170801, -46452.02117586388, -35552.10358525557, -21087.93212031509, -22484.87144528287, -9150.29008988024, -10413.409520794097, 0.026000000000000002, 0.932, 0.446, 192.0, 0.0, 0.0, 0.0, 0.0, 0.0, 0.0, 0.0, 0.0, 0.0, 1.6541737135063474E9, 0.0, 2022-06-02 14:41:53.506
84.0, -15477.48779982183, 7302.516079248915, -46454.904550898624, -35564.66526563946, -21094.659995396138, -22498.64011986734, -9157.777924272767, -10430.419198324586, 0.026000000000000002, 0.932, 0.446, 192.0, 0.0, 0.0, 0.0, 0.0, 0.0, 0.0, 0.0, 0.0, 0.0, 1.6541737135063555E9, 0.0, 2022-06-02 14:41:53.506
85.0, -15492.910503495992, 7282.198343539041, -46489.41564433761, -35604.58548123664, -21131.71918770304, -22541.197841310244, -9199.06159628172, -10469.087716232267, 0.026000000000000002, 0.932, 0.446, 192.0, 0.0, 0.0, 0.0, 0.0, 0.0, 0.0, 0.0, 0.0, 0.0, 1.654173713506362E9, 0.0, 2022-06-02 14:41:53.506
86.0, -15505.472183879876, 7265.456886942016, -46511.85679577074, -35627.54072279224, -21159.65886827217, -22557.738132207174, -9238.53477698979, -10454.201454425032, 0.026000000000000002, 0.932, 0.446, 192.0, 0.0, 0.0, 0.0, 0.0, 0.0, 0.0, 0.0, 0.0, 0.0, 1.6541737135063748E9, 0.0, 2022-06-02 14:41:53.506
87.0, -15519.956114286913, 7254.8845118146555, -46516.37184815072, -35632.68162401696, -21163.212795640564, -22558.36398105192, -9257.35494582116, -10457.420105626596, 0.03, 0.924, 0.454, 192.0, 0.0, 240.0, 28.0, 224.0, 14.0, 48.0, 0.0, 0.0, 0.0, 1.6541737135063803E9, 0.0, 2022-06-02 14:41:53.506
88.0, -15505.092204224135, 7276.476296958483, -46471.44484179555, -35589.47570198485, -21120.923295131124, -22510.486544428655, -9202.906096328032, -10408.089805613734, 0.03, 0.924, 0.454, 192.0, 0.0, 0.0, 0.0, 0.0, 0.0, 0.0, 0.0, 0.0, 0.0, 1.654173713506386E9, 0.0, 2022-06-02 14:41:53.506
89.0, -15486.987291215337, 7297.375178024195, -46446.6120537057, -35574.27651575524, -21102.0807745553, -22493.87919829836, -9172.23950293535, -10412.96248590499, 0.03, 0.924, 0.454, 192.0, 0.0, 0.0, 0.0, 0.0, 0.0, 0.0, 0.0, 0.0, 0.0, 1.6541737135063915E9, 0.0, 2022-06-02 14:41:53.506
90.0, -15491.97173022887, 7287.763927908412, -46468.717928972, -35604.74194344782, -21124.61133296625, -22523.65172191283, -9220.742788403368, -10472.596940111749, 0.03, 0.924, 0.454, 192.0, 0.0, 0.0, 0.0, 0.0, 0.0, 0.0, 0.0, 0.0, 0.0, 1.6541737135063987E9, 0.0, 2022-06-02 14:41:53.506
91.0, -15512.714149083395, 7263.6910991300465, -46501.99967646595, -35644.30453113372, -21159.368295594253, -22568.26580384562, -9262.227626112417, -10521.681370935605, 0.03, 0.924, 0.454, 192.0, 0.0, 0.0, 0.0, 0.0, 0.0, 0.0, 0.0, 0.0, 0.0, 1.6541737135064096E9, 0.0, 2022-06-02 14:41:53.506
92.0, -15507.841468792138, 7268.429668954572, -46485.68290301358, -35628.81477222619, -21143.163280864155, -22550.674980959295, -9213.29965749975, -10471.904036033635, 0.03, 0.924, 0.454, 192.0, 0.0, 0.0, 0.0, 0.0, 0.0, 0.0, 0.0, 0.0, 0.0, 1.6541737135064156E9, 0.0, 2022-06-02 14:41:53.506
93.0, -15485.936759225937, 7295.922314634599, -46440.26415828039, -35582.23373678133, -21097.18574251959, -22493.83449480945, -9170.29490116774, -10399.931418887547, 0.03, 0.924, 0.454, 192.0, 0.0, 0.0, 0.0, 0.0, 0.0, 0.0, 0.0, 0.0, 0.0, 1.6541737135064223E9, 0.0, 2022-06-02 14:41:53.506
94.0, -15491.323529639665, 7288.479183730982, -46445.94150137204, -35590.88386188554, -21108.406318236153, -22492.69455584223, -9205.118919029108, -10383.1005553127, 0.03, 0.924, 0.454, 192.0, 0.0, 0.0, 0.0, 0.0, 0.0, 0.0, 0.0, 0.0, 0.0, 1.6541737135064282E9, 0.0, 2022-06-02 14:41:53.506
95.0, -15524.337056200155, 7255.443305426038, -46494.333028117784, -35637.93428396396, -21160.843510728304, -22539.096777331448, -9268.26259711535, -10446.02071595439, 0.03, 0.924, 0.454, 192.0, 0.0, 0.0, 0.0, 0.0, 0.0, 0.0, 0.0, 0.0, 0.0, 1.6541737135064354E9, 0.0, 2022-06-02 14:41:53.506
96.0, -15528.02509403528, 7254.906863559111, -46503.6760573001, -35645.9138567345, -21175.10392369079, -22549.89266990336, -9259.008974910854, -10452.435666613062, 0.02, 0.92, 0.46, 192.0, 0.0, 160.0, 28.0, 192.0, 14.0, 96.0, 0.0, 0.0, 0.0, 1.6541737135064435E9, 0.0, 2022-06-02 14:41:53.506
97.0, -15509.495497881831, 7270.217808510996, -46481.883106456175, -35619.49409478833, -21146.292525087898, -22527.518573703597, -9201.274418982795, -10436.789445494347, 0.02, 0.92, 0.46, 192.0, 0.0, 0.0, 0.0, 0.0, 0.0, 0.0, 0.0, 0.0, 0.0, 1.6541737135064497E9, 0.0, 2022-06-02 14:41:53.506
98.0, -15495.771526786271, 7286.4675267300045, -46453.45168750903, -35587.352286261594, -21110.84265838178, -22494.907378543303, -9172.306558168717, -10410.593200992727, 0.02, 0.92, 0.46, 192.0, 0.0, 0.0, 0.0, 0.0, 0.0, 0.0, 0.0, 0.0, 0.0, 1.6541737135064569E9, 0.0, 2022-06-02 14:41:53.506
99.0, -15481.175837656956, 7301.152622837141, -46438.18544604605, -35577.20459427888, -21102.438402466585, -22482.59156734843, -9182.118973984596, -10403.77591893386, 0.02, 0.92, 0.46, 192.0, 0.0, 0.0, 0.0, 0.0, 0.0, 0.0, 0.0, 0.0, 0.0, 1.6541737135064635E9, 0.0, 2022-06-02 14:41:53.506
100.0, -15498.811364032194, 7279.516134204404, -46464.67226322559, -35614.37554530806, -21136.748330205482, -22520.388367222353, -9209.656323153535, -10453.285032902364, 0.02, 0.92, 0.46, 192.0, 0.0, 0.0, 0.0, 0.0, 0.0, 0.0, 0.0, 0.0, 0.0, 1.654173713506471E9, 0.0, 2022-06-02 14:41:53.506
101.0, -15531.2660969813, 7247.083752999753, -46506.76059803493, -35655.72627255038, -21180.04365921541, -22563.348420065453, -9249.867111428632, -10478.810725070325, 0.02, 0.92, 0.46, 192.0, 0.0, 0.0, 0.0, 0.0, 0.0, 0.0, 0.0, 0.0, 0.0, 1.6541737135064774E9, 0.0, 2022-06-02 14:41:53.506
102.0, -15531.2660969813, 7245.876758799167, -46502.804339266346, -35644.416289855995, -21174.790999268414, -22549.915021647816, -9254.7844952088, -10470.898207533146, 0.02, 0.92, 0.46, 192.0, 0.0, 0.0, 0.0, 0.0, 0.0, 0.0, 0.0, 0.0, 0.0, 1.6541737135064857E9, 0.0, 2022-06-02 14:41:53.506
103.0, -15492.150544184513, 7292.5695529663035, -46438.85599837971, -35580.55735594718, -21103.75715538945, -22485.229073194158, -9168.48440986686, -10437.281183872365, 0.02, 0.92, 0.46, 192.0, 0.0, 0.0, 0.0, 0.0, 0.0, 0.0, 0.0, 0.0, 0.0, 1.654173713506492E9, 0.0, 2022-06-02 14:41:53.506
104.0, -15496.218561675378, 7290.714358176513, -46445.78503916086, -35595.264803798775, -21111.84848688227, -22495.48852389914, -9171.256026179317, -10446.221881654488, 0.02, 0.92, 0.46, 192.0, 0.0, 0.0, 0.0, 0.0, 0.0, 0.0, 0.0, 0.0, 0.0, 1.6541737135064993E9, 0.0, 2022-06-02 14:41:53.506
105.0, -15510.456622893409, 7274.285826001862, -46477.122184887194, -35633.151010650516, -21148.103016388777, -22528.61380918191, -9212.740863888368, -10444.232576397966, 0.02, 0.92, 0.46, 192.0, 0.0, 0.0, 0.0, 0.0, 0.0, 0.0, 0.0, 0.0, 0.0, 1.6541737135065048E9, 0.0, 2022-06-02 14:41:53.506
106.0, -15521.1631084875, 7255.510360659405, -46497.30581013034, -35647.992568968846, -21172.153493422687, -22555.972344395203, -9237.931279889499, -10471.322890677797, 0.014, 0.914, 0.456, 192.0, 0.0, 112.0, 28.0, 144.0, 14.0, 64.0, 0.0, 0.0, 0.0, 1.654173713506511E9, 0.0, 2022-06-02 14:41:53.506
107.0, -15512.043596749736, 7262.618215396192, -46484.5206123019, -35630.28998736024, -21156.082589159323, -22533.88882087336, -9229.057637340742, -10480.464754160019, 0.014, 0.914, 0.456, 192.0, 0.0, 0.0, 0.0, 0.0, 0.0, 0.0, 0.0, 0.0, 0.0, 1.654173713506523E9, 0.0, 2022-06-02 14:41:53.506
108.0, -15489.289520894234, 7287.316893019306, -46446.05326009432, -35591.196786307904, -21112.519039215927, -22491.062878496992, -9197.67578812549, -10433.995477437435, 0.014, 0.914, 0.456, 192.0, 0.0, 0.0, 0.0, 0.0, 0.0, 0.0, 0.0, 0.0, 0.0, 1.6541737135065303E9, 0.0, 2022-06-02 14:41:53.506
109.0, -15478.940663211426, 7301.44319551506, -46430.13881804214, -35579.90915535798, -21099.532675687395, -22479.05999172449, -9184.130630985574, -10387.52620071485, 0.014, 0.914, 0.456, 192.0, 0.0, 0.0, 0.0, 0.0, 0.0, 0.0, 0.0, 0.0, 0.0, 1.6541737135065374E9, 0.0, 2022-06-02 14:41:53.506
110.0, -15495.033919219248, 7285.215829040508, -46462.92882715807, -35615.91781567548, -21134.110824359755, -22520.187201522258, -9213.031436566287, -10453.441495113551, 0.014, 0.914, 0.456, 192.0, 0.0, 0.0, 0.0, 0.0, 0.0, 0.0, 0.0, 0.0, 0.0, 1.654173713506544E9, 0.0, 2022-06-02 14:41:53.506
111.0, -15506.656826336006, 7269.837828855256, -46489.3262373598, -35641.86819098809, -21161.871690973247, -22549.93737339227, -9227.180090806496, -10488.533733908384, 0.014, 0.914, 0.456, 192.0, 0.0, 0.0, 0.0, 0.0, 0.0, 0.0, 0.0, 0.0, 0.0, 1.6541737135065515E9, 0.0, 2022-06-02 14:41:53.506
112.0, -15498.565494843186, 7278.353843492729, -46477.23394360947, -35625.23849311334, -21145.08553088731, -22535.83342264097, -9213.634933666579, -10470.205303455032, 0.014, 0.914, 0.456, 192.0, 0.0, 0.0, 0.0, 0.0, 0.0, 0.0, 0.0, 0.0, 0.0, 1.654173713506558E9, 0.0, 2022-06-02 14:41:53.506
113.0, -15484.640358047529, 7296.190535568063, -46438.85599837971, -35584.625373438044, -21103.868914111725, -22494.706212843208, -9173.647662836036, -10409.408558536597, 0.014, 0.914, 0.456, 192.0, 0.0, 0.0, 0.0, 0.0, 0.0, 0.0, 0.0, 0.0, 0.0, 1.6541737135065653E9, 0.0, 2022-06-02 14:41:53.506
114.0, -15482.2040179019, 7301.44319551506, -46433.89391111063, -35582.99369609281, -21102.57251293332, -22494.840323309938, -9187.8186688207, -10431.313268102798, 0.014, 0.914, 0.456, 192.0, 0.0, 0.0, 0.0, 0.0, 0.0, 0.0, 0.0, 0.0, 0.0, 1.6541737135065713E9, 0.0, 2022-06-02 14:41:53.506
115.0, -15503.080547223157, 7277.593884181248, -46472.182449362575, -35619.248225599316, -21143.587964008806, -22532.83828888396, -9220.675733170001, -10441.192739152044, 0.014, 0.914, 0.456, 192.0, 0.0, 0.0, 0.0, 0.0, 0.0, 0.0, 0.0, 0.0, 0.0, 1.6541737135065787E9, 0.0, 2022-06-02 14:41:53.506
116.0, -15512.267114194288, 7262.998195051932, -46501.172661921104, -35641.331749121164, -21174.835702757326, -22550.697332703752, -9269.022556426831, -10449.552291578328, 0.022, 0.926, 0.458, 192.0, 0.0, 176.0, 28.0, 240.0, 14.0, 80.0, 0.0, 0.0, 0.0, 1.654173713506585E9, 0.0, 2022-06-02 14:41:53.506
117.0, -15509.495497881831, 7262.10412527372, -46498.51280433092, -35629.77589723777, -21172.28760388942, -22539.253239542635, -9278.231475142416, -10456.950718993035, 0.022, 0.926, 0.458, 192.0, 0.0, 0.0, 0.0, 0.0, 0.0, 0.0, 0.0, 0.0, 0.0, 1.654173713506591E9, 0.0, 2022-06-02 14:41:53.506
118.0, -15473.419782330964, 7302.4937275044595, -46435.70440241151, -35563.03358829422, -21101.70079489956, -22473.852035266405, -9179.77204081679, -10392.801212406304, 0.022, 0.926, 0.458, 192.0, 0.0, 0.0, 0.0, 0.0, 0.0, 0.0, 0.0, 0.0, 0.0, 1.6541737135065985E9, 0.0, 2022-06-02 14:41:53.506
119.0, -15481.287596379234, 7296.928143135088, -46438.78894314634, -35568.86739359706, -21103.533637944896, -22481.29516617002, -9174.34056691415, -10400.19963982101, 0.022, 0.926, 0.458, 192.0, 0.0, 0.0, 0.0, 0.0, 0.0, 0.0, 0.0, 0.0, 0.0, 1.6541737135066152E9, 0.0, 2022-06-02 14:41:53.506
120.0, -15510.747195571328, 7265.434535197561, -46479.40206282164, -35615.22491159736, -21147.231298355022, -22530.066672571502, -9204.269552739806, -10464.505608618929, 0.022, 0.926, 0.458, 192.0, 0.0, 0.0, 0.0, 0.0, 0.0, 0.0, 0.0, 0.0, 0.0, 1.65417371350663E9, 0.0, 2022-06-02 14:41:53.506
121.0, -15510.233105448855, 7261.76884910689, -46495.58472580728, -35628.32303384817, -21158.585984538317, -22543.65653320033, -9216.428901723493, -10463.186855696065, 0.022, 0.926, 0.458, 192.0, 0.0, 0.0, 0.0, 0.0, 0.0, 0.0, 0.0, 0.0, 0.0, 1.6541737135066404E9, 0.0, 2022-06-02 14:41:53.506
122.0, -15489.02129996077, 7284.522924962393, -46468.02502489388, -35602.28325155774, -21133.015588881444, -22521.997692823137, -9192.53488690077, -10451.005154967923, 0.022, 0.926, 0.458, 192.0, 0.0, 0.0, 0.0, 0.0, 0.0, 0.0, 0.0, 0.0, 0.0, 1.6541737139856267E9, 0.0, 2022-06-02 14:41:53.985
123.0, -15476.124343410058, 7298.045730357854, -46436.57612044527, -35572.890707599014, -21101.633739666195, -22497.008442522103, -9155.319232382684, -10450.289899145353, 0.022, 0.926, 0.458, 192.0, 0.0, 0.0, 0.0, 0.0, 0.0, 0.0, 0.0, 0.0, 0.0, 1.6541737139857523E9, 0.0, 2022-06-02 14:41:53.985
124.0, -15465.417857815964, 7310.674465975102, -46427.52366394087, -35563.95000981689, -21091.351937216754, -22493.052183753513, -9153.754610270811, -10420.338561575241, 0.022, 0.926, 0.458, 192.0, 0.0, 0.0, 0.0, 0.0, 0.0, 0.0, 0.0, 0.0, 0.0, 1.6541737139857595E9, 0.0, 2022-06-02 14:41:53.985
125.0, -15476.772543999261, 7299.520945491904, -46454.45751600951, -35586.458216483385, -21122.33145503181, -22508.474887427677, -9188.57862813218, -10415.91291617309, 0.022, 0.926, 0.458, 192.0, 0.0, 0.0, 0.0, 0.0, 0.0, 0.0, 0.0, 0.0, 0.0, 1.654173713985767E9, 0.0, 2022-06-02 14:41:53.985
126.0, -15504.68987282394, 7270.620139911192, -46492.29901937235, -35622.84685645662, -21162.38578109572, -22544.125919833892, -9210.997427820854, -10439.762227506904, 0.028, 0.92, 0.458, 192.0, 0.0, 224.0, 28.0, 192.0, 14.0, 80.0, 0.0, 0.0, 0.0, 1.6541737139857736E9, 0.0, 2022-06-02 14:41:53.985
127.0, -15496.665596564484, 7281.036052827365, -46479.938504688565, -35607.26769057127, -21147.81244371086, -22531.65364642783, -9208.091701041663, -10432.1626343921, 0.028, 0.92, 0.458, 192.0, 0.0, 0.0, 0.0, 0.0, 0.0, 0.0, 0.0, 0.0, 0.0, 1.654173713985787E9, 0.0, 2022-06-02 14:41:53.985
128.0, -15462.355668825589, 7319.168128868119, -46427.210739518494, -35554.40581493447, -21091.530751172395, -22479.88700626934, -9165.131648198563, -10429.078093657266, 0.028, 0.92, 0.458, 192.0, 0.0, 0.0, 0.0, 0.0, 0.0, 0.0, 0.0, 0.0, 0.0, 1.6541737139858384E9, 0.0, 2022-06-02 14:41:53.985
129.0, -15465.395506071509, 7315.837718944278, -46426.33902148474, -35559.03262603672, -21094.0788500403, -22480.02111673607, -9156.034488205254, -10442.44443684154, 0.028, 0.92, 0.458, 192.0, 0.0, 0.0, 0.0, 0.0, 0.0, 0.0, 0.0, 0.0, 0.0, 1.6541737139858453E9, 0.0, 2022-06-02 14:41:53.985
130.0, -15494.788050030238, 7283.181820295074, -46470.14844061714, -35594.90717588749, -21142.649190741682, -22517.639102654353, -9207.91288708602, -10438.197605395033, 0.028, 0.92, 0.458, 192.0, 0.0, 0.0, 0.0, 0.0, 0.0, 0.0, 0.0, 0.0, 0.0, 1.6541737139858513E9, 0.0, 2022-06-02 14:41:53.985
131.0, -15498.92312275447, 7274.844619613245, -46490.980266449485, -35615.06844938618, -21158.65303977168, -22536.816899397007, -9238.043038611775, -10479.436573915074, 0.028, 0.92, 0.458, 192.0, 0.0, 0.0, 0.0, 0.0, 0.0, 0.0, 0.0, 0.0, 0.0, 1.654173713985857E9, 0.0, 2022-06-02 14:41:53.985
132.0, -15492.865800007083, 7282.019529583398, -46479.04443491035, -35600.69627770141, -21144.23616459801, -22522.489431201153, -9214.953686589442, -10435.269526871387, 0.028, 0.92, 0.458, 192.0, 0.0, 0.0, 0.0, 0.0, 0.0, 0.0, 0.0, 0.0, 0.0, 1.6541737139858625E9, 0.0, 2022-06-02 14:41:53.985
133.0, -15469.530578795742, 7310.339189808273, -46432.08341980975, -35552.26004746676, -21099.51032394294, -22471.549805587507, -9169.892569767544, -10367.208465004976, 0.028, 0.92, 0.458, 192.0, 0.0, 0.0, 0.0, 0.0, 0.0, 0.0, 0.0, 0.0, 0.0, 1.654173713985868E9, 0.0, 2022-06-02 14:41:53.985
134.0, -15476.079639921147, 7304.371274038705, -46439.07951582426, -35562.832422594125, -21108.69689091407, -22481.094000469926, -9188.10924149862, -10384.285197768831, 0.028, 0.92, 0.458, 192.0, 0.0, 0.0, 0.0, 0.0, 0.0, 0.0, 0.0, 0.0, 0.0, 1.6541737139858737E9, 0.0, 2022-06-02 14:41:53.985
135.0, -15503.751099556817, 7274.218770768496, -46487.85102222575, -35612.877978429555, -21154.786187980913, -22530.379596993876, -9211.131538287585, -10464.952643508035, 0.028, 0.92, 0.458, 192.0, 0.0, 0.0, 0.0, 0.0, 0.0, 0.0, 0.0, 0.0, 0.0, 1.654173713985879E9, 0.0, 2022-06-02 14:41:53.985
136.0, -15535.02119004979, 7237.360744161695, -46526.072505244316, -35657.11208070661, -21193.745278566515, -22574.61369927093, -9241.507559002348, -10524.073007592322, 0.032, 0.92, 0.452, 192.0, 1.0, 0.0, 28.0, 192.0, 14.0, 32.0, 0.0, 0.0, 0.0, 1.654173713985885E9, 0.0, 2022-06-02 14:41:53.985
137.0, -15520.336093942655, 7256.739706604446, -46503.072560199806, -35631.899312961024, -21168.733676521028, -22552.954858893736, -9218.440558724471, -10485.225675728998, 0.032, 0.92, 0.452, 192.0, 0.0, 0.0, 0.0, 0.0, 0.0, 0.0, 0.0, 0.0, 0.0, 1.6541737139858904E9, 0.0, 2022-06-02 14:41:53.985
138.0, -15479.991195200826, 7303.320742049306, -46445.22624554947, -35569.895573842, -21106.50641995745, -22493.27570119807, -9153.396982359527, -10400.803136921304, 0.032, 0.92, 0.452, 192.0, 0.0, 0.0, 0.0, 0.0, 0.0, 0.0, 0.0, 0.0, 0.0, 1.654173713985896E9, 0.0, 2022-06-02 14:41:53.985
139.0, -15456.454808289387, 7326.387742327183, -46425.534358684345, -35549.57783813213, -21086.993347047966, -22468.688782297228, -9145.082133422153, -10380.619511678162, 0.032, 0.92, 0.452, 192.0, 0.0, 0.0, 0.0, 0.0, 0.0, 0.0, 0.0, 0.0, 0.0, 1.654173713985902E9, 0.0, 2022-06-02 14:41:53.985
140.0, -15492.59757907362, 7284.657035429125, -46484.00652217943, -35613.97321390786, -21149.265307100453, -22531.608942938918, -9217.188861034974, -10469.579454610284, 0.032, 0.92, 0.452, 192.0, 0.0, 0.0, 0.0, 0.0, 0.0, 0.0, 0.0, 0.0, 0.0, 1.6541737139859076E9, 0.0, 2022-06-02 14:41:53.985
141.0, -15505.11455596859, 7268.34026197675, -46502.40200786615, -35642.06935668819, -21175.10392369079, -22560.71091421973, -9257.26553884334, -10499.79901311386, 0.032, 0.92, 0.452, 192.0, 0.0, 0.0, 0.0, 0.0, 0.0, 0.0, 0.0, 0.0, 0.0, 1.654173713985914E9, 0.0, 2022-06-02 14:41:53.985
142.0, -15494.095145952124, 7278.912637104111, -46481.190202378064, -35621.61751051158, -21151.925164690634, -22538.44857674224, -9229.817596652221, -10461.577530095283, 0.032, 0.92, 0.452, 192.0, 0.0, 0.0, 0.0, 0.0, 0.0, 0.0, 0.0, 0.0, 0.0, 1.6541737139859195E9, 0.0, 2022-06-02 14:41:53.985
143.0, -15463.272090348255, 7310.316838063817, -46430.69761165352, -35569.15796627497, -21099.063289053833, -22483.060953981992, -9185.53879088626, -10402.032482866345, 0.032, 0.92, 0.452, 192.0, 0.0, 0.0, 0.0, 0.0, 0.0, 0.0, 0.0, 0.0, 0.0, 1.6541737139859247E9, 0.0, 2022-06-02 14:41:53.985
144.0, -15470.178779384945, 7308.193422340563, -46438.02898383486, -35573.00246632129, -21114.307178772353, -22484.82674179396, -9247.676640472013, -10415.555288261807, 0.032, 0.92, 0.452, 192.0, 0.0, 0.0, 0.0, 0.0, 0.0, 0.0, 0.0, 0.0, 0.0, 1.65417371398593E9, 0.0, 2022-06-02 14:41:53.985
145.0, -15493.11166919609, 7284.165297051108, -46475.24463835295, -35615.09080113063, -21152.32749609083, -22523.986998079657, -9250.180035851006, -10469.601806354738, 0.032, 0.92, 0.452, 192.0, 0.0, 0.0, 0.0, 0.0, 0.0, 0.0, 0.0, 0.0, 0.0, 1.6541737139859357E9, 0.0, 2022-06-02 14:41:53.985
146.0, -15513.3623496726, 7259.24310198344, -46502.938449733076, -35649.82541201418, -21174.120446934754, -22560.822672942006, -9203.867221339611, -10484.1751437396, 0.02, 0.924, 0.454, 192.0, 0.0, 160.0, 28.0, 224.0, 14.0, 48.0, 0.0, 0.0, 0.0, 1.654173713985941E9, 0.0, 2022-06-02 14:41:53.985
147.0, -15498.520791354274, 7269.01081431041, -46487.11341465872, -35632.323996105675, -21158.787150238415, -22542.42718725529, -9196.424090435994, -10461.041088228356, 0.02, 0.924, 0.454, 192.0, 0.0, 0.0, 0.0, 0.0, 0.0, 0.0, 0.0, 0.0, 0.0, 1.6541737139859464E9, 0.0, 2022-06-02 14:41:53.985
148.0, -15454.800779199693, 7313.44608228756, -46425.064972050786, -35565.693445884404, -21094.995271562966, -22470.231052664647, -9138.935403696943, -10382.318244256765, 0.02, 0.924, 0.454, 192.0, 0.0, 0.0, 0.0, 0.0, 0.0, 0.0, 0.0, 0.0, 0.0, 1.6541737139859524E9, 0.0, 2022-06-02 14:41:53.985
149.0, -15443.87077616105, 7325.091341148775, -46416.303088224304, -35557.82563183613, -21090.882550583192, -22459.97160195966, -9146.356182856105, -10382.29589251231, 0.02, 0.924, 0.454, 192.0, 0.0, 0.0, 0.0, 0.0, 0.0, 0.0, 0.0, 0.0, 0.0, 1.6541737139859588E9, 0.0, 2022-06-02 14:41:53.985
150.0, -15479.655919033996, 7286.10989881872, -46465.588684748254, -35618.46591454338, -21146.85131869928, -22521.84123061195, -9216.58536393468, -10461.421067884097, 0.02, 0.924, 0.454, 192.0, 0.0, 0.0, 0.0, 0.0, 0.0, 0.0, 0.0, 0.0, 0.0, 1.6541737139859688E9, 0.0, 2022-06-02 14:41:53.985
151.0, -15481.734631268338, 7277.549180692337, -46484.43120532408, -35635.49794381833, -21165.246804386, -22546.249335557146, -9226.375428006104, -10485.583303640284, 0.02, 0.924, 0.454, 192.0, 0.0, 0.0, 0.0, 0.0, 0.0, 0.0, 0.0, 0.0, 0.0, 1.654173713985974E9, 0.0, 2022-06-02 14:41:53.985
152.0, -15485.221503403367, 7273.682328901569, -46484.9229437021, -35628.52419954827, -21161.558766550872, -22540.214364554213, -9213.500823199847, -10455.207282925521, 0.02, 0.924, 0.454, 192.0, 0.0, 0.0, 0.0, 0.0, 0.0, 0.0, 0.0, 0.0, 0.0, 1.6541737139859805E9, 0.0, 2022-06-02 14:41:53.985
153.0, -15464.3002705932, 7299.722111192002, -46439.727716413465, -35583.88776587102, -21112.049652582366, -22494.907378543303, -9171.188970945952, -10405.385244534642, 0.02, 0.924, 0.454, 192.0, 0.0, 0.0, 0.0, 0.0, 0.0, 0.0, 0.0, 0.0, 0.0, 1.6541737139859862E9, 0.0, 2022-06-02 14:41:53.985
154.0, -15453.593784999108, 7311.635590986681, -46425.690820895536, -35574.20946052187, -21102.32664374431, -22482.099828970415, -9159.789581273744, -10409.207392836499, 0.02, 0.924, 0.454, 192.0, 0.0, 0.0, 0.0, 0.0, 0.0, 0.0, 0.0, 0.0, 0.0, 1.6541737139859917E9, 0.0, 2022-06-02 14:41:53.985
155.0, -15468.748267739806, 7294.558858222826, -46457.966739889, -35610.441638283926, -21136.591867994295, -22517.16971602079, -9191.841982822656, -10442.332678119265, 0.02, 0.924, 0.454, 192.0, 0.0, 0.0, 0.0, 0.0, 0.0, 0.0, 0.0, 0.0, 0.0, 1.6541737139859972E9, 0.0, 2022-06-02 14:41:53.985
156.0, -15477.264282377279, 7284.902904618133, -46479.29030409936, -35632.97219669488, -21158.80950198287, -22540.92962037678, -9218.574669191203, -10461.242253928454, 0.02, 0.92, 0.452, 192.0, 0.0, 160.0, 28.0, 192.0, 14.0, 32.0, 0.0, 0.0, 0.0, 1.6541737139860024E9, 0.0, 2022-06-02 14:41:53.986
157.0, -15461.998040914303, 7300.7279396924905, -46457.34089104425, -35610.933376661946, -21137.217716839044, -22522.93646609026, -9201.810860849722, -10447.205358410522, 0.02, 0.92, 0.452, 192.0, 0.0, 0.0, 0.0, 0.0, 0.0, 0.0, 0.0, 0.0, 0.0, 1.6541737139860082E9, 0.0, 2022-06-02 14:41:53.986
158.0, -15446.016543628759, 7323.861995203733, -46415.543128912825, -35566.05107379569, -21094.570588418315, -22475.237843422634, -9167.456229621916, -10420.338561575241, 0.02, 0.92, 0.452, 192.0, 0.0, 0.0, 0.0, 0.0, 0.0, 0.0, 0.0, 0.0, 0.0, 1.6541737139860137E9, 0.0, 2022-06-02 14:41:53.986
159.0, -15443.62490697204, 7331.126312151709, -46409.530509654345, -35561.55837316017, -21091.128419772198, -22470.298107898012, -9175.636968092558, -10430.01686692439, 0.02, 0.92, 0.452, 192.0, 0.0, 0.0, 0.0, 0.0, 0.0, 0.0, 0.0, 0.0, 0.0, 1.654173713986019E9, 0.0, 2022-06-02 14:41:53.986
160.0, -15466.758962483284, 7305.332399050284, -46452.669376453094, -35604.67488821446, -21137.955324406066, -22516.610922409407, -9236.903099644554, -10447.361820621709, 0.02, 0.92, 0.452, 192.0, 0.0, 0.0, 0.0, 0.0, 0.0, 0.0, 0.0, 0.0, 0.0, 1.6541737139860244E9, 0.0, 2022-06-02 14:41:53.986
161.0, -15476.370212599066, 7290.0438058428535, -46473.59060926326, -35626.13256289155, -21161.33524910632, -22533.017102839603, -9258.338422577193, -10426.172366878078, 0.02, 0.92, 0.452, 192.0, 0.0, 0.0, 0.0, 0.0, 0.0, 0.0, 0.0, 0.0, 0.0, 1.6541737139860296E9, 0.0, 2022-06-02 14:41:53.986
162.0, -15471.96691894137, 7296.6152187127145, -46460.53719050136, -35614.88963543053, -21143.722074475536, -22524.009349824115, -9214.685465655979, -10448.792332266848, 0.02, 0.92, 0.452, 192.0, 0.0, 0.0, 0.0, 0.0, 0.0, 0.0, 0.0, 0.0, 0.0, 1.654173713986035E9, 0.0, 2022-06-02 14:41:53.986
163.0, -15461.841578703115, 7311.099149119753, -46433.312765754796, -35582.546661203705, -21108.69689091407, -22497.92486404477, -9162.80706677521, -10454.514378847407, 0.02, 0.92, 0.452, 192.0, 0.0, 0.0, 0.0, 0.0, 0.0, 0.0, 0.0, 0.0, 0.0, 1.6541737139860404E9, 0.0, 2022-06-02 14:41:53.986
164.0, -15438.282840047223, 7337.988297699488, -46403.026152017854, -35555.501050412786, -21084.288785968874, -22471.86273000988, -9140.410618830994, -10403.77591893386, 0.02, 0.92, 0.452, 192.0, 0.0, 0.0, 0.0, 0.0, 0.0, 0.0, 0.0, 0.0, 0.0, 1.6541737139860458E9, 0.0, 2022-06-02 14:41:53.986
165.0, -15452.967936154359, 7318.274059089907, -46434.67622216657, -35589.319239773664, -21114.64245493918, -22500.20474197921, -9170.250197678828, -10411.48727077094, 0.02, 0.92, 0.452, 192.0, 0.0, 0.0, 0.0, 0.0, 0.0, 0.0, 0.0, 0.0, 0.0, 1.654173713986051E9, 0.0, 2022-06-02 14:41:53.986
166.0, -15460.656936246985, 7301.711416448524, -46464.09111786975, -35617.974176165364, -21143.56561226435, -22527.049187070035, -9202.660227139024, -10432.743779747938, 0.026000000000000002, 0.922, 0.45, 192.0, 0.0, 208.0, 28.0, 208.0, 14.0, 16.0, 0.0, 0.0, 0.0, 1.6541737139860568E9, 0.0, 2022-06-02 14:41:53.986
167.0, -15489.088355194135, 7270.82130561129, -46494.42243509561, -35641.59997005462, -21169.672449788148, -22546.428149512787, -9230.264631541328, -10459.767038794404, 0.026000000000000002, 0.922, 0.45, 192.0, 0.0, 0.0, 0.0, 0.0, 0.0, 0.0, 0.0, 0.0, 0.0, 1.6541737139860623E9, 0.0, 2022-06-02 14:41:53.986
168.0, -15475.565549798674, 7290.5131924764155, -46456.0668416103, -35596.51650148827, -21127.22648706752, -22497.321366944478, -9191.618465378102, -10417.075206884767, 0.026000000000000002, 0.922, 0.45, 192.0, 0.0, 0.0, 0.0, 0.0, 0.0, 0.0, 0.0, 0.0, 0.0, 1.6541737139860673E9, 0.0, 2022-06-02 14:41:53.986
169.0, -15463.182683370434, 7309.199250841052, -46438.29720476833, -35579.48447221333, -21115.335359017296, -22479.417619635777, -9200.559163160226, -10409.63207598115, 0.026000000000000002, 0.922, 0.45, 192.0, 0.0, 0.0, 0.0, 0.0, 0.0, 0.0, 0.0, 0.0, 0.0, 1.654173713986073E9, 0.0, 2022-06-02 14:41:53.986
170.0, -15489.11070693859, 7280.0078725824205, -46484.699426257546, -35623.45035355692, -21161.71522876206, -22523.539963190553, -9241.842835169176, -10450.714582290004, 0.026000000000000002, 0.922, 0.45, 192.0, 0.0, 0.0, 0.0, 0.0, 0.0, 0.0, 0.0, 0.0, 0.0, 1.6541737139860783E9, 0.0, 2022-06-02 14:41:53.986
171.0, -15507.439137391942, 7256.069154270787, -46523.52440637641, -35659.59312434115, -21188.537322108426, -22562.94608866526, -9255.633861498101, -10495.306312478342, 0.026000000000000002, 0.922, 0.45, 192.0, 0.0, 0.0, 0.0, 0.0, 0.0, 0.0, 0.0, 0.0, 0.0, 1.6541737139860864E9, 0.0, 2022-06-02 14:41:53.986
172.0, -15493.603407574108, 7266.172142764586, -46506.693542801564, -35640.974121209874, -21171.1476649222, -22545.064693101012, -9242.379277036105, -10460.862274272713, 0.026000000000000002, 0.922, 0.45, 192.0, 0.0, 0.0, 0.0, 0.0, 0.0, 0.0, 0.0, 0.0, 0.0, 1.6541737139860919E9, 0.0, 2022-06-02 14:41:53.986
173.0, -15467.92125319496, 7288.747404664446, -46453.18346657556, -35590.88386188554, -21126.198306822578, -22498.506009400608, -9194.7700613463, -10417.835166196248, 0.026000000000000002, 0.922, 0.45, 192.0, 0.0, 0.0, 0.0, 0.0, 0.0, 0.0, 0.0, 0.0, 0.0, 1.654173713986097E9, 0.0, 2022-06-02 14:41:53.986
174.0, -15460.835750202627, 7293.933009378077, -46446.321481027786, -35587.12876881704, -21117.12349857372, -22491.26404419709, -9175.748726814834, -10418.125738874167, 0.026000000000000002, 0.922, 0.45, 192.0, 0.0, 0.0, 0.0, 0.0, 0.0, 0.0, 0.0, 0.0, 0.0, 1.6541737139861023E9, 0.0, 2022-06-02 14:41:53.986
175.0, -15473.240968375323, 7276.968035336499, -46489.929734460085, -35632.4134030835, -21160.53058630593, -22533.061806328515, -9222.73209365989, -10475.726184335494, 0.026000000000000002, 0.922, 0.45, 192.0, 0.0, 0.0, 0.0, 0.0, 0.0, 0.0, 0.0, 0.0, 0.0, 1.6541737139861076E9, 0.0, 2022-06-02 14:41:53.986
176.0, -15488.417802860477, 7261.76884910689, -46526.65365060016, -35663.571734854195, -21195.220493700566, -22569.76337072413, -9262.920530190531, -10498.636722402183, 0.036000000000000004, 0.922, 0.458, 192.0, 1.0, 32.0, 28.0, 208.0, 14.0, 80.0, 0.0, 0.0, 0.0, 1.6541737139861128E9, 0.0, 2022-06-02 14:41:53.986
177.0, -15502.499401867319, 7253.364593191695, -46525.44665639957, -35654.92160974999, -21189.47609537555, -22567.148216622856, -9250.7835329513, -10492.557047910339, 0.036000000000000004, 0.922, 0.458, 192.0, 0.0, 0.0, 0.0, 0.0, 0.0, 0.0, 0.0, 0.0, 0.0, 1.654173713986118E9, 0.0, 2022-06-02 14:41:53.986
178.0, -15461.685116491928, 7299.297428047351, -46447.506123483916, -35581.2502600253, -21112.966074105036, -22492.69455584223, -9173.692366324945, -10427.1111401452, 0.036000000000000004, 0.922, 0.458, 192.0, 0.0, 0.0, 0.0, 0.0, 0.0, 0.0, 0.0, 0.0, 0.0, 1.6541737139861233E9, 0.0, 2022-06-02 14:41:53.986
179.0, -15452.453846031887, 7306.852317673245, -46434.005669832906, -35570.096739542096, -21099.756193131947, -22475.77428528956, -9168.104430211119, -10412.023712637867, 0.036000000000000004, 0.922, 0.458, 192.0, 0.0, 0.0, 0.0, 0.0, 0.0, 0.0, 0.0, 0.0, 0.0, 1.6541737139861288E9, 0.0, 2022-06-02 14:41:53.986
180.0, -15457.751209467795, 7295.475279745493, -46459.017271878394, -35597.76819917777, -21125.483051000007, -22501.434087924255, -9209.455157453438, -10429.569832035284, 0.036000000000000004, 0.922, 0.458, 192.0, 0.0, 0.0, 0.0, 0.0, 0.0, 0.0, 0.0, 0.0, 0.0, 1.6541737139861343E9, 0.0, 2022-06-02 14:41:53.986
181.0, -15475.54319805422, 7276.230427769474, -46492.76840600591, -35630.647615271526, -21158.541281049405, -22537.08512033047, -9243.87684391461, -10467.433687142575, 0.036000000000000004, 0.922, 0.458, 192.0, 0.0, 0.0, 0.0, 0.0, 0.0, 0.0, 0.0, 0.0, 0.0, 1.65417371398614E9, 0.0, 2022-06-02 14:41:53.986
182.0, -15476.392564343521, 7273.503514945926, -46485.459385569025, -35621.52810353376, -21147.9912576665, -22527.630332425873, -9199.843907337656, -10433.973125692979, 0.036000000000000004, 0.922, 0.458, 192.0, 0.0, 0.0, 0.0, 0.0, 0.0, 0.0, 0.0, 0.0, 0.0, 1.6541737139861455E9, 0.0, 2022-06-02 14:41:53.986
183.0, -15462.556834525685, 7289.932047120577, -46455.19512357654, -35585.74296066081, -21115.357710761753, -22493.767439576084, -9167.232712177361, -10402.635979966639, 0.036000000000000004, 0.922, 0.458, 192.0, 0.0, 0.0, 0.0, 0.0, 0.0, 0.0, 0.0, 0.0, 0.0, 1.6541737139861512E9, 0.0, 2022-06-02 14:41:53.986
184.0, -15444.653087216984, 7312.708474720535, -46437.67135592358, -35569.51559418626, -21099.979710576503, -22472.175654432256, -9162.583549330659, -10395.68458744104, 0.036000000000000004, 0.922, 0.458, 192.0, 0.0, 0.0, 0.0, 0.0, 0.0, 0.0, 0.0, 0.0, 0.0, 1.6541737139861567E9, 0.0, 2022-06-02 14:41:53.986
185.0, -15467.608328772585, 7284.567628451304, -46478.08330989877, -35618.44356279893, -21142.55978376386, -22515.985073564658, -9199.888610826565, -10442.511492074907, 0.036000000000000004, 0.924, 0.46, 192.0, 1.0, 32.0, 28.0, 224.0, 14.0, 96.0, 0.0, 0.0, 0.0, 1.6541737139861622E9, 0.0, 2022-06-02 14:41:53.986
186.0, -15481.533465568242, 7268.094392787742, -46499.988019464974, -35632.25694087231, -21164.37508635224, -22549.020951869603, -9208.896363842054, -10474.519190134906, 0.036000000000000004, 0.924, 0.46, 192.0, 0.0, 0.0, 0.0, 0.0, 0.0, 0.0, 0.0, 0.0, 0.0, 1.654173713986168E9, 0.0, 2022-06-02 14:41:53.986
187.0, -15471.743401496817, 7277.705642903525, -46490.44382458256, -35616.320147075676, -21155.300278103387, -22532.3689022504, -9216.563012190225, -10462.0692684733, 0.036000000000000004, 0.924, 0.46, 192.0, 0.0, 0.0, 0.0, 0.0, 0.0, 0.0, 0.0, 0.0, 0.0, 1.6541737139861732E9, 0.0, 2022-06-02 14:41:53.986
188.0, -15450.44218903091, 7296.5034599904375, -46458.86080966721, -35579.05978906868, -21122.89024864319, -22488.805352307005, -9195.440613679959, -10420.360913319697, 0.036000000000000004, 0.924, 0.46, 192.0, 0.0, 0.0, 0.0, 0.0, 0.0, 0.0, 0.0, 0.0, 0.0, 1.6541737139861784E9, 0.0, 2022-06-02 14:41:53.986
189.0, -15440.875642404038, 7307.858146173733, -46442.76755365939, -35565.58168716213, -21107.46754496903, -22476.556596345497, -9177.29099718225, -10397.360968275187, 0.036000000000000004, 0.924, 0.46, 192.0, 0.0, 0.0, 0.0, 0.0, 0.0, 0.0, 0.0, 0.0, 0.0, 1.6541737139861836E9, 0.0, 2022-06-02 14:41:53.986
190.0, -15466.87072120556, 7281.818363883301, -46477.45746105402, -35608.36292604959, -21149.37706582273, -22517.035605554058, -9229.124692574107, -10422.819605209781, 0.036000000000000004, 0.924, 0.46, 192.0, 0.0, 0.0, 0.0, 0.0, 0.0, 0.0, 0.0, 0.0, 0.0, 1.6541737139861891E9, 0.0, 2022-06-02 14:41:53.986
191.0, -15479.611215545085, 7268.5637794213035, -46503.407836366634, -35636.503772318814, -21175.796827768903, -22549.13271059188, -9245.106189859653, -10455.49785560344, 0.036000000000000004, 0.924, 0.46, 192.0, 0.0, 0.0, 0.0, 0.0, 0.0, 0.0, 0.0, 0.0, 0.0, 1.6541737139861944E9, 0.0, 2022-06-02 14:41:53.986
192.0, -15484.68506153644, 7264.205189252519, -46510.67215331461, -35637.62135954158, -21173.09226668981, -22552.776044938095, -9219.15581454704, -10491.953550810045, 0.036000000000000004, 0.924, 0.46, 192.0, 0.0, 0.0, 0.0, 0.0, 0.0, 0.0, 0.0, 0.0, 0.0, 1.6541737139862025E9, 0.0, 2022-06-02 14:41:53.986
193.0, -15457.259471089777, 7293.06129134432, -46468.5167632719, -35591.12973107454, -21124.633684710705, -22504.697442614728, -9164.05876446471, -10468.148942965145, 0.036000000000000004, 0.924, 0.46, 192.0, 0.0, 0.0, 0.0, 0.0, 0.0, 0.0, 0.0, 0.0, 0.0, 1.6541737139862075E9, 0.0, 2022-06-02 14:41:53.986
194.0, -15446.083598862124, 7307.902849662644, -46446.67910893907, -35578.99273383531, -21112.85431538276, -22484.558520860497, -9172.038337235253, -10422.551384276318, 0.036000000000000004, 0.924, 0.46, 192.0, 0.0, 0.0, 0.0, 0.0, 0.0, 0.0, 0.0, 0.0, 0.0, 1.6541737139862127E9, 0.0, 2022-06-02 14:41:53.986
195.0, -15462.042744403214, 7288.970922108999, -46478.37388257669, -35613.68264122995, -21150.67346700114, -22514.308692730512, -9224.140253560574, -10435.649506527127, 0.034, 0.916, 0.466, 192.0, 1.0, 16.0, 28.0, 160.0, 14.0, 144.0, 0.0, 0.0, 0.0, 1.6541737139862185E9, 0.0, 2022-06-02 14:41:53.986
196.0, -15475.051459676202, 7270.888360844656, -46505.68771430108, -35639.8118304982, -21179.171941181656, -22541.287248288067, -9268.709632004457, -10459.87879751668, 0.034, 0.916, 0.466, 192.0, 0.0, 0.0, 0.0, 0.0, 0.0, 0.0, 0.0, 0.0, 0.0, 1.6541737139862237E9, 0.0, 2022-06-02 14:41:53.986
197.0, -15470.670517762963, 7277.146849292141, -46502.29024914387, -35629.61943502658, -21169.359525365773, -22533.687655173264, -9254.06923938623, -10476.352033180241, 0.034, 0.916, 0.466, 192.0, 0.0, 0.0, 0.0, 0.0, 0.0, 0.0, 0.0, 0.0, 0.0, 1.654173713986229E9, 0.0, 2022-06-02 14:41:53.986
198.0, -15458.824093201649, 7292.882477388678, -46472.49537378495, -35597.209405566384, -21133.775548192927, -22497.030794266557, -9196.334683458172, -10438.063494928301, 0.034, 0.916, 0.466, 192.0, 0.0, 0.0, 0.0, 0.0, 0.0, 0.0, 0.0, 0.0, 0.0, 1.6541737139862344E9, 0.0, 2022-06-02 14:41:53.986
199.0, -15455.225462344344, 7299.54329723636, -46460.090155612255, -35589.319239773664, -21121.07975734231, -22488.40302090681, -9182.498953640337, -10404.848802667715, 0.034, 0.916, 0.466, 192.0, 0.0, 0.0, 0.0, 0.0, 0.0, 0.0, 0.0, 0.0, 0.0, 1.6541737139862397E9, 0.0, 2022-06-02 14:41:53.986
200.0, -15468.122418895056, 7283.047709828343, -46486.39815883615, -35621.57280702267, -21152.975696680034, -22521.55065793403, -9226.39777975056, -10443.338506619753, 0.034, 0.916, 0.466, 192.0, 0.0, 0.0, 0.0, 0.0, 0.0, 0.0, 0.0, 0.0, 0.0, 1.654173713986245E9, 0.0, 2022-06-02 14:41:53.986
201.0, -15481.578169057151, 7273.905846346122, -46507.36409513523, -35645.2656561453, -21177.249691158497, -22550.831443170482, -9240.166454335029, -10503.50940269344, 0.034, 0.916, 0.466, 192.0, 0.0, 0.0, 0.0, 0.0, 0.0, 0.0, 0.0, 0.0, 0.0, 1.6541737139862502E9, 0.0, 2022-06-02 14:41:53.986
202.0, -15475.498494565309, 7279.382023737672, -46501.26206889893, -35635.54264730724, -21167.817254998357, -22544.84117565646, -9216.048922067754, -10495.596885156261, 0.034, 0.916, 0.466, 192.0, 0.0, 0.0, 0.0, 0.0, 0.0, 0.0, 0.0, 0.0, 0.0, 1.6541737139862556E9, 0.0, 2022-06-02 14:41:53.986
203.0, -15447.335296551622, 7311.948515409054, -46454.43516426506, -35582.971344348356, -21117.235257295997, -22484.849093538418, -9167.925616255478, -10406.413424779586, 0.034, 0.916, 0.466, 192.0, 0.0, 0.0, 0.0, 0.0, 0.0, 0.0, 0.0, 0.0, 0.0, 1.654173713986261E9, 0.0, 2022-06-02 14:41:53.986
204.0, -15434.572450467642, 7327.348867338761, -46436.442009978535, -35567.012198807264, -21100.247931509966, -22464.710171784183, -9147.831397990156, -10381.759450645382, 0.034, 0.916, 0.466, 192.0, 0.0, 0.0, 0.0, 0.0, 0.0, 0.0, 0.0, 0.0, 0.0, 1.6541737139862664E9, 0.0, 2022-06-02 14:41:53.986
205.0, -15446.418875028954, 7309.914506663622, -46467.086251626766, -35602.19384457992, -21135.071949371333, -22501.83641932445, -9189.517401399304, -10427.960506434501, 0.026000000000000002, 0.92, 0.464, 192.0, 0.0, 208.0, 28.0, 192.0, 14.0, 128.0, 0.0, 0.0, 0.0, 1.6541737139862719E9, 0.0, 2022-06-02 14:41:53.986
206.0, -15452.833825687627, 7300.862050159222, -46487.895725714654, -35624.47853380186, -21155.657906014672, -22528.300884759534, -9222.039189581776, -10469.177123210087, 0.026000000000000002, 0.92, 0.464, 192.0, 0.0, 0.0, 0.0, 0.0, 0.0, 0.0, 0.0, 0.0, 0.0, 1.6541737139862773E9, 0.0, 2022-06-02 14:41:53.986
207.0, -15457.170064111957, 7291.876648888189, -46493.39425485066, -35627.51837104778, -21160.552938050383, -22528.144422548346, -9230.242279796872, -10444.67961128707, 0.026000000000000002, 0.92, 0.464, 192.0, 0.0, 0.0, 0.0, 0.0, 0.0, 0.0, 0.0, 0.0, 0.0, 1.6541737139862828E9, 0.0, 2022-06-02 14:41:53.986
208.0, -15433.521918478242, 7318.207003856541, -46445.09213508274, -35579.75269314679, -21113.547219460874, -22475.439009122732, -9182.051918751231, -10394.075261840257, 0.026000000000000002, 0.92, 0.464, 192.0, 0.0, 0.0, 0.0, 0.0, 0.0, 0.0, 0.0, 0.0, 0.0, 1.6541737139862883E9, 0.0, 2022-06-02 14:41:53.986
209.0, -15418.09921480408, 7337.6530215326575, -46420.594623159726, -35563.61473365006, -21091.351937216754, -22464.710171784183, -9183.974168774386, -10417.812814451792, 0.026000000000000002, 0.92, 0.464, 192.0, 0.0, 0.0, 0.0, 0.0, 0.0, 0.0, 0.0, 0.0, 0.0, 1.6541737139862936E9, 0.0, 2022-06-02 14:41:53.986
210.0, -15439.512185992264, 7320.486881790982, -46455.10571659872, -35605.79247543722, -21125.103071344267, -22503.55750364751, -9225.570765205714, -10461.152846950632, 0.026000000000000002, 0.92, 0.464, 192.0, 0.0, 0.0, 0.0, 0.0, 0.0, 0.0, 0.0, 0.0, 0.0, 1.6541737139863012E9, 0.0, 2022-06-02 14:41:53.986
211.0, -15462.266261847766, 7295.184707067574, -46493.46131008403, -35631.899312961024, -21165.71619101956, -22532.435957483765, -9249.598890495168, -10467.143114464656, 0.026000000000000002, 0.92, 0.464, 192.0, 0.0, 0.0, 0.0, 0.0, 0.0, 0.0, 0.0, 0.0, 0.0, 1.654173713986307E9, 0.0, 2022-06-02 14:41:53.986
212.0, -15458.287651334722, 7296.011721612421, -46488.454519326035, -35620.94695817792, -21159.144778149697, -22522.735300390163, -9226.375428006104, -10449.708753789515, 0.026000000000000002, 0.92, 0.464, 192.0, 0.0, 0.0, 0.0, 0.0, 0.0, 0.0, 0.0, 0.0, 0.0, 1.6541737139863122E9, 0.0, 2022-06-02 14:41:53.986
213.0, -15446.217709328856, 7309.176899096597, -46448.690765940046, -35583.731303659835, -21119.60454220826, -22479.663488824786, -9159.990746973843, -10401.29487529932, 0.026000000000000002, 0.92, 0.464, 192.0, 0.0, 0.0, 0.0, 0.0, 0.0, 0.0, 0.0, 0.0, 0.0, 1.6541737139863176E9, 0.0, 2022-06-02 14:41:53.986
214.0, -15433.141938822502, 7323.951402181555, -46426.18255927355, -35566.05107379569, -21098.862123353734, -22463.994915961615, -9127.245441346819, -10386.498020469908, 0.026000000000000002, 0.92, 0.464, 192.0, 0.0, 0.0, 0.0, 0.0, 0.0, 0.0, 0.0, 0.0, 0.0, 1.6541737139863253E9, 0.0, 2022-06-02 14:41:53.986
215.0, -15443.714313949862, 7311.099149119753, -46455.753917187925, -35595.64478345451, -21130.579248735816, -22489.565311618488, -9170.652529079023, -10405.675817212561, 0.024, 0.924, 0.46, 192.0, 0.0, 192.0, 28.0, 224.0, 14.0, 96.0, 0.0, 0.0, 0.0, 1.6541737139863305E9, 0.0, 2022-06-02 14:41:53.986
216.0, -15462.176854869946, 7289.999102353943, -46493.39425485066, -35631.38522283855, -21169.09130443231, -22521.349492233934, -9219.848718625155, -10449.932271234069, 0.024, 0.924, 0.46, 192.0, 0.0, 0.0, 0.0, 0.0, 0.0, 0.0, 0.0, 0.0, 0.0, 1.654173713986339E9, 0.0, 2022-06-02 14:41:53.986
217.0, -15467.608328772585, 7283.986483095466, -46503.20667066654, -35638.80600199771, -21174.321612634852, -22534.246448784645, -9227.805939651244, -10478.140172736666, 0.024, 0.924, 0.46, 192.0, 0.0, 0.0, 0.0, 0.0, 0.0, 0.0, 0.0, 0.0, 0.0, 1.6541737139863443E9, 0.0, 2022-06-02 14:41:53.986
218.0, -15433.29840103369, 7325.180748126597, -46450.367146774195, -35581.80905363668, -21114.865972383737, -22477.942404501726, -9167.724450555379, -10415.264715583888, 0.024, 0.924, 0.46, 192.0, 0.0, 0.0, 0.0, 0.0, 0.0, 0.0, 0.0, 0.0, 0.0, 1.6541737139863503E9, 0.0, 2022-06-02 14:41:53.986
219.0, -15404.039967541692, 7355.713231052546, -46411.765684099875, -35549.331968943115, -21079.08082951079, -22443.878345951838, -9141.32704035366, -10379.278407010843, 0.024, 0.924, 0.46, 192.0, 0.0, 0.0, 0.0, 0.0, 0.0, 0.0, 0.0, 0.0, 0.0, 1.654173713986361E9, 0.0, 2022-06-02 14:41:53.986
220.0, -15440.719180192851, 7317.938782923077, -46463.95700740302, -35603.62435622506, -21135.116652860244, -22496.06966925498, -9219.044055824765, -10447.294765388342, 0.024, 0.924, 0.46, 192.0, 0.0, 0.0, 0.0, 0.0, 0.0, 0.0, 0.0, 0.0, 0.0, 1.6541737139863706E9, 0.0, 2022-06-02 14:41:53.986
221.0, -15464.881415949038, 7291.340207021261, -46507.72172304651, -35641.5105630768, -21177.495560347506, -22535.542849963054, -9264.954538935965, -10490.098356020255, 0.024, 0.924, 0.46, 192.0, 0.0, 0.0, 0.0, 0.0, 0.0, 0.0, 0.0, 0.0, 0.0, 1.6541737139863837E9, 0.0, 2022-06-02 14:41:53.986
222.0, -15449.279898319233, 7305.019474627909, -46492.07550192779, -35625.0596791577, -21158.965964194056, -22517.907323587817, -9211.19859352095, -10458.917672505102, 0.024, 0.924, 0.46, 192.0, 0.0, 0.0, 0.0, 0.0, 0.0, 0.0, 0.0, 0.0, 0.0, 1.654173713986392E9, 0.0, 2022-06-02 14:41:53.986
223.0, -15438.171081324946, 7316.530623022392, -46462.68295796907, -35593.789588664724, -21122.46556549854, -22490.012346507592, -9160.594244074136, -10444.59020430925, 0.024, 0.924, 0.46, 192.0, 0.0, 0.0, 0.0, 0.0, 0.0, 0.0, 0.0, 0.0, 0.0, 1.6541737139863975E9, 0.0, 2022-06-02 14:41:53.986
224.0, -15440.138034837013, 7314.6977799770575, -46458.70434745602, -35590.637992696524, -21118.621065452226, -22484.82674179396, -9183.974168774386, -10414.281238827854, 0.024, 0.924, 0.46, 192.0, 0.0, 0.0, 0.0, 0.0, 0.0, 0.0, 0.0, 0.0, 0.0, 1.6541737139864032E9, 0.0, 2022-06-02 14:41:53.986
225.0, -15451.626831487041, 7303.521907749404, -46484.29709485735, -35613.637937741034, -21146.247821598987, -22506.03854728205, -9209.67867489799, -10407.843936424726, 0.024, 0.924, 0.462, 192.0, 0.0, 192.0, 28.0, 224.0, 14.0, 112.0, 0.0, 0.0, 0.0, 1.6541737139864092E9, 0.0, 2022-06-02 14:41:53.986
226.0, -15471.251663118801, 7277.459773714516, -46515.29896441686, -35649.87011550309, -21182.077667960843, -22546.964591379714, -9229.907003630044, -10465.064402230311, 0.024, 0.924, 0.462, 192.0, 0.0, 0.0, 0.0, 0.0, 0.0, 0.0, 0.0, 0.0, 0.0, 1.6541737139864147E9, 0.0, 2022-06-02 14:41:53.986
227.0, -15471.430477074442, 7273.771735879391, -46510.22511842551, -35648.886638747055, -21176.13210393573, -22541.331951776978, -9215.333666245184, -10445.283108387364, 0.024, 0.924, 0.462, 192.0, 0.0, 0.0, 0.0, 0.0, 0.0, 0.0, 0.0, 0.0, 0.0, 1.6541737139864204E9, 0.0, 2022-06-02 14:41:53.986
228.0, -15434.773616167739, 7315.033056143887, -46454.85984740971, -35593.96840262037, -21111.89319037118, -22483.26211968209, -9158.426124861971, -10409.0062271364, 0.024, 0.924, 0.462, 192.0, 0.0, 0.0, 0.0, 0.0, 0.0, 0.0, 0.0, 0.0, 0.0, 1.6541737139864256E9, 0.0, 2022-06-02 14:41:53.986
229.0, -15414.969970580338, 7336.580137798803, -46424.841454606234, -35563.43591969441, -21086.725126114503, -22465.87246249586, -9140.209453130896, -10410.861421926193, 0.024, 0.924, 0.462, 192.0, 0.0, 0.0, 0.0, 0.0, 0.0, 0.0, 0.0, 0.0, 0.0, 1.6541737139864311E9, 0.0, 2022-06-02 14:41:53.986
230.0, -15421.00494158327, 7326.052466160353, -46451.14945783013, -35587.32993451714, -21114.933027617102, -22485.050259238513, -9185.762308330812, -10423.043122654333, 0.024, 0.924, 0.462, 192.0, 0.0, 0.0, 0.0, 0.0, 0.0, 0.0, 0.0, 0.0, 0.0, 1.654173713986437E9, 0.0, 2022-06-02 14:41:53.986
231.0, -15444.921308150448, 7297.7328059354795, -46490.555583304835, -35629.77589723777, -21155.32262984784, -22523.785832379563, -9223.089721571174, -10460.102314961234, 0.024, 0.924, 0.462, 192.0, 0.0, 0.0, 0.0, 0.0, 0.0, 0.0, 0.0, 0.0, 0.0, 1.6541737139864423E9, 0.0, 2022-06-02 14:41:53.986
232.0, -15458.600575757097, 7283.897076117644, -46498.311638630825, -35638.895408975535, -21159.144778149697, -22535.006408096124, -9205.811823107222, -10468.26070168742, 0.024, 0.924, 0.462, 192.0, 0.0, 0.0, 0.0, 0.0, 0.0, 0.0, 0.0, 0.0, 0.0, 1.654173713986448E9, 0.0, 2022-06-02 14:41:53.986
233.0, -15439.512185992264, 7306.897021162155, -46460.93952190156, -35596.04711485471, -21116.52000147343, -22490.21351220769, -9147.876101479067, -10401.607799721694, 0.024, 0.924, 0.462, 192.0, 0.0, 0.0, 0.0, 0.0, 0.0, 0.0, 0.0, 0.0, 0.0, 1.6541737139864533E9, 0.0, 2022-06-02 14:41:53.986
234.0, -15417.786290381706, 7330.500463306959, -46428.350678485716, -35564.397044706, -21087.619195892716, -22455.031866435038, -9121.702208721901, -10345.214348460955, 0.024, 0.924, 0.462, 192.0, 0.0, 0.0, 0.0, 0.0, 0.0, 0.0, 0.0, 0.0, 0.0, 1.6541737139864588E9, 0.0, 2022-06-02 14:41:53.986
235.0, -15436.58410746862, 7311.769701453412, -46459.06197536731, -35599.869263156565, -21124.790146921892, -22491.82283780847, -9171.412488390504, -10418.01398015189, 0.026000000000000002, 0.92, 0.462, 192.0, 0.0, 208.0, 28.0, 192.0, 14.0, 112.0, 0.0, 0.0, 0.0, 1.6541737139864676E9, 0.0, 2022-06-02 14:41:53.986
236.0, -15460.120494380057, 7284.455869729027, -46504.95010673405, -35643.58927531115, -21168.018420698456, -22540.75080642114, -9221.838023881677, -10506.281019005897, 0.026000000000000002, 0.92, 0.462, 192.0, 0.0, 0.0, 0.0, 0.0, 0.0, 0.0, 0.0, 0.0, 0.0, 1.654173713986473E9, 0.0, 2022-06-02 14:41:53.986
237.0, -15443.177872082935, 7298.358654780228, -46491.404949594136, -35625.86434195809, -21153.33332459132, -22522.60118992343, -9213.29965749975, -10458.090657960256, 0.026000000000000002, 0.92, 0.462, 192.0, 0.0, 0.0, 0.0, 0.0, 0.0, 0.0, 0.0, 0.0, 0.0, 1.6541737139864783E9, 0.0, 2022-06-02 14:41:53.986
238.0, -15434.885374890016, 7310.316838063817, -46464.49344926995, -35592.6496496975, -21122.487917242994, -22484.82674179396, -9188.600979876635, -10412.984837649446, 0.026000000000000002, 0.92, 0.462, 192.0, 0.0, 0.0, 0.0, 0.0, 0.0, 0.0, 0.0, 0.0, 0.0, 1.6541737139864836E9, 0.0, 2022-06-02 14:41:53.986
239.0, -15428.157499808967, 7321.6268207582025, -46450.54596072983, -35576.95872508988, -21108.719242658528, -22467.68295379674, -9176.776907059779, -10384.821639635758, 0.026000000000000002, 0.92, 0.462, 192.0, 0.0, 0.0, 0.0, 0.0, 0.0, 0.0, 0.0, 0.0, 0.0, 1.6541737139864893E9, 0.0, 2022-06-02 14:41:53.986
240.0, -15442.261450560267, 7307.6569804736355, -46474.10469938573, -35605.34544054812, -21138.625876739727, -22496.092020999436, -9201.386177705072, -10398.836183409237, 0.026000000000000002, 0.92, 0.462, 192.0, 0.0, 0.0, 0.0, 0.0, 0.0, 0.0, 0.0, 0.0, 0.0, 1.6541737139864943E9, 0.0, 2022-06-02 14:41:53.986
241.0, -15451.783293698229, 7296.369349523706, -46502.04437995487, -35631.92166470548, -21167.32551662034, -22527.3174080035, -9224.073198327207, -10463.209207440521, 0.026000000000000002, 0.92, 0.462, 192.0, 0.0, 0.0, 0.0, 0.0, 0.0, 0.0, 0.0, 0.0, 0.0, 1.6541737139865E9, 0.0, 2022-06-02 14:41:53.986
242.0, -15447.380000040532, 7297.9116198911215, -46504.83834801178, -35630.73702224935, -21168.04077244291, -22529.329065004476, -9240.322916546216, -10479.749498337449, 0.026000000000000002, 0.92, 0.462, 192.0, 0.0, 0.0, 0.0, 0.0, 0.0, 0.0, 0.0, 0.0, 0.0, 1.6541737144667475E9, 0.0, 2022-06-02 14:41:54.466
243.0, -15418.345083993088, 7326.7900737273785, -46460.58189399027, -35581.205556536384, -21120.476260242016, -22479.909358013792, -9197.765195103311, -10434.151939648622, 0.026000000000000002, 0.92, 0.462, 192.0, 0.0, 0.0, 0.0, 0.0, 0.0, 0.0, 0.0, 0.0, 0.0, 1.6541737144669535E9, 0.0, 2022-06-02 14:41:54.466
244.0, -15397.37914769401, 7344.939690225088, -46435.614995433694, -35556.64098938, -21095.710527385538, -22453.891927467816, -9143.226938632362, -10414.214183594488, 0.026000000000000002, 0.92, 0.462, 192.0, 0.0, 0.0, 0.0, 0.0, 0.0, 0.0, 0.0, 0.0, 0.0, 1.654173714466961E9, 0.0, 2022-06-02 14:41:54.466
245.0, -15425.184717796412, 7316.217698600019, -46469.7684609614, -35601.500940501806, -21133.350865048276, -22496.53905588854, -9162.963528986398, -10454.894358503147, 0.03, 0.924, 0.458, 192.0, 0.0, 240.0, 28.0, 224.0, 14.0, 80.0, 0.0, 0.0, 0.0, 1.6541737144669664E9, 0.0, 2022-06-02 14:41:54.466
246.0, -15444.58603198362, 7292.167221566108, -46502.513766588425, -35637.420193841484, -21164.28567937442, -22530.93839060526, -9208.784605119778, -10478.140172736666, 0.03, 0.924, 0.458, 192.0, 0.0, 0.0, 0.0, 0.0, 0.0, 0.0, 0.0, 0.0, 0.0, 1.6541737144669716E9, 0.0, 2022-06-02 14:41:54.466
247.0, -15456.074828633647, 7277.39271848115, -46517.10945571774, -35645.310359634204, -21179.66367955967, -22537.50980347512, -9239.697067701467, -10430.575660535773, 0.03, 0.924, 0.458, 192.0, 0.0, 0.0, 0.0, 0.0, 0.0, 0.0, 0.0, 0.0, 0.0, 1.6541737144669771E9, 0.0, 2022-06-02 14:41:54.466
248.0, -15443.62490697204, 7292.167221566108, -46485.9734756915, -35607.08887661563, -21145.84549019879, -22501.74701234663, -9200.737977115867, -10384.776936146849, 0.03, 0.924, 0.458, 192.0, 0.0, 0.0, 0.0, 0.0, 0.0, 0.0, 0.0, 0.0, 0.0, 1.6541737144669828E9, 0.0, 2022-06-02 14:41:54.466
249.0, -15422.614267184052, 7315.748311966457, -46455.753917187925, -35579.23860302432, -21117.54818171837, -22472.242709665625, -9180.263779194805, -10390.074299582757, 0.03, 0.924, 0.458, 192.0, 0.0, 0.0, 0.0, 0.0, 0.0, 0.0, 0.0, 0.0, 0.0, 1.654173714466988E9, 0.0, 2022-06-02 14:41:54.466
250.0, -15443.177872082935, 7299.722111192002, -46491.65081878314, -35617.66125174299, -21149.086493144812, -22511.53707641805, -9210.7739103763, -10462.650413829138, 0.03, 0.924, 0.458, 192.0, 0.0, 0.0, 0.0, 0.0, 0.0, 0.0, 0.0, 0.0, 0.0, 1.6541737144669936E9, 0.0, 2022-06-02 14:41:54.466
251.0, -15451.112741364568, 7288.836811642267, -46511.27565041491, -35642.1140601771, -21172.75699052298, -22537.062768586013, -9219.11111105813, -10476.709661091527, 0.03, 0.924, 0.458, 192.0, 0.0, 0.0, 0.0, 0.0, 0.0, 0.0, 0.0, 0.0, 0.0, 1.654173714466999E9, 0.0, 2022-06-02 14:41:54.466
252.0, -15439.109854592069, 7296.704625690535, -46505.84417651226, -35637.88958047504, -21169.024249198945, -22532.212440039213, -9187.215171720407, -10444.299631631331, 0.03, 0.924, 0.458, 192.0, 0.0, 0.0, 0.0, 0.0, 0.0, 0.0, 0.0, 0.0, 0.0, 1.6541737144670048E9, 0.0, 2022-06-02 14:41:54.467
253.0, -15413.248886257279, 7328.108826650242, -46464.62755973668, -35588.02283859526, -21125.013664366445, -22483.77620980456, -9146.982031700854, -10398.72442468696, 0.03, 0.924, 0.458, 192.0, 0.0, 0.0, 0.0, 0.0, 0.0, 0.0, 0.0, 0.0, 0.0, 1.6541737144670115E9, 0.0, 2022-06-02 14:41:54.467
254.0, -15398.027348283214, 7346.951347226066, -46431.79284713183, -35553.601152134084, -21095.93404483009, -22451.053255921994, -9135.113255395087, -10379.613683177673, 0.03, 0.924, 0.458, 192.0, 0.0, 0.0, 0.0, 0.0, 0.0, 0.0, 0.0, 0.0, 0.0, 1.6541737144670172E9, 0.0, 2022-06-02 14:41:54.467
255.0, -15416.266371758746, 7320.620992257714, -46461.20774283502, -35589.83332989614, -21127.718225445537, -22485.989032505637, -9191.05967176672, -10429.413369824097, 0.028, 0.916, 0.456, 192.0, 0.0, 224.0, 28.0, 160.0, 14.0, 64.0, 0.0, 0.0, 0.0, 1.654173714467023E9, 0.0, 2022-06-02 14:41:54.467
0.0, -15452.319735565155, 7279.5384859488595, -46514.71781906102, -35642.29287413274, -21180.311880148874, -22536.23575404117, -9243.049829369764, -10484.35395769524, 0.028, 0.916, 0.456, 192.0, 0.0, 0.0, 0.0, 0.0, 0.0, 0.0, 0.0, 0.0, 0.0, 1.6541737144670377E9, 0.0, 2022-06-02 14:41:54.467
1.0, -15432.560793466664, 7297.822212913301, -46493.79658625086, -35622.69039424544, -21164.62095554125, -22515.44863169773, -9217.322971501706, -10449.73110553397, 0.028, 0.916, 0.456, 192.0, 0.0, 0.0, 0.0, 0.0, 0.0, 0.0, 0.0, 0.0, 0.0, 1.654173714467043E9, 0.0, 2022-06-02 14:41:54.467
2.0, -15417.227496770323, 7318.6316870011915, -46452.33410028626, -35582.256088525784, -21125.058367855356, -22475.371953889367, -9162.33768014165, -10403.82062242277, 0.028, 0.916, 0.456, 192.0, 0.0, 0.0, 0.0, 0.0, 0.0, 0.0, 0.0, 0.0, 0.0, 1.6541737144670484E9, 0.0, 2022-06-02 14:41:54.467
3.0, -15405.805755353662, 7332.579175541303, -46429.80354187531, -35562.340684216106, -21101.767850132925, -22453.35548560089, -9122.61863024457, -10373.556360430284, 0.028, 0.916, 0.456, 192.0, 0.0, 0.0, 0.0, 0.0, 0.0, 0.0, 0.0, 0.0, 0.0, 1.654173714467054E9, 0.0, 2022-06-02 14:41:54.467
4.0, -15424.447110229386, 7313.624896243203, -46463.04058588035, -35597.075295099654, -21136.27894357192, -22487.777172062062, -9168.774982544779, -10410.548497503818, 0.028, 0.916, 0.456, 192.0, 0.0, 0.0, 0.0, 0.0, 0.0, 0.0, 0.0, 0.0, 0.0, 1.6541737144670632E9, 0.0, 2022-06-02 14:41:54.467
5.0, -15443.53549999422, 7293.01658785541, -46498.26693514192, -35628.23362687035, -21169.94067072161, -22512.922884574284, -9209.455157453438, -10448.345297377742, 0.028, 0.916, 0.456, 192.0, 0.0, 0.0, 0.0, 0.0, 0.0, 0.0, 0.0, 0.0, 0.0, 1.6541737144670699E9, 0.0, 2022-06-02 14:41:54.467
6.0, -15442.328505793634, 7292.748366921946, -46501.172661921104, -35626.177266380466, -21172.75699052298, -22510.061861284004, -9223.87203262711, -10462.225730684488, 0.028, 0.916, 0.456, 192.0, 0.0, 0.0, 0.0, 0.0, 0.0, 0.0, 0.0, 0.0, 0.0, 1.654173714467075E9, 0.0, 2022-06-02 14:41:54.467
7.0, -15415.327598491622, 7321.492710291471, -46454.72573694298, -35579.596230935604, -21119.537486974896, -22466.654773551796, -9170.898398268033, -10419.086863885745, 0.028, 0.916, 0.456, 192.0, 0.0, 0.0, 0.0, 0.0, 0.0, 0.0, 0.0, 0.0, 0.0, 1.6541737144670806E9, 0.0, 2022-06-02 14:41:54.467
8.0, -15401.62597914052, 7340.983431456499, -46430.652908164615, -35557.155079502474, -21095.50936168544, -22447.901659953794, -9153.464037592894, -10386.38626174763, 0.026000000000000002, 0.924, 0.454, 192.0, 0.0, 208.0, 28.0, 224.0, 14.0, 48.0, 0.0, 0.0, 0.0, 1.6541737144670863E9, 0.0, 2022-06-02 14:41:54.467
9.0, -15414.85821185806, 7327.147701638663, -46458.123202100185, -35588.15694906199, -21130.020455124435, -22480.3563929029, -9190.277360710783, -10402.2560003109, 0.026000000000000002, 0.924, 0.454, 192.0, 0.0, 0.0, 0.0, 0.0, 0.0, 0.0, 0.0, 0.0, 0.0, 1.6541737144670916E9, 0.0, 2022-06-02 14:41:54.467
10.0, -15433.790139411705, 7303.186631582575, -46494.601249051244, -35623.517408790285, -21174.500426590494, -22510.575951406474, -9230.242279796872, -10424.428930810564, 0.026000000000000002, 0.924, 0.454, 192.0, 0.0, 0.0, 0.0, 0.0, 0.0, 0.0, 0.0, 0.0, 0.0, 1.6541737144670968E9, 0.0, 2022-06-02 14:41:54.467
11.0, -15437.992267369304, 7295.028244856388, -46502.20084216605, -35624.67969950196, -21179.082534203833, -22512.654663640817, -9234.690276943478, -10449.082904944768, 0.026000000000000002, 0.924, 0.454, 192.0, 0.0, 0.0, 0.0, 0.0, 0.0, 0.0, 0.0, 0.0, 0.0, 1.6541737144671032E9, 0.0, 2022-06-02 14:41:54.467
12.0, -15419.172098537934, 7315.949477666554, -46466.080423126274, -35583.21721353736, -21132.12151910323, -22476.78011379005, -9164.461095864905, -10422.596087765229, 0.026000000000000002, 0.924, 0.454, 192.0, 0.0, 0.0, 0.0, 0.0, 0.0, 0.0, 0.0, 0.0, 0.0, 1.654173714467111E9, 0.0, 2022-06-02 14:41:54.467
13.0, -15405.917514075938, 7337.273041876918, -46439.034812335354, -35559.41260569246, -21103.667748411626, -22456.752950758095, -9125.166729112474, -10397.495078741918, 0.026000000000000002, 0.924, 0.454, 192.0, 0.0, 0.0, 0.0, 0.0, 0.0, 0.0, 0.0, 0.0, 0.0, 1.6541737144671183E9, 0.0, 2022-06-02 14:41:54.467
14.0, -15407.750357121273, 7334.367315097727, -46456.46917301049, -35578.36688499056, -21124.298408543877, -22474.679049811253, -9149.284261379751, -10417.075206884767, 0.026000000000000002, 0.924, 0.454, 192.0, 0.0, 0.0, 0.0, 0.0, 0.0, 0.0, 0.0, 0.0, 0.0, 1.6541737144671237E9, 0.0, 2022-06-02 14:41:54.467
15.0, -15434.48304348982, 7305.39945428365, -46497.685789786075, -35618.555321521206, -21168.420752098653, -22515.940370075747, -9202.101433527641, -10447.987669466456, 0.026000000000000002, 0.924, 0.454, 192.0, 0.0, 0.0, 0.0, 0.0, 0.0, 0.0, 0.0, 0.0, 0.0, 1.6541737144671292E9, 0.0, 2022-06-02 14:41:54.467
16.0, -15426.771691652739, 7312.775529953901, -46488.78979549286, -35610.799266195216, -21159.882385716723, -22514.21928575269, -9210.081006298185, -10444.769018264893, 0.026000000000000002, 0.924, 0.454, 192.0, 0.0, 0.0, 0.0, 0.0, 0.0, 0.0, 0.0, 0.0, 0.0, 1.6541737144671352E9, 0.0, 2022-06-02 14:41:54.467
17.0, -15408.756185621762, 7335.97664069851, -46455.15042008763, -35569.20266976389, -21117.525829973918, -22471.88508175434, -9171.85952327961, -10414.77297720587, 0.026000000000000002, 0.924, 0.454, 192.0, 0.0, 0.0, 0.0, 0.0, 0.0, 0.0, 0.0, 0.0, 0.0, 1.6541737144671407E9, 0.0, 2022-06-02 14:41:54.467
18.0, -15399.48021167281, 7344.447951847072, -46438.74423965743, -35553.37763468953, -21100.09146929878, -22449.66744776576, -9136.968450184877, -10386.00628209189, 0.032, 0.924, 0.456, 192.0, 1.0, 0.0, 28.0, 224.0, 14.0, 64.0, 0.0, 0.0, 0.0, 1.654173714467146E9, 0.0, 2022-06-02 14:41:54.467
19.0, -15408.420909454931, 7333.361486597239, -46462.50414401342, -35583.95482110439, -21120.967998620035, -22474.433180622244, -9148.278432879262, -10404.133546845145, 0.032, 0.924, 0.456, 192.0, 0.0, 0.0, 0.0, 0.0, 0.0, 0.0, 0.0, 0.0, 0.0, 1.6541737144671514E9, 0.0, 2022-06-02 14:41:54.467
20.0, -15434.371284767543, 7300.996160625954, -46511.320353903815, -35632.05577517221, -21169.493635832507, -22520.634236411363, -9202.235543994373, -10442.287974630353, 0.032, 0.924, 0.456, 192.0, 0.0, 0.0, 0.0, 0.0, 0.0, 0.0, 0.0, 0.0, 0.0, 1.654173714467157E9, 0.0, 2022-06-02 14:41:54.467
21.0, -15441.546194737697, 7292.3907390106615, -46515.63424058369, -35632.56986529468, -21174.2992608904, -22525.059881813515, -9214.618410422612, -10450.11108518971, 0.032, 0.924, 0.456, 192.0, 0.0, 0.0, 0.0, 0.0, 0.0, 0.0, 0.0, 0.0, 0.0, 1.6541737144671624E9, 0.0, 2022-06-02 14:41:54.467
22.0, -15417.205145025868, 7320.822157957811, -46468.09208012725, -35579.37271349105, -21125.840678911292, -22471.572157331964, -9165.981014487865, -10406.43577652404, 0.032, 0.924, 0.456, 192.0, 0.0, 0.0, 0.0, 0.0, 0.0, 0.0, 0.0, 0.0, 0.0, 1.6541737144671707E9, 0.0, 2022-06-02 14:41:54.467
23.0, -15392.797040080672, 7349.164169927141, -46436.82198963428, -35545.01808226325, -21093.810629106836, -22439.63151450533, -9142.33286885415, -10368.616624905662, 0.032, 0.924, 0.456, 192.0, 0.0, 0.0, 0.0, 0.0, 0.0, 0.0, 0.0, 0.0, 0.0, 1.654173714467176E9, 0.0, 2022-06-02 14:41:54.467
24.0, -15431.756130666272, 7311.903811920144, -46491.8743362277, -35601.702106201905, -21153.176862380133, -22495.801448321516, -9195.038282279764, -10425.859442455703, 0.032, 0.924, 0.456, 192.0, 0.0, 0.0, 0.0, 0.0, 0.0, 0.0, 0.0, 0.0, 0.0, 1.6541737144671814E9, 0.0, 2022-06-02 14:41:54.467
25.0, -15446.262412817767, 7292.614256455214, -46526.89951978916, -35637.062565930195, -21186.23509242953, -22535.386387751867, -9219.915773858522, -10480.1741814821, 0.032, 0.924, 0.456, 192.0, 0.0, 0.0, 0.0, 0.0, 0.0, 0.0, 0.0, 0.0, 0.0, 1.6541737144671867E9, 0.0, 2022-06-02 14:41:54.467
26.0, -15437.947563880392, 7295.5646867233145, -46524.06084824334, -35633.97802519536, -21179.01547897047, -22534.157041806822, -9238.959460134443, -10471.948739522546, 0.032, 0.924, 0.456, 192.0, 0.0, 0.0, 0.0, 0.0, 0.0, 0.0, 0.0, 0.0, 0.0, 1.6541737144671924E9, 0.0, 2022-06-02 14:41:54.467
27.0, -15421.228459027823, 7313.043750887365, -46491.78492924988, -35595.24245205432, -21142.22450759703, -22492.538093631043, -9208.382273719582, -10414.460052783495, 0.032, 0.924, 0.456, 192.0, 0.0, 0.0, 0.0, 0.0, 0.0, 0.0, 0.0, 0.0, 0.0, 1.6541737144671977E9, 0.0, 2022-06-02 14:41:54.467
28.0, -15402.788269852195, 7333.897928464166, -46458.92786490058, -35562.45244293838, -21111.982597349, -22458.67520078125, -9159.00727021781, -10373.48930519692, 0.028, 0.926, 0.462, 192.0, 0.0, 224.0, 28.0, 240.0, 14.0, 112.0, 0.0, 0.0, 0.0, 1.6541737144672036E9, 0.0, 2022-06-02 14:41:54.467
29.0, -15423.687150917907, 7311.389721797672, -46489.505051315435, -35603.579652736145, -21144.95142042058, -22502.50697165811, -9180.219075705896, -10431.53678554735, 0.028, 0.926, 0.462, 192.0, 0.0, 0.0, 0.0, 0.0, 0.0, 0.0, 0.0, 0.0, 0.0, 1.654173714467209E9, 0.0, 2022-06-02 14:41:54.467
30.0, -15439.62394471454, 7290.9825791099765, -46517.10945571774, -35641.555266565716, -21176.176807424643, -22543.99180936716, -9222.39681749306, -10498.547315424361, 0.028, 0.926, 0.462, 192.0, 0.0, 0.0, 0.0, 0.0, 0.0, 0.0, 0.0, 0.0, 0.0, 1.6541737144672155E9, 0.0, 2022-06-02 14:41:54.467
31.0, -15432.001999855282, 7298.313951291318, -46511.20859518154, -35636.19084789644, -21170.052429443887, -22532.972399350692, -9225.973096605909, -10484.823344328803, 0.028, 0.926, 0.462, 192.0, 0.0, 0.0, 0.0, 0.0, 0.0, 0.0, 0.0, 0.0, 0.0, 1.654173714467221E9, 0.0, 2022-06-02 14:41:54.467
32.0, -15410.544325178185, 7322.3867800696835, -46471.04251039535, -35591.487358985825, -21131.69683595858, -22486.50312262811, -9193.697177612446, -10411.800195193315, 0.028, 0.926, 0.462, 192.0, 0.0, 0.0, 0.0, 0.0, 0.0, 0.0, 0.0, 0.0, 0.0, 1.6541737144672265E9, 0.0, 2022-06-02 14:41:54.467
33.0, -15394.51812440373, 7341.78809425689, -46438.09603906823, -35564.1958790059, -21104.60652167875, -22458.384628103333, -9169.28907266725, -10373.019918563357, 0.028, 0.926, 0.462, 192.0, 0.0, 0.0, 0.0, 0.0, 0.0, 0.0, 0.0, 0.0, 0.0, 1.6541737144672315E9, 0.0, 2022-06-02 14:41:54.467
34.0, -15421.899011361482, 7318.385817812183, -46470.997806906445, -35605.32308880366, -21142.246859341485, -22495.287358199046, -9191.193782233451, -10399.640846209628, 0.028, 0.926, 0.462, 192.0, 0.0, 0.0, 0.0, 0.0, 0.0, 0.0, 0.0, 0.0, 0.0, 1.6541737144672372E9, 0.0, 2022-06-02 14:41:54.467
35.0, -15445.949488395392, 7290.423785498594, -46505.68771430108, -35646.67381604598, -21180.066010959865, -22531.810108639016, -9202.168488761006, -10433.369628592685, 0.028, 0.926, 0.462, 192.0, 0.0, 0.0, 0.0, 0.0, 0.0, 0.0, 0.0, 0.0, 0.0, 1.6541737144672427E9, 0.0, 2022-06-02 14:41:54.467
36.0, -15429.342142265099, 7302.292561804362, -46486.353455347235, -35630.60291178261, -21163.9951066965, -22513.526381674576, -9189.450346165937, -10413.945962661024, 0.028, 0.926, 0.462, 192.0, 0.0, 0.0, 0.0, 0.0, 0.0, 0.0, 0.0, 0.0, 0.0, 1.6541737144672482E9, 0.0, 2022-06-02 14:41:54.467
37.0, -15413.807679868662, 7319.548108523859, -46450.03187060737, -35594.37073402056, -21132.590905736794, -22470.096942197913, -9179.414412905504, -10383.77110764636, 0.028, 0.926, 0.462, 192.0, 0.0, 0.0, 0.0, 0.0, 0.0, 0.0, 0.0, 0.0, 0.0, 1.6541737144672537E9, 0.0, 2022-06-02 14:41:54.467
38.0, -15396.038043026692, 7339.508216322448, -46424.46147495049, -35573.6953703994, -21109.50155371446, -22442.827813962438, -9176.799258804234, -10371.187075518023, 0.028, 0.924, 0.462, 192.0, 0.0, 224.0, 28.0, 224.0, 14.0, 112.0, 0.0, 0.0, 0.0, 1.654173714467259E9, 0.0, 2022-06-02 14:41:54.467
39.0, -15427.129319564025, 7310.205079341541, -46465.67809172608, -35615.98487090884, -21155.344981592298, -22491.912244786294, -9228.744712918367, -10434.39780883763, 0.028, 0.924, 0.462, 192.0, 0.0, 0.0, 0.0, 0.0, 0.0, 0.0, 0.0, 0.0, 0.0, 1.654173714467265E9, 0.0, 2022-06-02 14:41:54.467
40.0, -15438.662819702962, 7297.084605346276, -46481.03374016687, -35637.487249074846, -21182.368240638763, -22516.11918403139, -9234.667925199023, -10480.26358845992, 0.028, 0.924, 0.462, 192.0, 0.0, 0.0, 0.0, 0.0, 0.0, 0.0, 0.0, 0.0, 0.0, 1.6541737144672704E9, 0.0, 2022-06-02 14:41:54.467
41.0, -15440.003924370281, 7294.469451245004, -46479.60322852174, -35642.58344681066, -21183.821104028357, -22519.36018697741, -9207.599962663648, -10463.566835351807, 0.028, 0.924, 0.462, 192.0, 0.0, 0.0, 0.0, 0.0, 0.0, 0.0, 0.0, 0.0, 0.0, 1.6541737144672763E9, 0.0, 2022-06-02 14:41:54.467
42.0, -15401.447165184876, 7333.808521486345, -46423.41094296109, -35580.89263211401, -21129.70753070206, -22455.3000873685, -9170.227845934372, -10379.948959344501, 0.028, 0.924, 0.462, 192.0, 0.0, 0.0, 0.0, 0.0, 0.0, 0.0, 0.0, 0.0, 0.0, 1.6541737144672818E9, 0.0, 2022-06-02 14:41:54.467
43.0, -15385.532723132697, 7352.941614740088, -46393.70547457999, -35550.807184077166, -21099.800896620858, -22425.371101542845, -9142.869310721077, -10347.583633373217, 0.028, 0.924, 0.462, 192.0, 0.0, 0.0, 0.0, 0.0, 0.0, 0.0, 0.0, 0.0, 0.0, 1.6541737144672897E9, 0.0, 2022-06-02 14:41:54.467
44.0, -15403.391766952487, 7336.870710476722, -46415.58783240173, -35582.16668154796, -21126.13125158921, -22459.837491492926, -9159.230787662362, -10395.885753141136, 0.028, 0.924, 0.462, 192.0, 0.0, 0.0, 0.0, 0.0, 0.0, 0.0, 0.0, 0.0, 0.0, 1.6541737144672952E9, 0.0, 2022-06-02 14:41:54.467
45.0, -15420.736720649806, 7314.317800321317, -46444.689803682544, -35617.974176165364, -21163.52572006294, -22496.226131466166, -9208.516384186314, -10450.468713100996, 0.028, 0.924, 0.462, 192.0, 0.0, 0.0, 0.0, 0.0, 0.0, 0.0, 0.0, 0.0, 0.0, 1.654173714467301E9, 0.0, 2022-06-02 14:41:54.467
46.0, -15432.001999855282, 7298.515116991415, -46463.88995216965, -35633.30747286171, -21182.77057203896, -22518.89080034385, -9226.509538472836, -10477.134344236178, 0.028, 0.924, 0.462, 192.0, 0.0, 0.0, 0.0, 0.0, 0.0, 0.0, 0.0, 0.0, 0.0, 1.6541737144673069E9, 0.0, 2022-06-02 14:41:54.467
47.0, -15409.538496677698, 7323.303201592351, -46422.20394876051, -35586.257050783286, -21139.60935349576, -22469.336982886434, -9190.322064199694, -10372.86345635217, 0.028, 0.924, 0.462, 192.0, 0.0, 0.0, 0.0, 0.0, 0.0, 0.0, 0.0, 0.0, 0.0, 1.6541737144673123E9, 0.0, 2022-06-02 14:41:54.467
48.0, -15398.273217472222, 7335.462550576038, -46400.18748047203, -35565.626390651036, -21118.889286385693, -22442.581944773432, -9190.187953732962, -10345.23670020541, 0.024, 0.924, 0.46, 192.0, 0.0, 192.0, 28.0, 224.0, 14.0, 96.0, 0.0, 0.0, 0.0, 1.6541737144673178E9, 0.0, 2022-06-02 14:41:54.467
49.0, -15415.059377558158, 7320.285716090884, -46429.80354187531, -35601.769161435266, -21148.482996044517, -22477.4059626348, -9203.129613772586, -10421.657314498105, 0.024, 0.924, 0.46, 192.0, 0.0, 0.0, 0.0, 0.0, 0.0, 0.0, 0.0, 0.0, 0.0, 1.6541737144673233E9, 0.0, 2022-06-02 14:41:54.467
50.0, -15443.826072672138, 7287.316893019306, -46477.68097849858, -35651.1665166815, -21195.19814195611, -22527.3174080035, -9242.759256691845, -10473.669823845605, 0.024, 0.924, 0.46, 192.0, 0.0, 0.0, 0.0, 0.0, 0.0, 0.0, 0.0, 0.0, 0.0, 1.6541737144673288E9, 0.0, 2022-06-02 14:41:54.467
51.0, -15424.312999762655, 7305.801785683845, -46460.38072829017, -35629.95471119341, -21179.66367955967, -22509.190143250245, -9224.49788147186, -10447.518282832896, 0.024, 0.924, 0.46, 192.0, 0.0, 0.0, 0.0, 0.0, 0.0, 0.0, 0.0, 0.0, 0.0, 1.654173714467334E9, 0.0, 2022-06-02 14:41:54.467
52.0, -15394.272255214722, 7341.497521578971, -46412.99503004492, -35575.30469600018, -21129.685178957603, -22455.903584468793, -9169.825514534177, -10399.104404342701, 0.024, 0.924, 0.46, 192.0, 0.0, 0.0, 0.0, 0.0, 0.0, 0.0, 0.0, 0.0, 0.0, 1.6541737144673395E9, 0.0, 2022-06-02 14:41:54.467
53.0, -15383.297548687167, 7354.796809529878, -46391.26913443436, -35552.550620144684, -21108.51807695843, -22431.24961033459, -9147.362011356594, -10364.503903925885, 0.024, 0.924, 0.46, 192.0, 0.0, 0.0, 0.0, 0.0, 0.0, 0.0, 0.0, 0.0, 0.0, 1.6541737144673452E9, 0.0, 2022-06-02 14:41:54.467
54.0, -15395.747470348773, 7341.743390767979, -46412.972678300466, -35583.91011761548, -21129.640475468696, -22467.615898563374, -9157.755572528313, -10421.120872631178, 0.024, 0.924, 0.46, 192.0, 0.0, 0.0, 0.0, 0.0, 0.0, 0.0, 0.0, 0.0, 0.0, 1.6541737144673505E9, 0.0, 2022-06-02 14:41:54.467
55.0, -15420.021464827236, 7316.7541404669455, -46451.685899697055, -35628.99358618183, -21169.873615488246, -22514.88983808635, -9209.499860942347, -10491.104184520744, 0.024, 0.924, 0.46, 192.0, 0.0, 0.0, 0.0, 0.0, 0.0, 0.0, 0.0, 0.0, 0.0, 1.654173714467356E9, 0.0, 2022-06-02 14:41:54.467
56.0, -15425.922325363437, 7304.415977527617, -46467.33212081577, -35640.281217131764, -21184.62576682875, -22511.917056073795, -9226.01780009482, -10470.361765666219, 0.024, 0.924, 0.46, 192.0, 0.0, 0.0, 0.0, 0.0, 0.0, 0.0, 0.0, 0.0, 0.0, 1.6541737144673617E9, 0.0, 2022-06-02 14:41:54.467
57.0, -15390.830086568605, 7336.69189652108, -46421.08636153774, -35588.11224557307, -21133.954362148568, -22448.77337798755, -9184.689424596956, -10378.272578510354, 0.024, 0.924, 0.46, 192.0, 0.0, 0.0, 0.0, 0.0, 0.0, 0.0, 0.0, 0.0, 0.0, 1.6541737144673667E9, 0.0, 2022-06-02 14:41:54.467
58.0, -15389.444278412377, 7340.961079712043, -46407.11652125318, -35572.063693054166, -21121.07975734231, -22435.71995922565, -9170.943101756942, -10344.38733391611, 0.026000000000000002, 0.916, 0.454, 192.0, 0.0, 208.0, 28.0, 160.0, 14.0, 48.0, 0.0, 0.0, 0.0, 1.6541737144673724E9, 0.0, 2022-06-02 14:41:54.467
59.0, -15407.48213618781, 7322.140910880675, -46434.31859425528, -35598.28228930024, -21149.310010589365, -22473.583814332942, -9189.96443628841, -10398.34444503122, 0.026000000000000002, 0.916, 0.454, 192.0, 0.0, 0.0, 0.0, 0.0, 0.0, 0.0, 0.0, 0.0, 0.0, 1.654173714467378E9, 0.0, 2022-06-02 14:41:54.467
60.0, -15434.170119067447, 7294.245933800452, -46477.74803373194, -35646.24913290133, -21193.14178146622, -22519.516649188598, -9250.492960273381, -10455.140227692154, 0.026000000000000002, 0.916, 0.454, 192.0, 0.0, 0.0, 0.0, 0.0, 0.0, 0.0, 0.0, 0.0, 0.0, 1.654173714467384E9, 0.0, 2022-06-02 14:41:54.467
61.0, -15432.851366144583, 7290.647302943147, -46488.05218792584, -35657.760281295814, -21200.227284458553, -22531.27366677209, -9271.995338439387, -10484.465716417519, 0.026000000000000002, 0.916, 0.454, 192.0, 0.0, 0.0, 0.0, 0.0, 0.0, 0.0, 0.0, 0.0, 0.0, 1.6541737144673913E9, 0.0, 2022-06-02 14:41:54.467
62.0, -15403.503525674765, 7321.425655058105, -46444.62274844918, -35612.52035051827, -21152.841586213304, -22484.64792783832, -9202.928448072487, -10436.49887281643, 0.026000000000000002, 0.916, 0.454, 192.0, 0.0, 0.0, 0.0, 0.0, 0.0, 0.0, 0.0, 0.0, 0.0, 1.6541737144673965E9, 0.0, 2022-06-02 14:41:54.467
63.0, -15398.988473294792, 7331.930974952099, -46424.52853018386, -35591.37560026355, -21135.00489413797, -22463.771398517063, -9151.675898036468, -10393.427061251052, 0.026000000000000002, 0.916, 0.454, 192.0, 0.0, 0.0, 0.0, 0.0, 0.0, 0.0, 0.0, 0.0, 0.0, 1.654173714467402E9, 0.0, 2022-06-02 14:41:54.467
64.0, -15430.996171354793, 7300.68323620358, -46463.30880681382, -35632.90514146151, -21175.036868457424, -22509.570122905985, -9185.53879088626, -10431.425026825074, 0.026000000000000002, 0.916, 0.454, 192.0, 0.0, 0.0, 0.0, 0.0, 0.0, 0.0, 0.0, 0.0, 0.0, 1.65417371446741E9, 0.0, 2022-06-02 14:41:54.467
65.0, -15459.874625191049, 7269.72607013298, -46509.44280736957, -35677.09454024965, -21224.076595792365, -22557.715780462717, -9251.476437029414, -10491.148888009655, 0.026000000000000002, 0.916, 0.454, 192.0, 0.0, 0.0, 0.0, 0.0, 0.0, 0.0, 0.0, 0.0, 0.0, 1.654173714467415E9, 0.0, 2022-06-02 14:41:54.467
66.0, -15444.653087216984, 7282.891247617155, -46496.45644384104, -35664.30934242122, -21210.82201133037, -22547.14340533536, -9243.899195659065, -10513.388873742686, 0.026000000000000002, 0.916, 0.454, 192.0, 0.0, 0.0, 0.0, 0.0, 0.0, 0.0, 0.0, 0.0, 0.0, 1.6541737144674208E9, 0.0, 2022-06-02 14:41:54.467
67.0, -15422.278991017223, 7307.96990489601, -46451.6635479526, -35616.47660928686, -21160.865862472758, -22492.851018053418, -9207.175279518995, -10440.790407751849, 0.026000000000000002, 0.916, 0.454, 192.0, 0.0, 0.0, 0.0, 0.0, 0.0, 0.0, 0.0, 0.0, 0.0, 1.6541737144674263E9, 0.0, 2022-06-02 14:41:54.467
68.0, -15408.331502477111, 7323.303201592351, -46427.12133254067, -35587.97813510634, -21136.90479241667, -22459.189290903723, -9215.780701134288, -10379.85955236668, 0.034, 0.916, 0.452, 192.0, 1.0, 16.0, 28.0, 160.0, 14.0, 32.0, 0.0, 0.0, 0.0, 1.6541737144674315E9, 0.0, 2022-06-02 14:41:54.467
69.0, -15393.62405462552, 7338.211815144041, -46423.589756916735, -35586.79349265021, -21138.2906005729, -22460.239822893123, -9218.82053838021, -10393.71763392897, 0.034, 0.916, 0.452, 192.0, 0.0, 0.0, 0.0, 0.0, 0.0, 0.0, 0.0, 0.0, 0.0, 1.6541737144674373E9, 0.0, 2022-06-02 14:41:54.467
70.0, -15424.022427084736, 7305.108881605731, -46477.81508896531, -35641.59997005462, -21187.24092093002, -22516.186239264756, -9236.947803133466, -10456.861312015213, 0.034, 0.916, 0.452, 192.0, 0.0, 0.0, 0.0, 0.0, 0.0, 0.0, 0.0, 0.0, 0.0, 1.6541737144674428E9, 0.0, 2022-06-02 14:41:54.467
71.0, -15442.842595916105, 7282.667730172602, -46503.4748916, -35664.756377310325, -21207.066918261877, -22537.286286030565, -9235.78551242179, -10479.056594259333, 0.034, 0.916, 0.452, 192.0, 0.0, 0.0, 0.0, 0.0, 0.0, 0.0, 0.0, 0.0, 0.0, 1.6541737144674485E9, 0.0, 2022-06-02 14:41:54.467
72.0, -15427.933982364415, 7296.101128590242, -46456.98326313296, -35621.28223434475, -21161.782283995424, -22495.48852389914, -9193.384253190072, -10452.390963124153, 0.034, 0.916, 0.452, 192.0, 0.0, 0.0, 0.0, 0.0, 0.0, 0.0, 0.0, 0.0, 0.0, 1.654173714467454E9, 0.0, 2022-06-02 14:41:54.467
73.0, -15402.832973341105, 7321.78328296939, -46414.38083820115, -35585.09476007161, -21121.32562653132, -22457.177633902746, -9150.647717791524, -10400.557267732294, 0.034, 0.916, 0.452, 192.0, 0.0, 0.0, 0.0, 0.0, 0.0, 0.0, 0.0, 0.0, 0.0, 1.6541737144674597E9, 0.0, 2022-06-02 14:41:54.467
74.0, -15408.487964688298, 7319.771625968412, -46426.71900114048, -35604.47372251436, -21143.006818652968, -22470.2534044091, -9178.900322783033, -10379.032537821835, 0.034, 0.916, 0.452, 192.0, 0.0, 0.0, 0.0, 0.0, 0.0, 0.0, 0.0, 0.0, 0.0, 1.6541737144674652E9, 0.0, 2022-06-02 14:41:54.467
75.0, -15439.847462159094, 7288.881515131178, -46473.16592611861, -35650.78653702576, -21192.51593262147, -22519.40489046632, -9235.673753699512, -10436.632983283162, 0.034, 0.916, 0.452, 192.0, 0.0, 0.0, 0.0, 0.0, 0.0, 0.0, 0.0, 0.0, 0.0, 1.6541737144674706E9, 0.0, 2022-06-02 14:41:54.467
76.0, -15443.311982549667, 7283.159468550619, -46482.933638445575, -35659.54842085224, -21196.0028047565, -22530.156079549324, -9235.405532766048, -10475.435611657575, 0.034, 0.916, 0.452, 192.0, 0.0, 0.0, 0.0, 0.0, 0.0, 0.0, 0.0, 0.0, 0.0, 1.654173714467476E9, 0.0, 2022-06-02 14:41:54.467
77.0, -15417.38395898151, 7307.187593840074, -46443.75103041542, -35615.85076044211, -21149.42176931164, -22482.435105137243, -9164.48344760936, -10429.25690761291, 0.034, 0.916, 0.452, 192.0, 0.0, 0.0, 0.0, 0.0, 0.0, 0.0, 0.0, 0.0, 0.0, 1.654173714467482E9, 0.0, 2022-06-02 14:41:54.467
78.0, -15385.778592321705, 7339.754085511457, -46399.13694848263, -35573.20363202139, -21102.483105955496, -22439.96679067216, -9119.645848232014, -10385.268674524865, 0.028, 0.918, 0.448, 192.0, 0.0, 224.0, 28.0, 176.0, 14.0, 0.0, 0.0, 0.0, 0.0, 1.6541737144674876E9, 0.0, 2022-06-02 14:41:54.467
79.0, -15415.864040358549, 7308.372236296205, -46446.27677753887, -35622.891559945536, -21148.684161744615, -22488.291262184535, -9175.033470992264, -10421.992590664935, 0.028, 0.918, 0.448, 192.0, 0.0, 0.0, 0.0, 0.0, 0.0, 0.0, 0.0, 0.0, 0.0, 1.654173714467493E9, 0.0, 2022-06-02 14:41:54.467
80.0, -15442.619078471553, 7278.82323012629, -46486.86754546971, -35664.06347323221, -21191.465400632074, -22527.36211149241, -9228.610602451636, -10473.826286056792, 0.028, 0.918, 0.448, 192.0, 0.0, 0.0, 0.0, 0.0, 0.0, 0.0, 0.0, 0.0, 0.0, 1.6541737144674983E9, 0.0, 2022-06-02 14:41:54.467
81.0, -15432.67255218894, 7284.724090662491, -46479.96085643302, -35658.16261269601, -21187.889121519223, -22523.02587306808, -9233.818558909721, -10482.610521627728, 0.028, 0.918, 0.448, 192.0, 0.0, 0.0, 0.0, 0.0, 0.0, 0.0, 0.0, 0.0, 0.0, 1.654173714467504E9, 0.0, 2022-06-02 14:41:54.467
82.0, -15406.208086753857, 7311.8814601756885, -46440.53237921386, -35612.453295284904, -21149.42176931164, -22478.724715557662, -9198.279285225784, -10406.68164571305, 0.028, 0.918, 0.448, 192.0, 0.0, 0.0, 0.0, 0.0, 0.0, 0.0, 0.0, 0.0, 0.0, 1.654173714467513E9, 0.0, 2022-06-02 14:41:54.467
83.0, -15381.844685297572, 7341.475169834515, -46396.92412578155, -35572.04134130971, -21107.355786246753, -22433.529488269032, -9161.868293508089, -10342.643897848595, 0.028, 0.918, 0.448, 192.0, 0.0, 0.0, 0.0, 0.0, 0.0, 0.0, 0.0, 0.0, 0.0, 1.6541737144675193E9, 0.0, 2022-06-02 14:41:54.467
84.0, -15385.242150454778, 7345.140855925186, -46403.69670435151, -35588.24635603981, -21117.07879508481, -22447.119348897857, -9167.836209277655, -10384.195790791011, 0.028, 0.918, 0.448, 192.0, 0.0, 0.0, 0.0, 0.0, 0.0, 0.0, 0.0, 0.0, 0.0, 1.6541737144675248E9, 0.0, 2022-06-02 14:41:54.467
85.0, -15417.071034559136, 7307.992256640466, -46458.324367800284, -35632.54751355023, -21173.338135878817, -22503.892779814338, -9214.260782511328, -10476.620254113705, 0.028, 0.918, 0.448, 192.0, 0.0, 0.0, 0.0, 0.0, 0.0, 0.0, 0.0, 0.0, 0.0, 1.6541737144675305E9, 0.0, 2022-06-02 14:41:54.467
86.0, -15433.745435922794, 7286.847506385745, -46477.85979245422, -35651.904124248525, -21193.85703728879, -22525.50691670262, -9222.620334937614, -10478.207227970031, 0.028, 0.918, 0.448, 192.0, 0.0, 0.0, 0.0, 0.0, 0.0, 0.0, 0.0, 0.0, 0.0, 1.6541737144675384E9, 0.0, 2022-06-02 14:41:54.467
87.0, -15423.53068870672, 7303.410149027128, -46449.450725251525, -35621.9080831895, -21161.08937991731, -22492.20281746421, -9190.00913977732, -10424.518337788384, 0.03, 0.918, 0.448, 192.0, 0.0, 240.0, 28.0, 176.0, 14.0, 0.0, 0.0, 0.0, 0.0, 1.6541737144675438E9, 0.0, 2022-06-02 14:41:54.467
88.0, -15400.486040173299, 7326.097169649264, -46421.60045166021, -35590.32506827415, -21128.27701905692, -22465.15720667329, -9168.730279055868, -10403.15007008911, 0.03, 0.918, 0.448, 192.0, 0.0, 0.0, 0.0, 0.0, 0.0, 0.0, 0.0, 0.0, 0.0, 1.654173714467549E9, 0.0, 2022-06-02 14:41:54.467
89.0, -15405.626941398019, 7320.5092335354375, -46434.22918727746, -35602.819693424666, -21142.62683899723, -22474.947270744717, -9187.997482776342, -10398.925590387058, 0.03, 0.918, 0.448, 192.0, 0.0, 0.0, 0.0, 0.0, 0.0, 0.0, 0.0, 0.0, 0.0, 1.6541737144675553E9, 0.0, 2022-06-02 14:41:54.467
90.0, -15418.434490970909, 7301.06321585932, -46469.14261211665, -35641.08587993215, -21183.19525518361, -22512.98993980765, -9250.515312017837, -10453.374439880186, 0.03, 0.918, 0.448, 192.0, 0.0, 0.0, 0.0, 0.0, 0.0, 0.0, 0.0, 0.0, 0.0, 1.6541737144675608E9, 0.0, 2022-06-02 14:41:54.467
91.0, -15410.007883311258, 7305.332399050284, -46469.88021968368, -35638.64953978652, -21181.496522605004, -22510.799468851026, -9243.139236347584, -10462.40454464013, 0.03, 0.918, 0.448, 192.0, 0.0, 0.0, 0.0, 0.0, 0.0, 0.0, 0.0, 0.0, 0.0, 1.6541737144675665E9, 0.0, 2022-06-02 14:41:54.467
92.0, -15390.76303133524, 7331.819216229823, -46428.28362325235, -35593.454312497895, -21129.66282721315, -22465.805407262495, -9165.757497043312, -10405.586410234739, 0.03, 0.918, 0.448, 192.0, 0.0, 0.0, 0.0, 0.0, 0.0, 0.0, 0.0, 0.0, 0.0, 1.654173714467572E9, 0.0, 2022-06-02 14:41:54.467
93.0, -15381.218836452823, 7343.64328904668, -46406.177747986054, -35569.29207674171, -21106.774640890915, -22439.497404038597, -9140.298860108716, -10372.706994140983, 0.03, 0.918, 0.448, 192.0, 0.0, 0.0, 0.0, 0.0, 0.0, 0.0, 0.0, 0.0, 0.0, 1.6541737144675784E9, 0.0, 2022-06-02 14:41:54.467
94.0, -15389.824258068116, 7331.908623207644, -46427.18838777404, -35595.1530450765, -21134.55785924886, -22463.749046772606, -9162.069459208185, -10387.77206990386, 0.03, 0.918, 0.448, 192.0, 0.0, 0.0, 0.0, 0.0, 0.0, 0.0, 0.0, 0.0, 0.0, 1.654173714467585E9, 0.0, 2022-06-02 14:41:54.467
95.0, -15405.582237909108, 7313.379027054194, -46461.25244632393, -35633.19571413943, -21172.019382955958, -22501.232922224157, -9206.549430674248, -10456.30251840383, 0.03, 0.918, 0.448, 192.0, 0.0, 0.0, 0.0, 0.0, 0.0, 0.0, 0.0, 0.0, 0.0, 1.6541737144675903E9, 0.0, 2022-06-02 14:41:54.467
96.0, -15398.876714572516, 7319.145777123664, -46457.74322244444, -35629.82060072668, -21168.15253116519, -22497.813105322493, -9193.00427353433, -10466.293748175352, 0.03, 0.918, 0.448, 192.0, 0.0, 0.0, 0.0, 0.0, 0.0, 0.0, 0.0, 0.0, 0.0, 1.654173714467596E9, 0.0, 2022-06-02 14:41:54.467
97.0, -15384.392784165477, 7337.45185583256, -46426.83075986276, -35591.353248519095, -21133.887306915203, -22460.59745080441, -9171.323081412684, -10415.041198139334, 0.024, 0.922, 0.452, 192.0, 0.0, 192.0, 28.0, 208.0, 14.0, 32.0, 0.0, 0.0, 0.0, 1.6541737144676013E9, 0.0, 2022-06-02 14:41:54.467
98.0, -15362.733943788284, 7361.636443333202, -46394.152509469095, -35558.18325974742, -21103.108954800246, -22435.943476670203, -9159.476656851371, -10397.96446537548, 0.024, 0.922, 0.452, 192.0, 0.0, 0.0, 0.0, 0.0, 0.0, 0.0, 0.0, 0.0, 0.0, 1.6541737144676068E9, 0.0, 2022-06-02 14:41:54.467
99.0, -15372.076972970603, 7348.091286193287, -46411.16218699959, -35584.67007692696, -21125.661864955648, -22463.905508983793, -9192.62429387859, -10419.310381330299, 0.024, 0.922, 0.452, 192.0, 0.0, 0.0, 0.0, 0.0, 0.0, 0.0, 0.0, 0.0, 0.0, 1.6541737144676125E9, 0.0, 2022-06-02 14:41:54.467
100.0, -15420.133223549514, 7296.235239056974, -46465.27576032589, -35649.378377125075, -21189.34198490882, -22527.56327719251, -9238.35596303415, -10448.278242144375, 0.024, 0.922, 0.452, 192.0, 0.0, 0.0, 0.0, 0.0, 0.0, 0.0, 0.0, 0.0, 0.0, 1.6541737144676178E9, 0.0, 2022-06-02 14:41:54.467
101.0, -15439.646296458995, 7276.118669047198, -46489.974437949, -35670.50077563534, -21213.14659275372, -22548.350399535942, -9257.399649310071, -10465.109105719222, 0.024, 0.922, 0.452, 192.0, 0.0, 0.0, 0.0, 0.0, 0.0, 0.0, 0.0, 0.0, 0.0, 1.6541737144676232E9, 0.0, 2022-06-02 14:41:54.467
102.0, -15413.405348468466, 7305.287695561373, -46449.182504318065, -35624.277368101764, -21163.883347974224, -22496.673166355275, -9187.505744398326, -10436.811797238803, 0.024, 0.922, 0.452, 192.0, 0.0, 0.0, 0.0, 0.0, 0.0, 0.0, 0.0, 0.0, 0.0, 1.6541737144676287E9, 0.0, 2022-06-02 14:41:54.467
103.0, -15387.320862689123, 7334.92610870911, -46408.27881196485, -35592.694353186416, -21121.66090269815, -22458.33992461442, -9140.991764186832, -10423.870137199181, 0.024, 0.922, 0.452, 192.0, 0.0, 0.0, 0.0, 0.0, 0.0, 0.0, 0.0, 0.0, 0.0, 1.6541737144676344E9, 0.0, 2022-06-02 14:41:54.467
104.0, -15397.557961649652, 7327.080646405298, -46430.09411455323, -35610.66515572848, -21147.454815799574, -22482.34569815942, -9182.163677473507, -10439.091675173244, 0.024, 0.922, 0.452, 192.0, 0.0, 0.0, 0.0, 0.0, 0.0, 0.0, 0.0, 0.0, 0.0, 1.6541737144676397E9, 0.0, 2022-06-02 14:41:54.467
105.0, -15419.462671215853, 7301.510250748426, -46467.421527793595, -35642.22581889937, -21185.51983660696, -22519.270779999588, -9222.888555871077, -10460.750515550437, 0.024, 0.922, 0.452, 192.0, 0.0, 0.0, 0.0, 0.0, 0.0, 0.0, 0.0, 0.0, 0.0, 1.6541737144676454E9, 0.0, 2022-06-02 14:41:54.467
106.0, -15432.739607422307, 7284.053538328832, -46486.353455347235, -35662.9682377539, -21203.602397871306, -22537.062768586013, -9246.514349760337, -10487.349091452252, 0.024, 0.922, 0.452, 192.0, 0.0, 0.0, 0.0, 0.0, 0.0, 0.0, 0.0, 0.0, 0.0, 1.654173714467651E9, 0.0, 2022-06-02 14:41:54.467
107.0, -15404.062319286148, 7312.462605531527, -46441.985242603456, -35614.57671100816, -21154.450911814085, -22481.29516617002, -9199.665093382013, -10450.0663817008, 0.028, 0.922, 0.45, 192.0, 0.0, 224.0, 28.0, 208.0, 14.0, 16.0, 0.0, 0.0, 0.0, 1.6541737149463224E9, 0.0, 2022-06-02 14:41:54.946
108.0, -15387.298510944667, 7331.9533266965545, -46410.782207343844, -35580.95968734738, -21123.89607714368, -22450.829738477438, -9156.392116116538, -10389.560209460284, 0.028, 0.922, 0.45, 192.0, 0.0, 0.0, 0.0, 0.0, 0.0, 0.0, 0.0, 0.0, 0.0, 1.6541737149465208E9, 0.0, 2022-06-02 14:41:54.946
109.0, -15405.537534420197, 7312.775529953901, -46436.0620303228, -35612.52035051827, -21155.27792635893, -22482.882140026348, -9201.743805616356, -10429.748645990927, 0.028, 0.922, 0.45, 192.0, 0.0, 0.0, 0.0, 0.0, 0.0, 0.0, 0.0, 0.0, 0.0, 1.654173714946531E9, 0.0, 2022-06-02 14:41:54.946
110.0, -15417.115738048047, 7295.296465789851, -46468.33794931626, -35641.24234214334, -21187.307976163385, -22503.98218679216, -9240.30056480176, -10425.635925011149, 0.028, 0.922, 0.45, 192.0, 0.0, 0.0, 0.0, 0.0, 0.0, 0.0, 0.0, 0.0, 0.0, 1.65417371494654E9, 0.0, 2022-06-02 14:41:54.946
111.0, -15403.257656485755, 7302.516079248915, -46463.97935914747, -35633.32982460616, -21173.85222600129, -22491.554616875008, -9202.257895738829, -10395.05873859629, 0.028, 0.922, 0.45, 192.0, 0.0, 0.0, 0.0, 0.0, 0.0, 0.0, 0.0, 0.0, 0.0, 1.6541737149465482E9, 0.0, 2022-06-02 14:41:54.946
112.0, -15370.691164814374, 7336.624841287714, -46417.152454513605, -35581.47377746985, -21120.319798030832, -22438.491575538108, -9137.259022862796, -10378.853723866192, 0.028, 0.922, 0.45, 192.0, 0.0, 0.0, 0.0, 0.0, 0.0, 0.0, 0.0, 0.0, 0.0, 1.654173714946555E9, 0.0, 2022-06-02 14:41:54.946
113.0, -15381.062374241636, 7330.813387729334, -46408.837605576235, -35577.96455359037, -21113.569571205328, -22436.368159814854, -9144.61274678859, -10384.419308235563, 0.028, 0.922, 0.45, 192.0, 0.0, 0.0, 0.0, 0.0, 0.0, 0.0, 0.0, 0.0, 0.0, 1.6541737149465618E9, 0.0, 2022-06-02 14:41:54.946
114.0, -15405.895162331482, 7312.239088086973, -46440.9123588696, -35608.94407140542, -21149.086493144812, -22465.53718632903, -9180.889628039555, -10410.01205563689, 0.028, 0.922, 0.45, 192.0, 0.0, 0.0, 0.0, 0.0, 0.0, 0.0, 0.0, 0.0, 0.0, 1.6541737149465768E9, 0.0, 2022-06-02 14:41:54.946
115.0, -15423.865964873548, 7292.167221566108, -46478.57504827679, -35646.24913290133, -21187.397383141208, -22503.803372836515, -9217.814709879722, -10461.845751028748, 0.028, 0.922, 0.45, 192.0, 0.0, 0.0, 0.0, 0.0, 0.0, 0.0, 0.0, 0.0, 0.0, 1.6541737149465895E9, 0.0, 2022-06-02 14:41:54.946
116.0, -15426.1905462969, 7287.2274860414855, -46489.41564433761, -35656.73210105087, -21196.67335709016, -22515.046300297538, -9228.565898962725, -10478.207227970031, 0.028, 0.922, 0.45, 192.0, 0.0, 0.0, 0.0, 0.0, 0.0, 0.0, 0.0, 0.0, 0.0, 1.6541737149466004E9, 0.0, 2022-06-02 14:41:54.946
117.0, -15413.248886257279, 7299.364483280717, -46465.85690568172, -35628.03246117025, -21169.56069106587, -22486.63723309484, -9199.016892792808, -10430.910936702603, 0.026000000000000002, 0.92, 0.452, 192.0, 0.0, 208.0, 28.0, 192.0, 14.0, 32.0, 0.0, 0.0, 0.0, 1.654173714946608E9, 0.0, 2022-06-02 14:41:54.946
118.0, -15381.151781219458, 7330.478111562505, -46423.25448074991, -35581.0490943252, -21127.494708000984, -22438.4468720492, -9167.76915404429, -10367.409630705075, 0.026000000000000002, 0.92, 0.452, 192.0, 0.0, 0.0, 0.0, 0.0, 0.0, 0.0, 0.0, 0.0, 0.0, 1.6541737149466152E9, 0.0, 2022-06-02 14:41:54.946
119.0, -15386.940883033381, 7326.544204538371, -46434.989146588945, -35597.09764684411, -21143.297391330885, -22456.23886063562, -9207.19763126345, -10402.658331711094, 0.026000000000000002, 0.92, 0.452, 192.0, 0.0, 0.0, 0.0, 0.0, 0.0, 0.0, 0.0, 0.0, 0.0, 1.6541737149466245E9, 0.0, 2022-06-02 14:41:54.946
120.0, -15409.292627488689, 7301.286733303873, -46473.992940663455, -35636.72728976337, -21184.33519415083, -22498.908340800805, -9239.58530897919, -10435.291878615843, 0.026000000000000002, 0.92, 0.452, 192.0, 0.0, 0.0, 0.0, 0.0, 0.0, 0.0, 0.0, 0.0, 0.0, 1.6541737149466312E9, 0.0, 2022-06-02 14:41:54.946
121.0, -15409.24792399978, 7295.117651834208, -46486.10758615823, -35645.19860091193, -21190.14664770921, -22515.06865204199, -9219.15581454704, -10447.741800277448, 0.026000000000000002, 0.92, 0.452, 192.0, 0.0, 0.0, 0.0, 0.0, 0.0, 0.0, 0.0, 0.0, 0.0, 1.6541737149466443E9, 0.0, 2022-06-02 14:41:54.946
122.0, -15419.350912493577, 7286.914561619111, -46479.312655843816, -35636.928455463465, -21178.14376093671, -22503.043413525036, -9188.891552554554, -10444.836073498258, 0.026000000000000002, 0.92, 0.452, 192.0, 0.0, 0.0, 0.0, 0.0, 0.0, 0.0, 0.0, 0.0, 0.0, 1.654173714946658E9, 0.0, 2022-06-02 14:41:54.946
123.0, -15398.586141894597, 7309.087492118775, -46440.9123588696, -35603.35613529159, -21137.8882691727, -22461.2009479047, -9149.887758480043, -10394.030558351345, 0.026000000000000002, 0.92, 0.452, 192.0, 0.0, 0.0, 0.0, 0.0, 0.0, 0.0, 0.0, 0.0, 0.0, 1.6541737149466655E9, 0.0, 2022-06-02 14:41:54.946
124.0, -15396.641540126986, 7307.634628729181, -46457.31853929979, -35612.98973715183, -21151.65694375717, -22481.026945236557, -9176.15105821503, -10423.758378476903, 0.026000000000000002, 0.92, 0.452, 192.0, 0.0, 0.0, 0.0, 0.0, 0.0, 0.0, 0.0, 0.0, 0.0, 1.6541737149466743E9, 0.0, 2022-06-02 14:41:54.946
125.0, -15422.86013637306, 7279.314968504306, -46498.26693514192, -35660.420138885995, -21197.969758268566, -22535.118166818404, -9235.383181021594, -10500.51426893643, 0.026000000000000002, 0.92, 0.452, 192.0, 0.0, 0.0, 0.0, 0.0, 0.0, 0.0, 0.0, 0.0, 0.0, 1.6541737149467008E9, 0.0, 2022-06-02 14:41:54.946
126.0, -15437.992267369304, 7263.825209596778, -46514.539005105384, -35679.93321179548, -21219.606246901305, -22548.685675702774, -9272.732946006412, -10506.83981261728, 0.026000000000000002, 0.92, 0.452, 192.0, 0.0, 0.0, 0.0, 0.0, 0.0, 0.0, 0.0, 0.0, 0.0, 1.65417371494671E9, 0.0, 2022-06-02 14:41:54.946
127.0, -15422.167232294945, 7279.96316909351, -46483.93946694607, -35643.656330544516, -21179.909548748677, -22508.921922316782, -9216.563012190225, -10471.814629055814, 0.03, 0.92, 0.452, 192.0, 0.0, 240.0, 28.0, 192.0, 14.0, 32.0, 0.0, 0.0, 0.0, 1.654173714946721E9, 0.0, 2022-06-02 14:41:54.946
128.0, -15400.843668084583, 7307.098186862253, -46447.59553046174, -35605.72542020386, -21141.151623863178, -22466.78888401853, -9173.066517480198, -10413.454224283007, 0.03, 0.92, 0.452, 192.0, 0.0, 0.0, 0.0, 0.0, 0.0, 0.0, 0.0, 0.0, 0.0, 1.6541737149467652E9, 0.0, 2022-06-02 14:41:54.946
129.0, -15391.768859835729, 7317.871727689711, -46447.41671650609, -35607.066524871174, -21142.157452363666, -22469.515796842075, -9182.186029217963, -10419.645657497127, 0.03, 0.92, 0.452, 192.0, 0.0, 0.0, 0.0, 0.0, 0.0, 0.0, 0.0, 0.0, 0.0, 1.6541737149467757E9, 0.0, 2022-06-02 14:41:54.946
130.0, -15419.775595638228, 7286.601637196736, -46494.06480718432, -35653.647560316036, -21189.207874442087, -22514.867486341893, -9213.456119710938, -10449.39582936714, 0.03, 0.92, 0.452, 192.0, 0.0, 0.0, 0.0, 0.0, 0.0, 0.0, 0.0, 0.0, 0.0, 1.6541737149467833E9, 0.0, 2022-06-02 14:41:54.946
131.0, -15419.57442993813, 7286.266361029907, -46497.84225199727, -35651.1665166815, -21192.940615766125, -22510.419489195287, -9212.025608065798, -10430.419198324586, 0.03, 0.92, 0.452, 192.0, 0.0, 0.0, 0.0, 0.0, 0.0, 0.0, 0.0, 0.0, 0.0, 1.65417371494679E9, 0.0, 2022-06-02 14:41:54.946
132.0, -15401.581275651608, 7304.393625783161, -46465.72279521499, -35613.503827274304, -21157.781321737926, -22470.4545701092, -9187.885724054066, -10410.548497503818, 0.03, 0.92, 0.452, 192.0, 0.0, 0.0, 0.0, 0.0, 0.0, 0.0, 0.0, 0.0, 0.0, 1.6541737149467976E9, 0.0, 2022-06-02 14:41:54.946
133.0, -15395.300435459667, 7311.568535753315, -46447.32730952827, -35596.96353637738, -21139.18467035111, -22456.551785057996, -9181.783697817767, -10417.119910373678, 0.03, 0.92, 0.452, 192.0, 0.0, 0.0, 0.0, 0.0, 0.0, 0.0, 0.0, 0.0, 0.0, 1.654173714946804E9, 0.0, 2022-06-02 14:41:54.946
134.0, -15403.950560563871, 7302.963114138021, -46466.86273418221, -35617.773010465266, -21161.111731661767, -22478.30003241301, -9212.96438133292, -10436.677686772071, 0.03, 0.92, 0.452, 192.0, 0.0, 0.0, 0.0, 0.0, 0.0, 0.0, 0.0, 0.0, 0.0, 1.6541737149468105E9, 0.0, 2022-06-02 14:41:54.946
135.0, -15414.791156624695, 7290.8037651543345, -46494.91417347362, -35645.109193934106, -21191.510104120982, -22506.39617519333, -9242.602794480657, -10446.40069561013, 0.03, 0.92, 0.452, 192.0, 0.0, 0.0, 0.0, 0.0, 0.0, 0.0, 0.0, 0.0, 0.0, 1.6541737149468167E9, 0.0, 2022-06-02 14:41:54.946
136.0, -15418.09921480408, 7282.5336197058705, -46507.31939164631, -35656.55328709522, -21203.96002578259, -22519.02491081058, -9240.59113747968, -10460.437591128062, 0.03, 0.92, 0.452, 192.0, 0.0, 0.0, 0.0, 0.0, 0.0, 0.0, 0.0, 0.0, 0.0, 1.6541737149468257E9, 0.0, 2022-06-02 14:41:54.946
137.0, -15408.599723410574, 7293.575381466792, -46480.273780855394, -35631.78755423875, -21177.070877202856, -22496.226131466166, -9198.905134070532, -10456.906015504124, 0.028, 0.926, 0.448, 192.0, 0.0, 224.0, 28.0, 240.0, 14.0, 0.0, 0.0, 0.0, 0.0, 1.6541737149468336E9, 0.0, 2022-06-02 14:41:54.946
138.0, -15377.37433640651, 7327.97471618351, -46431.09994305372, -35584.44655948241, -21125.460699255553, -22452.126139655848, -9137.773112985267, -10394.164668818077, 0.028, 0.926, 0.448, 192.0, 0.0, 0.0, 0.0, 0.0, 0.0, 0.0, 0.0, 0.0, 0.0, 1.654173714946842E9, 0.0, 2022-06-02 14:41:54.946
139.0, -15401.62597914052, 7303.521907749404, -46467.73445221597, -35620.34346107763, -21165.00093519699, -22485.810218549996, -9185.650549608536, -10410.01205563689, 0.028, 0.926, 0.448, 192.0, 0.0, 0.0, 0.0, 0.0, 0.0, 0.0, 0.0, 0.0, 0.0, 1.654173714946849E9, 0.0, 2022-06-02 14:41:54.946
140.0, -15426.883450375015, 7278.331491748273, -46506.53708059038, -35660.688359819454, -21212.744261353524, -22527.920905103794, -9239.78647467929, -10465.511437119418, 0.028, 0.926, 0.448, 192.0, 0.0, 0.0, 0.0, 0.0, 0.0, 0.0, 0.0, 0.0, 0.0, 1.654173714946858E9, 0.0, 2022-06-02 14:41:54.946
141.0, -15417.42866247042, 7285.551105207337, -46497.417568852616, -35658.34142665165, -21210.44203167463, -22524.88106785787, -9238.06539035623, -10498.480260190996, 0.028, 0.926, 0.448, 192.0, 0.0, 0.0, 0.0, 0.0, 0.0, 0.0, 0.0, 0.0, 0.0, 1.654173714946868E9, 0.0, 2022-06-02 14:41:54.946
142.0, -15404.755223364262, 7298.984503624976, -46471.891876684655, -35630.513504804796, -21178.14376093671, -22491.35345117491, -9215.512480200825, -10454.044992213845, 0.028, 0.926, 0.448, 192.0, 0.0, 0.0, 0.0, 0.0, 0.0, 0.0, 0.0, 0.0, 0.0, 1.654173714946876E9, 0.0, 2022-06-02 14:41:54.946
143.0, -15392.260598213745, 7316.5753265113035, -46444.15336181562, -35598.72932418935, -21147.61127801076, -22457.714075769672, -9188.82449732119, -10400.266695054377, 0.028, 0.926, 0.448, 192.0, 0.0, 0.0, 0.0, 0.0, 0.0, 0.0, 0.0, 0.0, 0.0, 1.6541737149468892E9, 0.0, 2022-06-02 14:41:54.946
144.0, -15392.90879880295, 7314.027227643398, -46452.42350726408, -35613.861455185586, -21162.542243306907, -22473.337945143932, -9210.460985953927, -10411.554326004307, 0.028, 0.926, 0.448, 192.0, 0.0, 0.0, 0.0, 0.0, 0.0, 0.0, 0.0, 0.0, 0.0, 1.6541737149468975E9, 0.0, 2022-06-02 14:41:54.946
145.0, -15397.915589560938, 7306.338227550773, -46474.57408601929, -35638.046042686234, -21190.1019442203, -22492.20281746421, -9230.801073408255, -10430.575660535773, 0.028, 0.926, 0.448, 192.0, 0.0, 0.0, 0.0, 0.0, 0.0, 0.0, 0.0, 0.0, 0.0, 1.654173714946907E9, 0.0, 2022-06-02 14:41:54.946
146.0, -15410.544325178185, 7289.529715720381, -46494.265972884416, -35660.15191795253, -21205.39053742773, -22513.325215974477, -9227.627125695602, -10484.912751306623, 0.028, 0.926, 0.448, 192.0, 0.0, 0.0, 0.0, 0.0, 0.0, 0.0, 0.0, 0.0, 0.0, 1.6541737149469163E9, 0.0, 2022-06-02 14:41:54.946
147.0, -15394.987511037292, 7303.477204260494, -46462.39238529115, -35629.5076763043, -21168.46545558756, -22486.234901694646, -9201.810860849722, -10455.900187003635, 0.022, 0.922, 0.454, 192.0, 0.0, 176.0, 28.0, 208.0, 14.0, 48.0, 0.0, 0.0, 0.0, 1.654173714946924E9, 0.0, 2022-06-02 14:41:54.946
