%OpenBCI Raw EEG Data
%Number of channels = 8
%Sample Rate = 250 Hz
%Board = OpenBCI_GUI$BoardCytonSerial
Sample Index, EXG Channel 0, EXG Channel 1, EXG Channel 2, EXG Channel 3, EXG Channel 4, EXG Channel 5, EXG Channel 6, EXG Channel 7, Accel Channel 0, Accel Channel 1, Accel Channel 2, Other, Other, Other, Other, Other, Other, Other, Analog Channel 0, Analog Channel 1, Analog Channel 2, Timestamp, Other, Timestamp (Formatted)
0.0, 0.0, 0.0, 0.0, 0.0, 0.0, 0.0, 0.0, 0.0, -0.012, 0.9500000000000001, 0.378, 192.0, 255.0, 160.0, 29.0, 176.0, 11.0, 208.0, 0.0, 0.0, 0.0, 1.6527782041664393E9, 0.0, 2022-05-17 11:03:24.166
1.0, 5726.673391660856, 14997.126459732826, -39134.30591038536, -23979.55494875371, -9814.5168798586, -4537.068848260504, 2061.1214114572304, -1772.6945010059478, -0.012, 0.9500000000000001, 0.378, 192.0, 0.0, 0.0, 0.0, 0.0, 0.0, 0.0, 0.0, 0.0, 0.0, 1.652778204646652E9, 0.0, 2022-05-17 11:03:24.646
2.0, 5683.333359162016, 15025.06614030196, -39055.67247339159, -23895.601796579576, -9754.390687273823, -4476.339158575435, 2131.8199791693664, -1733.8695208870795, -0.012, 0.9500000000000001, 0.378, 192.0, 0.0, 0.0, 0.0, 0.0, 0.0, 0.0, 0.0, 0.0, 0.0, 1.6527782046468067E9, 0.0, 2022-05-17 11:03:24.646
3.0, 5704.03107452763, 15022.249820500592, -39010.36548738069, -23855.972153660317, -9711.11771000835, -4463.106925857893, 2169.2591511320056, -1794.5992105721486, -0.012, 0.9500000000000001, 0.378, 192.0, 0.0, 0.0, 0.0, 0.0, 0.0, 0.0, 0.0, 0.0, 0.0, 1.652778204646813E9, 0.0, 2022-05-17 11:03:24.646
4.0, 5774.304959095116, 15012.951494807185, -39030.77263006838, -23883.040116195694, -9714.358712954368, -4479.8483824549185, 2163.447697573626, -1852.713746155947, -0.012, 0.9500000000000001, 0.378, 192.0, 0.0, 0.0, 0.0, 0.0, 0.0, 0.0, 0.0, 0.0, 0.0, 1.6527782046468189E9, 0.0, 2022-05-17 11:03:24.646
5.0, 5799.853003007532, 14998.914599289252, -39106.92502342761, -23954.230422285847, -9777.837667207441, -4521.780255053074, 2109.244717269506, -1801.9082310090341, -0.012, 0.9500000000000001, 0.378, 192.0, 0.0, 0.0, 0.0, 0.0, 0.0, 0.0, 0.0, 0.0, 0.0, 1.6527782046468248E9, 0.0, 2022-05-17 11:03:24.646
6.0, 5732.350734752505, 14996.075927743428, -39134.52942782992, -23970.94952713842, -9814.069844969494, -4533.067886003004, 2075.0688999973418, -1714.401151466507, -0.012, 0.9500000000000001, 0.378, 192.0, 0.0, 0.0, 0.0, 0.0, 0.0, 0.0, 0.0, 0.0, 0.0, 1.6527782046468756E9, 0.0, 2022-05-17 11:03:24.646
7.0, 5665.653129297868, 15007.855297071374, -39083.20982256053, -23916.5453811342, -9779.826972463963, -4484.810469723996, 2109.9599730920763, -1712.6130119100824, -0.012, 0.9500000000000001, 0.378, 192.0, 0.0, 0.0, 0.0, 0.0, 0.0, 0.0, 0.0, 0.0, 0.0, 1.6527782046469097E9, 0.0, 2022-05-17 11:03:24.646
8.0, 5687.021396997142, 15008.995236038594, -39032.87369404718, -23877.273366126225, -9729.960230584173, -4450.947576874206, 2137.743191450023, -1818.850853306157, -0.022, 0.964, 0.362, 192.0, 255.0, 80.0, 30.0, 32.0, 11.0, 80.0, 0.0, 0.0, 0.0, 1.652778204646921E9, 0.0, 2022-05-17 11:03:24.646
9.0, 5765.878351435465, 15009.822250583442, -39038.88631330566, -23894.193636678894, -9716.415073444257, -4453.942710631217, 2137.3632117942825, -1893.1704036200529, -0.022, 0.964, 0.362, 192.0, 0.0, 0.0, 0.0, 0.0, 0.0, 0.0, 0.0, 0.0, 0.0, 1.652778204646928E9, 0.0, 2022-05-17 11:03:24.646
10.0, 5786.218438889795, 14992.365538163845, -39113.04940140837, -23954.632753686044, -9777.748260229619, -4496.880411729862, 2095.610153151769, -1830.9654988009333, -0.022, 0.964, 0.362, 192.0, 0.0, 0.0, 0.0, 0.0, 0.0, 0.0, 0.0, 0.0, 0.0, 1.6527782046469333E9, 0.0, 2022-05-17 11:03:24.646
11.0, 5711.451853686793, 14980.720279302632, -39153.573114105835, -23979.59965224262, -9831.683019600276, -4515.074731716482, 2070.799716806378, -1754.433125785962, -0.022, 0.964, 0.362, 192.0, 0.0, 0.0, 0.0, 0.0, 0.0, 0.0, 0.0, 0.0, 0.0, 1.6527782046469388E9, 0.0, 2022-05-17 11:03:24.646
12.0, 5674.12444044643, 15013.934971563218, -39083.388636516174, -23910.35394792008, -9773.054393894005, -4455.440277509722, 2128.6236797122574, -1767.106564892121, -0.022, 0.964, 0.362, 192.0, 0.0, 0.0, 0.0, 0.0, 0.0, 0.0, 0.0, 0.0, 0.0, 1.6527782046469607E9, 0.0, 2022-05-17 11:03:24.646
13.0, 5687.736652819712, 15012.817384340453, -39033.09721149173, -23868.57853753311, -9717.35384671138, -4422.985544560617, 2170.712014521601, -1846.522312941827, -0.022, 0.964, 0.362, 192.0, 0.0, 0.0, 0.0, 0.0, 0.0, 0.0, 0.0, 0.0, 0.0, 1.652778204646966E9, 0.0, 2022-05-17 11:03:24.646
14.0, 5739.905624378398, 15009.106994760872, -39048.095232021245, -23889.812694765653, -9727.278021249536, -4422.717323627153, 2141.6323949852463, -1900.300610101296, -0.022, 0.964, 0.362, 192.0, 0.0, 0.0, 0.0, 0.0, 0.0, 0.0, 0.0, 0.0, 0.0, 1.652778204646992E9, 0.0, 2022-05-17 11:03:24.646
15.0, 5763.978453156764, 14997.260570199558, -39118.145599144176, -23956.622058942565, -9781.771574231574, -4478.12729813186, 2067.9610452605543, -1845.717650141436, -0.022, 0.964, 0.362, 192.0, 0.0, 0.0, 0.0, 0.0, 0.0, 0.0, 0.0, 0.0, 0.0, 1.6527782046469977E9, 0.0, 2022-05-17 11:03:24.646
16.0, 5704.925144305843, 14986.263511927547, -39141.99491047799, -23963.618154957076, -9815.70152231473, -4479.870734199373, 2058.349795144772, -1756.4224310424843, -0.022, 0.964, 0.362, 192.0, 0.0, 0.0, 0.0, 0.0, 0.0, 0.0, 0.0, 0.0, 0.0, 1.652778204647003E9, 0.0, 2022-05-17 11:03:24.647
17.0, 5660.780449006611, 15021.266343744559, -39077.241906790965, -23898.284005914215, -9771.31095782649, -4416.212965990659, 2091.028045538431, -1761.563332267205, -0.028, 0.97, 0.34400000000000003, 192.0, 255.0, 32.0, 30.0, 80.0, 10.0, 192.0, 0.0, 0.0, 0.0, 1.6527782046470084E9, 0.0, 2022-05-17 11:03:24.647
18.0, 5689.949475520787, 15028.418901970257, -39022.34602240873, -23862.029476407704, -9715.498651921589, -4385.613427831344, 2140.6936217181233, -1860.358042759662, -0.028, 0.97, 0.34400000000000003, 192.0, 0.0, 0.0, 0.0, 0.0, 0.0, 0.0, 0.0, 0.0, 0.0, 1.6527782046470137E9, 0.0, 2022-05-17 11:03:24.647
19.0, 5764.7607642126995, 15017.377140209335, -39019.23912992944, -23869.919642200428, -9699.852430802874, -4386.619256331833, 2166.3534243528156, -1927.1450551921196, -0.028, 0.97, 0.34400000000000003, 192.0, 0.0, 0.0, 0.0, 0.0, 0.0, 0.0, 0.0, 0.0, 0.0, 1.652778204647019E9, 0.0, 2022-05-17 11:03:24.647
20.0, 5779.021177175186, 14993.773698064531, -39102.342915814275, -23949.625962928054, -9766.237111835137, -4435.92720460024, 2089.5975338932913, -1882.8662494261564, -0.028, 0.97, 0.34400000000000003, 192.0, 0.0, 0.0, 0.0, 0.0, 0.0, 0.0, 0.0, 0.0, 0.0, 1.6527782046470244E9, 0.0, 2022-05-17 11:03:24.647
21.0, 5710.043693786108, 14982.776639792519, -39149.41568963715, -23987.623928502075, -9825.759807319619, -4445.381992504835, 2041.317765869828, -1789.9723994699002, -0.028, 0.97, 0.34400000000000003, 192.0, 0.0, 0.0, 0.0, 0.0, 0.0, 0.0, 0.0, 0.0, 0.0, 1.6527782046470308E9, 0.0, 2022-05-17 11:03:24.647
22.0, 5648.554044789558, 14983.804820037463, -39098.18549134558, -23941.10994829058, -9797.350740116923, -4402.936029784207, 2079.7627663329563, -1781.7693092548025, -0.028, 0.97, 0.34400000000000003, 192.0, 0.0, 0.0, 0.0, 0.0, 0.0, 0.0, 0.0, 0.0, 0.0, 1.6527782046470509E9, 0.0, 2022-05-17 11:03:24.647
23.0, 5662.300367629572, 14974.39473562178, -39053.92903732408, -23902.26261642726, -9754.211873318181, -4384.048805719472, 2108.6188684247577, -1877.747699945891, -0.028, 0.97, 0.34400000000000003, 192.0, 0.0, 0.0, 0.0, 0.0, 0.0, 0.0, 0.0, 0.0, 0.0, 1.652778204647076E9, 0.0, 2022-05-17 11:03:24.647
24.0, 5728.014496328175, 14976.719317045132, -39054.71134838001, -23913.55024737719, -9749.294489538013, -4386.194573187181, 2085.149536746685, -1945.518189134382, -0.028, 0.97, 0.34400000000000003, 192.0, 0.0, 0.0, 0.0, 0.0, 0.0, 0.0, 0.0, 0.0, 0.0, 1.6527782046471045E9, 0.0, 2022-05-17 11:03:24.647
25.0, 5767.554732269613, 14991.225599196625, -39101.3817908027, -23962.299402034212, -9783.179734132258, -4407.048750763983, 2019.3907045591718, -1880.943999403, -0.028, 0.97, 0.34400000000000003, 192.0, 0.0, 0.0, 0.0, 0.0, 0.0, 0.0, 0.0, 0.0, 0.0, 1.652778204647112E9, 0.0, 2022-05-17 11:03:24.647
26.0, 5719.878461346443, 14997.484087644112, -39121.274843367915, -23978.973803397872, -9810.381807134367, -4410.222698476637, 2030.2983558533617, -1784.362111611618, -0.028, 0.97, 0.34400000000000003, 192.0, 0.0, 0.0, 0.0, 0.0, 0.0, 0.0, 0.0, 0.0, 0.0, 1.6527782046471195E9, 0.0, 2022-05-17 11:03:24.647
27.0, 5638.227538851206, 14992.142020719293, -39083.723912683, -23943.725102391854, -9793.975626704172, -4378.304407394458, 2077.9746267765317, -1794.3756931275957, -0.05, 0.98, 0.336, 192.0, 254.0, 112.0, 30.0, 160.0, 10.0, 128.0, 0.0, 0.0, 0.0, 1.6527782046471276E9, 0.0, 2022-05-17 11:03:24.647
28.0, 5665.8542949979665, 15011.699797117686, -39020.35671715221, -23899.222779181335, -9734.721152153154, -4329.890528904263, 2129.5848047238355, -1888.0295023953322, -0.05, 0.98, 0.336, 192.0, 0.0, 0.0, 0.0, 0.0, 0.0, 0.0, 0.0, 0.0, 0.0, 1.6527782046471343E9, 0.0, 2022-05-17 11:03:24.647
29.0, 5750.075668105563, 15021.467509444656, -39013.8076560268, -23890.17032267694, -9716.772701355541, -4332.080999860883, 2109.3788277362382, -1963.5783986542701, -0.05, 0.98, 0.336, 192.0, 0.0, 0.0, 0.0, 0.0, 0.0, 0.0, 0.0, 0.0, 0.0, 1.652778204647142E9, 0.0, 2022-05-17 11:03:24.647
30.0, 5786.039624934152, 15004.480183658623, -39078.35949401373, -23956.622058942565, -9765.164228101281, -4388.005064488061, 2070.8220685508336, -1919.5454620773153, -0.05, 0.98, 0.336, 192.0, 0.0, 0.0, 0.0, 0.0, 0.0, 0.0, 0.0, 0.0, 0.0, 1.6527782046471498E9, 0.0, 2022-05-17 11:03:24.647
31.0, 5730.584946940536, 15002.53558189101, -39100.95710765805, -23979.867873176085, -9793.483888326155, -4401.572573372433, 2081.640312867202, -1844.9576908299555, -0.05, 0.98, 0.336, 192.0, 0.0, 0.0, 0.0, 0.0, 0.0, 0.0, 0.0, 0.0, 0.0, 1.6527782046471577E9, 0.0, 2022-05-17 11:03:24.647
32.0, 5676.426670125326, 15020.618143155354, -39045.77065059789, -23913.952578777385, -9754.07776285145, -4340.61936624281, 2148.0696973883746, -1791.0899866926654, -0.05, 0.98, 0.336, 192.0, 0.0, 0.0, 0.0, 0.0, 0.0, 0.0, 0.0, 0.0, 0.0, 1.6527782046471655E9, 0.0, 2022-05-17 11:03:24.647
33.0, 5703.785205338622, 15032.151643294294, -38992.931126705545, -23867.416246821434, -9698.667788346744, -4297.346388977336, 2201.7585875700224, -1808.6361060900815, -0.05, 0.98, 0.336, 192.0, 0.0, 0.0, 0.0, 0.0, 0.0, 0.0, 0.0, 0.0, 0.0, 1.652778204647189E9, 0.0, 2022-05-17 11:03:24.647
34.0, 5760.916264166387, 15017.891230331807, -39020.98256599696, -23902.955520505373, -9713.107015264872, -4328.728238192587, 2159.6255492717683, -1874.394938277595, -0.05, 0.98, 0.336, 192.0, 0.0, 0.0, 0.0, 0.0, 0.0, 0.0, 0.0, 0.0, 0.0, 1.652778204647205E9, 0.0, 2022-05-17 11:03:24.647
35.0, 5792.633389548468, 15010.559858150466, -39079.611191703225, -23962.88054739005, -9764.963062401184, -4366.726203766609, 2082.422623923138, -1838.9227198270225, -0.05, 0.98, 0.336, 192.0, 0.0, 0.0, 0.0, 0.0, 0.0, 0.0, 0.0, 0.0, 0.0, 1.6527782046472127E9, 0.0, 2022-05-17 11:03:24.647
36.0, 5734.0047638421975, 14998.735785333609, -39112.7811804749, -23982.50537902181, -9807.856060010918, -4371.241256146581, 2056.762821288445, -1749.180465838965, -0.05, 0.98, 0.336, 192.0, 0.0, 0.0, 0.0, 0.0, 0.0, 0.0, 0.0, 0.0, 0.0, 1.6527782046472404E9, 0.0, 2022-05-17 11:03:24.647
37.0, 5664.356728119461, 15005.486012159112, -39067.653008419635, -23935.857288343585, -9777.010652662595, -4337.71363946362, 2106.1378247902185, -1732.0366778417442, -0.06, 0.97, 0.336, 192.0, 254.0, 32.0, 30.0, 80.0, 10.0, 128.0, 0.0, 0.0, 0.0, 1.6527782046472485E9, 0.0, 2022-05-17 11:03:24.647
38.0, 5676.2478561696835, 15007.408262182267, -39024.29062417634, -23905.257750184268, -9731.770721885052, -4327.275374802992, 2145.968633409576, -1835.6593651365479, -0.06, 0.97, 0.336, 192.0, 0.0, 0.0, 0.0, 0.0, 0.0, 0.0, 0.0, 0.0, 0.0, 1.6527782046472597E9, 0.0, 2022-05-17 11:03:24.647
39.0, 5749.762743683189, 15007.430613926723, -39027.44222014454, -23909.370471164046, -9724.148777025794, -4337.557177252434, 2144.359307808794, -1922.1159126896755, -0.06, 0.97, 0.336, 192.0, 0.0, 0.0, 0.0, 0.0, 0.0, 0.0, 0.0, 0.0, 0.0, 1.6527782046472657E9, 0.0, 2022-05-17 11:03:24.647
40.0, 5782.597456288035, 14996.321796932436, -39094.27393606591, -23979.331431309158, -9782.59858877642, -4367.687328778187, 2075.5606383753584, -1864.2248945504302, -0.06, 0.97, 0.336, 192.0, 0.0, 0.0, 0.0, 0.0, 0.0, 0.0, 0.0, 0.0, 0.0, 1.652778204647271E9, 0.0, 2022-05-17 11:03:24.647
41.0, 5728.617993428468, 14999.607503367366, -39123.532369557906, -24004.141867654547, -9815.008618236616, -4368.782564256498, 2050.4149258631383, -1773.3874050840623, -0.06, 0.97, 0.336, 192.0, 0.0, 0.0, 0.0, 0.0, 0.0, 0.0, 0.0, 0.0, 0.0, 1.6527782046472764E9, 0.0, 2022-05-17 11:03:24.647
42.0, 5680.1817631938175, 15028.798881625997, -39056.29832223634, -23928.145936506506, -9762.817294933475, -4312.255002529026, 2109.200013780596, -1781.9034197215344, -0.06, 0.97, 0.336, 192.0, 0.0, 0.0, 0.0, 0.0, 0.0, 0.0, 0.0, 0.0, 0.0, 1.652778204647282E9, 0.0, 2022-05-17 11:03:24.647
43.0, 5690.016530754153, 15024.775567624041, -39017.249824672916, -23900.92151175994, -9724.104073536882, -4300.296819245436, 2136.8044181829, -1870.9304178870225, -0.06, 0.97, 0.336, 192.0, 0.0, 0.0, 0.0, 0.0, 0.0, 0.0, 0.0, 0.0, 0.0, 1.6527782046472905E9, 0.0, 2022-05-17 11:03:24.647
44.0, 5776.003691673719, 15028.508308948078, -39013.29356590433, -23909.795154308697, -9716.280962977526, -4319.80989215492, 2129.0707146013638, -1906.4696915709605, -0.06, 0.97, 0.336, 192.0, 0.0, 0.0, 0.0, 0.0, 0.0, 0.0, 0.0, 0.0, 0.0, 1.6527782046472957E9, 0.0, 2022-05-17 11:03:24.647
45.0, 5813.264049680716, 15017.06421578696, -39069.59761018725, -23967.97674512586, -9760.31389955448, -4363.440497331679, 2077.214667465051, -1841.6943361394808, -0.06, 0.97, 0.336, 192.0, 0.0, 0.0, 0.0, 0.0, 0.0, 0.0, 0.0, 0.0, 0.0, 1.652778204647316E9, 0.0, 2022-05-17 11:03:24.647
46.0, 5752.780229184656, 15017.243029742604, -39099.884223924186, -23980.113742365094, -9799.831783751462, -4366.167410155226, 2051.2419404079847, -1748.8898931610458, -0.06, 0.97, 0.336, 192.0, 0.0, 0.0, 0.0, 0.0, 0.0, 0.0, 0.0, 0.0, 0.0, 1.652778204647321E9, 0.0, 2022-05-17 11:03:24.647
47.0, 5684.182725451318, 15025.490823446611, -39054.68899663556, -23932.482174930832, -9775.848361950919, -4320.592203210856, 2084.702501857579, -1751.4156402844956, -0.062, 0.972, 0.34400000000000003, 192.0, 254.0, 16.0, 30.0, 96.0, 10.0, 192.0, 0.0, 0.0, 0.0, 1.6527782046473262E9, 0.0, 2022-05-17 11:03:24.647
48.0, 5691.759966821667, 15034.40916948428, -39009.18084492455, -23898.30635765867, -9736.464588220668, -4296.877002343775, 2115.4585022280817, -1845.2929669967853, -0.062, 0.972, 0.34400000000000003, 192.0, 0.0, 0.0, 0.0, 0.0, 0.0, 0.0, 0.0, 0.0, 0.0, 1.6527782046473315E9, 0.0, 2022-05-17 11:03:24.647
49.0, 5754.2554443187055, 15028.508308948078, -39017.56274909529, -23911.35977642057, -9725.378122970835, -4309.684551916665, 2113.111569060274, -1917.1091219316868, -0.062, 0.972, 0.34400000000000003, 192.0, 0.0, 0.0, 0.0, 0.0, 0.0, 0.0, 0.0, 0.0, 0.0, 1.6527782046473365E9, 0.0, 2022-05-17 11:03:24.647
50.0, 5792.543982570646, 15016.594829153399, -39067.69771190855, -23962.478215989857, -9764.270158323068, -4341.960470910129, 2071.1796964621185, -1859.5757317037264, -0.062, 0.972, 0.34400000000000003, 192.0, 0.0, 0.0, 0.0, 0.0, 0.0, 0.0, 0.0, 0.0, 0.0, 1.6527782046473417E9, 0.0, 2022-05-17 11:03:24.647
51.0, 5736.888138876932, 15009.799898838986, -39101.09121812478, -23988.160370369, -9809.152461189326, -4352.912825693229, 2047.1962746615739, -1747.660547216004, -0.062, 0.972, 0.34400000000000003, 192.0, 0.0, 0.0, 0.0, 0.0, 0.0, 0.0, 0.0, 0.0, 0.0, 1.6527782046473467E9, 0.0, 2022-05-17 11:03:24.647
52.0, 5663.663824041346, 15029.73765489312, -39048.966950055, -23939.858250601086, -9769.500466525611, -4307.739950149054, 2114.5867841943245, -1775.108489407121, -0.062, 0.972, 0.34400000000000003, 192.0, 0.0, 0.0, 0.0, 0.0, 0.0, 0.0, 0.0, 0.0, 0.0, 1.652778204647352E9, 0.0, 2022-05-17 11:03:24.647
53.0, 5679.466507371248, 15038.767759653063, -38997.62499304116, -23897.836971025106, -9715.141024010305, -4285.879944071763, 2170.376738354771, -1889.8846971851228, -0.062, 0.972, 0.34400000000000003, 192.0, 0.0, 0.0, 0.0, 0.0, 0.0, 0.0, 0.0, 0.0, 0.0, 1.6527782046473572E9, 0.0, 2022-05-17 11:03:24.647
54.0, 5767.66649099189, 15036.219660785158, -39004.37521986666, -23904.140162961503, -9707.452023917678, -4294.530069175968, 2159.692604505134, -1904.838014225723, -0.062, 0.972, 0.34400000000000003, 192.0, 0.0, 0.0, 0.0, 0.0, 0.0, 0.0, 0.0, 0.0, 0.0, 1.6527782046473625E9, 0.0, 2022-05-17 11:03:24.647
55.0, 5801.685846052867, 15015.790166353008, -39073.956200356035, -23973.519977750777, -9759.375126287357, -4338.071267374905, 2086.3341792028164, -1821.3989521740618, -0.062, 0.972, 0.34400000000000003, 192.0, 0.0, 0.0, 0.0, 0.0, 0.0, 0.0, 0.0, 0.0, 0.0, 1.6527782046473675E9, 0.0, 2022-05-17 11:03:24.647
56.0, 5744.890063391932, 15002.177953979726, -39114.79283747588, -23991.84840820413, -9804.346836131435, -4339.926462164696, 2053.097135197775, -1733.8024656537136, -0.062, 0.972, 0.34400000000000003, 192.0, 0.0, 0.0, 0.0, 0.0, 0.0, 0.0, 0.0, 0.0, 0.0, 1.6527782046473725E9, 0.0, 2022-05-17 11:03:24.647
57.0, 5669.3188153885385, 15019.321741976946, -39067.74241539746, -23932.59393365311, -9773.322614827468, -4291.110252274305, 2083.5625628903585, -1726.9851835948448, -0.064, 0.968, 0.34600000000000003, 192.0, 254.0, 0.0, 30.0, 64.0, 10.0, 208.0, 0.0, 0.0, 0.0, 1.6527782046473775E9, 0.0, 2022-05-17 11:03:24.647
58.0, 5686.261437685662, 15037.918393363761, -39004.62108905567, -23881.274328383726, -9709.77660534103, -4269.183190963649, 2135.284499559939, -1814.6040218596486, -0.064, 0.968, 0.34600000000000003, 192.0, 0.0, 0.0, 0.0, 0.0, 0.0, 0.0, 0.0, 0.0, 0.0, 1.6527782046473827E9, 0.0, 2022-05-17 11:03:24.647
59.0, 5767.66649099189, 15042.679314932742, -38998.519062819374, -23885.543511574688, -9697.259628446058, -4292.205487752615, 2123.70629593209, -1908.0790171717426, -0.064, 0.968, 0.34600000000000003, 192.0, 0.0, 0.0, 0.0, 0.0, 0.0, 0.0, 0.0, 0.0, 0.0, 1.6527782046474092E9, 0.0, 2022-05-17 11:03:24.647
60.0, 5808.994866489753, 15023.278000745537, -39071.51986021041, -23959.12545432156, -9758.369297786869, -4341.133456365283, 2070.732661573012, -1872.2268190654302, -0.064, 0.968, 0.34600000000000003, 192.0, 0.0, 0.0, 0.0, 0.0, 0.0, 0.0, 0.0, 0.0, 0.0, 1.6527782046474147E9, 0.0, 2022-05-17 11:03:24.647
61.0, 5757.809371687099, 15014.15848900777, -39111.55183452986, -23983.444152288932, -9805.55383033202, -4357.494933306567, 2076.9464465315878, -1759.7975444552358, -0.064, 0.968, 0.34600000000000003, 192.0, 0.0, 0.0, 0.0, 0.0, 0.0, 0.0, 0.0, 0.0, 0.0, 1.65277820464742E9, 0.0, 2022-05-17 11:03:24.647
62.0, 5664.759059519656, 15029.558840937478, -39060.20987751602, -23931.766919108264, -9766.259463579592, -4316.412426997713, 2137.094990860819, -1747.0570501157106, -0.064, 0.968, 0.34600000000000003, 192.0, 0.0, 0.0, 0.0, 0.0, 0.0, 0.0, 0.0, 0.0, 0.0, 1.6527782046474254E9, 0.0, 2022-05-17 11:03:24.647
63.0, 5676.31491140305, 15047.507291735088, -38996.99914419641, -23876.178130647913, -9704.00985527156, -4269.362004919291, 2188.638113574757, -1831.7701616013244, -0.064, 0.968, 0.34600000000000003, 192.0, 0.0, 0.0, 0.0, 0.0, 0.0, 0.0, 0.0, 0.0, 0.0, 1.652778204647431E9, 0.0, 2022-05-17 11:03:24.647
64.0, 5764.559598512602, 15051.88823364833, -38995.85920522919, -23878.458008582355, -9689.905904520263, -4270.546647375422, 2187.2299536740725, -1894.0644733982651, -0.064, 0.968, 0.34600000000000003, 192.0, 0.0, 0.0, 0.0, 0.0, 0.0, 0.0, 0.0, 0.0, 0.0, 1.652778204647438E9, 0.0, 2022-05-17 11:03:24.647
65.0, 5819.254317194738, 15061.74535295312, -39050.598627400235, -23924.100270760093, -9727.278021249536, -4300.006246567517, 2121.18054880864, -1827.9033098105563, -0.064, 0.968, 0.34600000000000003, 192.0, 0.0, 0.0, 0.0, 0.0, 0.0, 0.0, 0.0, 0.0, 0.0, 1.652778204647458E9, 0.0, 2022-05-17 11:03:24.647
66.0, 5763.620825245479, 15051.620012714866, -39095.19035758857, -23954.163367052482, -9770.08161188145, -4319.116988076805, 2085.5965716357914, -1730.561462707694, -0.064, 0.968, 0.34600000000000003, 192.0, 0.0, 0.0, 0.0, 0.0, 0.0, 0.0, 0.0, 0.0, 0.0, 1.652778204647463E9, 0.0, 2022-05-17 11:03:24.647
67.0, 5680.919370760843, 15052.581137726444, -39057.460612948016, -23913.17026772145, -9742.946594112705, -4283.242438226037, 2126.790836666922, -1726.4710934723728, -0.058, 0.9560000000000001, 0.34600000000000003, 192.0, 254.0, 48.0, 29.0, 224.0, 10.0, 208.0, 0.0, 0.0, 0.0, 1.6527782046474683E9, 0.0, 2022-05-17 11:03:24.647
68.0, 5698.465490158259, 15067.042716389027, -39005.04577220032, -23860.174281617914, -9690.643512087288, -4238.829521993342, 2171.5837325553575, -1808.233774689886, -0.058, 0.9560000000000001, 0.34600000000000003, 192.0, 0.0, 0.0, 0.0, 0.0, 0.0, 0.0, 0.0, 0.0, 0.0, 1.6527782046474733E9, 0.0, 2022-05-17 11:03:24.647
69.0, 5779.043528919641, 15059.711344207686, -39012.712420548494, -23867.30448809916, -9670.01285195504, -4251.011222721484, 2189.375721141782, -1885.1908308495083, -0.058, 0.9560000000000001, 0.34600000000000003, 192.0, 0.0, 0.0, 0.0, 0.0, 0.0, 0.0, 0.0, 0.0, 0.0, 1.6527782046474783E9, 0.0, 2022-05-17 11:03:24.647
70.0, 5818.092026483063, 15049.697762691709, -39078.38184575819, -23935.16438426547, -9719.074931034438, -4291.110252274305, 2144.292252575428, -1845.784705374802, -0.058, 0.9560000000000001, 0.34600000000000003, 192.0, 0.0, 0.0, 0.0, 0.0, 0.0, 0.0, 0.0, 0.0, 0.0, 1.6527782046474838E9, 0.0, 2022-05-17 11:03:24.647
71.0, 5771.198066615828, 15056.93972789523, -39109.00373566196, -23942.652218657997, -9763.353736800402, -4300.8779646012745, 2108.2388887690176, -1744.2630820587972, -0.058, 0.9560000000000001, 0.34600000000000003, 192.0, 0.0, 0.0, 0.0, 0.0, 0.0, 0.0, 0.0, 0.0, 0.0, 1.652778204647489E9, 0.0, 2022-05-17 11:03:24.647
72.0, 5703.852260571988, 15077.212760116192, -39049.30222622183, -23872.378334090514, -9715.83392808842, -4243.366926117769, 2158.083278904352, -1724.9958783383227, -0.058, 0.9560000000000001, 0.34600000000000003, 192.0, 0.0, 0.0, 0.0, 0.0, 0.0, 0.0, 0.0, 0.0, 0.0, 1.6527782046474943E9, 0.0, 2022-05-17 11:03:24.647
73.0, 5712.6364961429235, 15082.308957852001, -38998.22849014145, -23835.140327827972, -9664.24610188557, -4211.158062357672, 2195.7459683115444, -1809.6419345905704, -0.058, 0.9560000000000001, 0.34600000000000003, 192.0, 0.0, 0.0, 0.0, 0.0, 0.0, 0.0, 0.0, 0.0, 0.0, 1.6527782046474996E9, 0.0, 2022-05-17 11:03:24.647
74.0, 5777.3224445965825, 15069.501408279111, -39012.33244089275, -23857.62618275001, -9670.862218244341, -4244.50686508499, 2157.8150579708886, -1901.7311217464355, -0.058, 0.9560000000000001, 0.34600000000000003, 192.0, 0.0, 0.0, 0.0, 0.0, 0.0, 0.0, 0.0, 0.0, 0.0, 1.6527782046475048E9, 0.0, 2022-05-17 11:03:24.647
75.0, 5807.944334500353, 15049.183672569237, -39082.2263458045, -23933.13037552004, -9732.77655038554, -4297.189926766148, 2080.455670411071, -1867.3541387741732, -0.058, 0.9560000000000001, 0.34600000000000003, 192.0, 0.0, 0.0, 0.0, 0.0, 0.0, 0.0, 0.0, 0.0, 0.0, 1.65277820464751E9, 0.0, 2022-05-17 11:03:24.647
76.0, 5759.664566476889, 15048.960155124683, -39106.522692027414, -23964.5569282242, -9770.103963625905, -4307.1588047932155, 2073.6607400966573, -1780.1823353984757, -0.058, 0.9560000000000001, 0.34600000000000003, 192.0, 0.0, 0.0, 0.0, 0.0, 0.0, 0.0, 0.0, 0.0, 0.0, 1.6527782046475153E9, 0.0, 2022-05-17 11:03:24.647
77.0, 5693.45869940027, 15065.500446021611, -39048.788136099356, -23908.96813976385, -9731.055466062482, -4248.865455253775, 2146.0803921318525, -1765.3631288246072, -0.054, 0.9500000000000001, 0.34400000000000003, 192.0, 254.0, 80.0, 29.0, 176.0, 10.0, 192.0, 0.0, 0.0, 0.0, 1.6527782046475208E9, 0.0, 2022-05-17 11:03:24.647
78.0, 5693.525754633636, 15073.189446114236, -38992.215870882974, -23853.424054792413, -9679.668805559731, -4222.646859007699, 2173.5506860674245, -1859.911007870556, -0.054, 0.9500000000000001, 0.34400000000000003, 192.0, 0.0, 0.0, 0.0, 0.0, 0.0, 0.0, 0.0, 0.0, 0.0, 1.652778204647526E9, 0.0, 2022-05-17 11:03:24.647
79.0, 5757.13881935344, 15068.719097223175, -39006.208062911996, -23878.68152602691, -9683.803878283963, -4249.960690732085, 2151.511866034492, -1954.0118520273986, -0.054, 0.9500000000000001, 0.34400000000000003, 192.0, 0.0, 0.0, 0.0, 0.0, 0.0, 0.0, 0.0, 0.0, 0.0, 1.6527782046475313E9, 0.0, 2022-05-17 11:03:24.647
80.0, 5802.982247231275, 15057.431466273245, -39067.96593284201, -23939.478270945343, -9732.798902129996, -4285.298798715925, 2114.98911559452, -1889.7505867183909, -0.054, 0.9500000000000001, 0.34400000000000003, 192.0, 0.0, 0.0, 0.0, 0.0, 0.0, 0.0, 0.0, 0.0, 0.0, 1.6527782046475365E9, 0.0, 2022-05-17 11:03:24.647
81.0, 5755.99888038622, 15057.02913487305, -39093.71514245452, -23954.968029852873, -9771.31095782649, -4281.186077736149, 2090.22338273804, -1770.3922713270513, -0.054, 0.9500000000000001, 0.34400000000000003, 192.0, 0.0, 0.0, 0.0, 0.0, 0.0, 0.0, 0.0, 0.0, 0.0, 1.6527782046475415E9, 0.0, 2022-05-17 11:03:24.647
82.0, 5700.812423326066, 15089.84149573344, -39029.34211842324, -23885.319994130135, -9729.02145731705, -4213.21442284756, 2143.5546450084025, -1735.143570321032, -0.054, 0.9500000000000001, 0.34400000000000003, 192.0, 0.0, 0.0, 0.0, 0.0, 0.0, 0.0, 0.0, 0.0, 0.0, 1.652778204647549E9, 0.0, 2022-05-17 11:03:24.647
83.0, 5699.203097725284, 15090.333234111456, -38983.87867020115, -23854.16166235944, -9685.860238773852, -4205.614829732755, 2173.8189070008884, -1852.2220077779305, -0.054, 0.9500000000000001, 0.34400000000000003, 192.0, 0.0, 0.0, 0.0, 0.0, 0.0, 0.0, 0.0, 0.0, 0.0, 1.652778204647554E9, 0.0, 2022-05-17 11:03:24.647
84.0, 5768.38174681446, 15092.836629490452, -38977.86605094267, -23868.667944510933, -9673.969110723629, -4211.78391120242, 2162.263055117495, -1961.2314654864629, -0.054, 0.9500000000000001, 0.34400000000000003, 192.0, 0.0, 0.0, 0.0, 0.0, 0.0, 0.0, 0.0, 0.0, 0.0, 1.6527782046475592E9, 0.0, 2022-05-17 11:03:24.647
85.0, 5804.301000154138, 15076.519856038078, -39047.737604109956, -23939.299456989702, -9733.178881785738, -4253.291100655925, 2072.1631732181518, -1887.3142465727624, -0.054, 0.9500000000000001, 0.34400000000000003, 192.0, 0.0, 0.0, 0.0, 0.0, 0.0, 0.0, 0.0, 0.0, 0.0, 1.6527782046475644E9, 0.0, 2022-05-17 11:03:24.647
86.0, 5755.6636042193895, 15081.303129351512, -39081.846366148755, -23955.415064741977, -9778.016481163082, -4267.685624085143, 2027.2808703518954, -1741.9608523799006, -0.054, 0.9500000000000001, 0.34400000000000003, 192.0, 0.0, 0.0, 0.0, 0.0, 0.0, 0.0, 0.0, 0.0, 0.0, 1.6527782046475713E9, 0.0, 2022-05-17 11:03:24.647
87.0, 5691.55880112157, 15105.599475574432, -39020.960214252504, -23894.30539540117, -9743.572442957455, -4204.005504131974, 2117.8501388847994, -1708.9249740749567, -0.06, 0.96, 0.34, 192.0, 254.0, 32.0, 30.0, 0.0, 10.0, 160.0, 0.0, 0.0, 0.0, 1.6527782046475763E9, 0.0, 2022-05-17 11:03:24.647
88.0, 5706.266248973161, 15110.18158318777, -38960.90107690109, -23847.81376693413, -9675.757250280054, -4156.776268097909, 2185.95590424012, -1823.7682370863245, -0.06, 0.96, 0.34, 192.0, 0.0, 0.0, 0.0, 0.0, 0.0, 0.0, 0.0, 0.0, 0.0, 1.6527782046475816E9, 0.0, 2022-05-17 11:03:24.647
89.0, 5772.248598605228, 15085.572312542477, -38975.8990974306, -23865.561052031644, -9678.595921825878, -4180.335006753803, 2159.938473694143, -1895.0032466653881, -0.06, 0.96, 0.34, 192.0, 0.0, 0.0, 0.0, 0.0, 0.0, 0.0, 0.0, 0.0, 0.0, 1.6527782046475868E9, 0.0, 2022-05-17 11:03:24.647
90.0, 5816.773273560199, 15080.27494910657, -39030.593816112734, -23916.657139856477, -9723.813500858963, -4227.519539298956, 2101.309847987872, -1819.1190742396207, -0.06, 0.96, 0.34, 192.0, 0.0, 0.0, 0.0, 0.0, 0.0, 0.0, 0.0, 0.0, 0.0, 1.652778204647592E9, 0.0, 2022-05-17 11:03:24.647
91.0, 5761.586816500047, 15081.79486772953, -39068.837650875765, -23945.736759392832, -9767.913492669284, -4238.762466759976, 2075.4935831419925, -1730.136779563043, -0.06, 0.96, 0.34, 192.0, 0.0, 0.0, 0.0, 0.0, 0.0, 0.0, 0.0, 0.0, 0.0, 1.6527782046475973E9, 0.0, 2022-05-17 11:03:24.647
92.0, 5685.255609185173, 15090.243827133636, -39028.24688294493, -23901.994395493795, -9750.479131994145, -4198.417568018147, 2125.0697523438635, -1723.922994604468, -0.06, 0.96, 0.34, 192.0, 0.0, 0.0, 0.0, 0.0, 0.0, 0.0, 0.0, 0.0, 0.0, 1.6527782046476028E9, 0.0, 2022-05-17 11:03:24.647
93.0, 5694.17395522284, 15093.261312635103, -38975.36265556367, -23856.843871694073, -9693.258666188558, -4170.3884804711915, 2170.9131802216984, -1812.5923648586709, -0.06, 0.96, 0.34, 192.0, 0.0, 0.0, 0.0, 0.0, 0.0, 0.0, 0.0, 0.0, 0.0, 1.6527782046476078E9, 0.0, 2022-05-17 11:03:24.647
94.0, 5770.125182881973, 15101.397347616834, -38962.309236801775, -23853.602868748054, -9671.555122322456, -4168.421526959125, 2173.4389273451484, -1900.0323891678322, -0.06, 0.96, 0.34, 192.0, 0.0, 0.0, 0.0, 0.0, 0.0, 0.0, 0.0, 0.0, 0.0, 1.6527782046476133E9, 0.0, 2022-05-17 11:03:24.647
95.0, 5800.210630918817, 15077.682146749754, -39042.59670288524, -23931.431642941436, -9736.330477753936, -4225.284364853426, 2098.7841008644227, -1881.3016273142848, -0.06, 0.96, 0.34, 192.0, 0.0, 0.0, 0.0, 0.0, 0.0, 0.0, 0.0, 0.0, 0.0, 1.6527782046476183E9, 0.0, 2022-05-17 11:03:24.647
96.0, 5743.414848257881, 15076.519856038078, -39080.68407543708, -23961.003000855806, -9778.374109074368, -4241.869359239264, 2063.4683446250374, -1774.817916729202, -0.06, 0.96, 0.34, 192.0, 0.0, 0.0, 0.0, 0.0, 0.0, 0.0, 0.0, 0.0, 0.0, 1.6527782046476233E9, 0.0, 2022-05-17 11:03:24.647
97.0, 5682.953379506276, 15115.009559990116, -39018.166246195586, -23904.87777052853, -9728.060332305471, -4186.660550434655, 2111.6587056706794, -1733.8024656537136, -0.064, 0.978, 0.342, 192.0, 254.0, 0.0, 30.0, 144.0, 10.0, 176.0, 0.0, 0.0, 0.0, 1.6527782046476288E9, 0.0, 2022-05-17 11:03:24.647
98.0, 5690.374158665438, 15117.55765885802, -38966.287847314816, -23843.365769787524, -9675.489029346589, -4151.747125595466, 2161.19017138364, -1802.0199897313107, -0.064, 0.978, 0.342, 192.0, 0.0, 0.0, 0.0, 0.0, 0.0, 0.0, 0.0, 0.0, 0.0, 1.652778204647634E9, 0.0, 2022-05-17 11:03:24.647
99.0, 5751.863807661987, 15102.246713906135, -38976.94962942, -23855.99450540477, -9673.656186301254, -4169.740279881988, 2157.680947504157, -1899.428892067539, -0.064, 0.978, 0.342, 192.0, 0.0, 0.0, 0.0, 0.0, 0.0, 0.0, 0.0, 0.0, 0.0, 1.6527782046476395E9, 0.0, 2022-05-17 11:03:24.647
100.0, 5799.607133818524, 15093.551885313022, -39042.10496450722, -23922.133317248026, -9721.041884546505, -4206.0171611329515, 2115.5032057169924, -1877.3900720346062, -0.064, 0.978, 0.342, 192.0, 0.0, 0.0, 0.0, 0.0, 0.0, 0.0, 0.0, 0.0, 0.0, 1.6527782046476445E9, 0.0, 2022-05-17 11:03:24.647
101.0, 5767.152400869418, 15095.60824580291, -39076.99603760195, -23948.374265238555, -9761.677355966254, -4223.853853208287, 2087.027083280931, -1763.9102654350122, -0.064, 0.978, 0.342, 192.0, 0.0, 0.0, 0.0, 0.0, 0.0, 0.0, 0.0, 0.0, 0.0, 1.65277820464765E9, 0.0, 2022-05-17 11:03:24.647
102.0, 5690.955304021276, 15127.258315951625, -39026.19052245504, -23886.526988330723, -9731.59190792941, -4172.355433983259, 2130.0765431018526, -1703.7840728502363, -0.064, 0.978, 0.342, 192.0, 0.0, 0.0, 0.0, 0.0, 0.0, 0.0, 0.0, 0.0, 0.0, 1.6527782046476552E9, 0.0, 2022-05-17 11:03:24.647
103.0, 5692.184649966318, 15141.004638791639, -38966.80193743729, -23834.313313283124, -9675.332567135401, -4124.857977015731, 2172.4330988446595, -1784.4738703338946, -0.064, 0.978, 0.342, 192.0, 0.0, 0.0, 0.0, 0.0, 0.0, 0.0, 0.0, 0.0, 0.0, 1.6527782046476605E9, 0.0, 2022-05-17 11:03:24.647
104.0, 5774.774345728677, 15131.885127053873, -38967.0478066263, -23842.024665120207, -9659.932215205696, -4130.758837551933, 2166.8451627308327, -1890.5999530076926, -0.064, 0.978, 0.342, 192.0, 0.0, 0.0, 0.0, 0.0, 0.0, 0.0, 0.0, 0.0, 0.0, 1.6527782046476655E9, 0.0, 2022-05-17 11:03:24.647
105.0, 5825.624564364501, 15106.448841863734, -39046.84353433175, -23918.69114860191, -9718.136157767316, -4192.203783059572, 2108.775330635945, -1862.392051505095, -0.064, 0.978, 0.342, 192.0, 0.0, 0.0, 0.0, 0.0, 0.0, 0.0, 0.0, 0.0, 0.0, 1.6527782046476707E9, 0.0, 2022-05-17 11:03:24.647
106.0, 5777.836534719055, 15112.461461122211, -39080.48290973698, -23936.952523821896, -9752.848416906407, -4192.0473208483845, 2082.9143623011546, -1719.0950178021214, -0.058, 0.968, 0.34600000000000003, 192.0, 254.0, 48.0, 30.0, 64.0, 10.0, 208.0, 0.0, 0.0, 0.0, 1.6527782046476758E9, 0.0, 2022-05-17 11:03:24.647
107.0, 5694.241010456206, 15144.335048715478, -39027.732792822455, -23873.764142246742, -9720.930125824229, -4155.882198319698, 2135.4633135155814, -1661.0922409405996, -0.058, 0.968, 0.34600000000000003, 192.0, 0.0, 0.0, 0.0, 0.0, 0.0, 0.0, 0.0, 0.0, 0.0, 1.652778204647683E9, 0.0, 2022-05-17 11:03:24.647
108.0, 5718.716170634767, 15164.272804769613, -38957.90594314408, -23810.24048450476, -9656.110066903839, -4107.155395407128, 2196.371817156293, -1725.755837649803, -0.058, 0.968, 0.34600000000000003, 192.0, 0.0, 0.0, 0.0, 0.0, 0.0, 0.0, 0.0, 0.0, 0.0, 1.652778204647688E9, 0.0, 2022-05-17 11:03:24.647
109.0, 5789.258276135716, 15143.99977254865, -38976.793167208816, -23837.28609529568, -9655.81949422592, -4142.739372579977, 2176.188191913151, -1835.6817168810032, -0.058, 0.968, 0.34600000000000003, 192.0, 0.0, 0.0, 0.0, 0.0, 0.0, 0.0, 0.0, 0.0, 0.0, 1.6527782046476932E9, 0.0, 2022-05-17 11:03:24.647
110.0, 5833.358267946037, 15137.383656189879, -39041.76968834039, -23893.143104689494, -9702.758157582064, -4180.156192798161, 2122.3651912647715, -1818.7390945838804, -0.058, 0.968, 0.34600000000000003, 192.0, 0.0, 0.0, 0.0, 0.0, 0.0, 0.0, 0.0, 0.0, 0.0, 1.6527782046476984E9, 0.0, 2022-05-17 11:03:24.647
111.0, 5776.584837029557, 15133.382693932379, -39085.623810961704, -23923.78734633772, -9753.653079706799, -4184.961817856052, 2089.329312959828, -1715.0717038001662, -0.058, 0.968, 0.34600000000000003, 192.0, 0.0, 0.0, 0.0, 0.0, 0.0, 0.0, 0.0, 0.0, 0.0, 1.6527782046477036E9, 0.0, 2022-05-17 11:03:24.647
112.0, 5708.993161796709, 15148.626583650897, -39039.713327850506, -23883.01776445124, -9721.243050246603, -4124.410942126625, 2140.42540078466, -1674.078604469133, -0.058, 0.968, 0.34600000000000003, 192.0, 0.0, 0.0, 0.0, 0.0, 0.0, 0.0, 0.0, 0.0, 0.0, 1.652778204647709E9, 0.0, 2022-05-17 11:03:24.647
113.0, 5718.559708423581, 15168.921967616317, -38968.47831827144, -23815.493144451757, -9648.95750867814, -4101.09807265974, 2199.6575235912233, -1734.6294801985598, -0.058, 0.968, 0.34600000000000003, 192.0, 0.0, 0.0, 0.0, 0.0, 0.0, 0.0, 0.0, 0.0, 0.0, 1.652778204647714E9, 0.0, 2022-05-17 11:03:24.647
114.0, 5805.999732732741, 15176.566264220031, -38962.97978913543, -23808.3182344816, -9624.929383388684, -4129.954174751541, 2206.0724742498965, -1829.0432487777769, -0.058, 0.968, 0.34600000000000003, 192.0, 0.0, 0.0, 0.0, 0.0, 0.0, 0.0, 0.0, 0.0, 0.0, 1.6527782046477191E9, 0.0, 2022-05-17 11:03:24.647
115.0, 5833.827654579599, 15138.121263756904, -39057.48296469247, -23893.411325622958, -9701.081776747917, -4198.238754062504, 2120.0629615858747, -1850.813847877246, -0.058, 0.968, 0.34600000000000003, 192.0, 0.0, 0.0, 0.0, 0.0, 0.0, 0.0, 0.0, 0.0, 0.0, 1.652778204647746E9, 0.0, 2022-05-17 11:03:24.647
116.0, 5787.894819723942, 15134.120301499404, -39101.94058441408, -23927.20716323938, -9758.25753906459, -4186.347626012281, 2080.813298322356, -1757.6070734986156, -0.046, 0.9540000000000001, 0.356, 192.0, 254.0, 144.0, 29.0, 208.0, 11.0, 32.0, 0.0, 0.0, 0.0, 1.652778204647751E9, 0.0, 2022-05-17 11:03:24.647
117.0, 5717.9785630677425, 15165.412743736833, -39036.94171153804, -23857.648534494467, -9718.560840911967, -4124.790921782365, 2140.7830286959447, -1692.9434767894122, -0.046, 0.9540000000000001, 0.356, 192.0, 0.0, 0.0, 0.0, 0.0, 0.0, 0.0, 0.0, 0.0, 0.0, 1.6527782046477573E9, 0.0, 2022-05-17 11:03:24.647
118.0, 5712.949420565298, 15174.19697930777, -38981.7999579668, -23805.43485944687, -9659.015793683027, -4086.7259009749773, 2193.0190554879973, -1762.7479747233363, -0.046, 0.9540000000000001, 0.356, 192.0, 0.0, 0.0, 0.0, 0.0, 0.0, 0.0, 0.0, 0.0, 0.0, 1.6527782046477623E9, 0.0, 2022-05-17 11:03:24.647
119.0, 5780.898723709432, 15154.058057553537, -39001.89417623213, -23831.787566159674, -9662.81559024043, -4117.303087389838, 2174.981197712564, -1857.7205369139358, -0.046, 0.9540000000000001, 0.356, 192.0, 0.0, 0.0, 0.0, 0.0, 0.0, 0.0, 0.0, 0.0, 0.0, 1.6527782046477828E9, 0.0, 2022-05-17 11:03:24.647
120.0, 5837.806265092643, 15136.824862578496, -39069.35174099824, -23892.360793633557, -9714.246954232092, -4167.706271136555, 2114.9444121056094, -1837.3357459706958, -0.046, 0.9540000000000001, 0.356, 192.0, 0.0, 0.0, 0.0, 0.0, 0.0, 0.0, 0.0, 0.0, 0.0, 1.652778204647788E9, 0.0, 2022-05-17 11:03:24.647
121.0, 5785.86081097851, 15139.350609701945, -39109.71899148452, -23920.41223292497, -9760.492713510122, -4186.749957412477, 2084.8142605798557, -1769.721718993392, -0.046, 0.9540000000000001, 0.356, 192.0, 0.0, 0.0, 0.0, 0.0, 0.0, 0.0, 0.0, 0.0, 0.0, 1.6527782051260092E9, 0.0, 2022-05-17 11:03:25.126
122.0, 5702.712321604768, 15153.543967431066, -39070.89401136566, -23875.14995040297, -9741.270213278558, -4139.185445211583, 2128.8695489012657, -1748.6216722275822, -0.046, 0.9540000000000001, 0.356, 192.0, 0.0, 0.0, 0.0, 0.0, 0.0, 0.0, 0.0, 0.0, 0.0, 1.6527782051260784E9, 0.0, 2022-05-17 11:03:25.126
123.0, 5732.842473130521, 15189.932607404306, -38985.82327196876, -23794.52720815268, -9660.312194861435, -4068.4421740105363, 2208.1064829953293, -1765.720756735892, -0.046, 0.9540000000000001, 0.356, 192.0, 0.0, 0.0, 0.0, 0.0, 0.0, 0.0, 0.0, 0.0, 0.0, 1.6527782051262336E9, 0.0, 2022-05-17 11:03:25.126
124.0, 5817.2426601937605, 15196.414613296345, -38973.26159158487, -23796.13653375346, -9637.267546328014, -4078.992197393441, 2208.1064829953293, -1797.9072687515343, -0.046, 0.9540000000000001, 0.356, 192.0, 0.0, 0.0, 0.0, 0.0, 0.0, 0.0, 0.0, 0.0, 0.0, 1.6527782051262393E9, 0.0, 2022-05-17 11:03:25.126
125.0, 5846.29992798566, 15165.502150714656, -39052.207953001016, -23881.609604550555, -9703.294599448991, -4129.350677651248, 2130.702391946601, -1784.6303325450817, -0.046, 0.9540000000000001, 0.356, 192.0, 0.0, 0.0, 0.0, 0.0, 0.0, 0.0, 0.0, 0.0, 0.0, 1.6527782051262453E9, 0.0, 2022-05-17 11:03:25.126
126.0, 5788.140688912951, 15141.4740254252, -39116.536273543396, -23931.789270852718, -9769.723983970163, -4167.125125780717, 2078.488716899004, -1711.428369453951, -0.022, 0.9460000000000001, 0.366, 192.0, 255.0, 80.0, 29.0, 144.0, 11.0, 112.0, 0.0, 0.0, 0.0, 1.6527782051262507E9, 0.0, 2022-05-17 11:03:25.126
127.0, 5722.672429403357, 15174.062868841038, -39052.67733963458, -23863.929374686406, -9737.381009743334, -4111.961020465019, 2134.1669123371735, -1682.5722673621497, -0.022, 0.9460000000000001, 0.366, 192.0, 0.0, 0.0, 0.0, 0.0, 0.0, 0.0, 0.0, 0.0, 0.0, 1.6527782051262565E9, 0.0, 2022-05-17 11:03:25.126
128.0, 5743.817179658077, 15206.62936051242, -38971.16052760607, -23793.52137965219, -9666.034241441994, -4052.5053802139023, 2208.9111457957206, -1735.076515087666, -0.022, 0.9460000000000001, 0.366, 192.0, 0.0, 0.0, 0.0, 0.0, 0.0, 0.0, 0.0, 0.0, 0.0, 1.6527782051262708E9, 0.0, 2022-05-17 11:03:25.126
129.0, 5805.820918777099, 15186.28927305809, -38991.880594716145, -23812.945045583852, -9664.693136774677, -4089.2963515873375, 2188.9063345082204, -1835.7934756032796, -0.022, 0.9460000000000001, 0.366, 192.0, 0.0, 0.0, 0.0, 0.0, 0.0, 0.0, 0.0, 0.0, 0.0, 1.6527782051262765E9, 0.0, 2022-05-17 11:03:25.126
130.0, 5857.6322624245, 15171.403011250855, -39060.388691471664, -23877.787456248698, -9713.68816062071, -4132.2340526859825, 2124.287441287928, -1838.0286500488103, -0.022, 0.9460000000000001, 0.366, 192.0, 0.0, 0.0, 0.0, 0.0, 0.0, 0.0, 0.0, 0.0, 0.0, 1.6527782051262815E9, 0.0, 2022-05-17 11:03:25.126
131.0, 5806.446767621847, 15148.291307484069, -39114.45756130905, -23929.15176500699, -9771.98151016015, -4158.832628587798, 2079.963932033054, -1767.5088962923166, -0.022, 0.9460000000000001, 0.366, 192.0, 0.0, 0.0, 0.0, 0.0, 0.0, 0.0, 0.0, 0.0, 0.0, 1.6527782051262872E9, 0.0, 2022-05-17 11:03:25.126
132.0, 5716.145720022407, 15160.361249489933, -39077.26425853542, -23887.19754066438, -9753.563672728977, -4121.795788025354, 2117.8501388847994, -1735.0318115987554, -0.022, 0.9460000000000001, 0.366, 192.0, 0.0, 0.0, 0.0, 0.0, 0.0, 0.0, 0.0, 0.0, 0.0, 1.6527782051262925E9, 0.0, 2022-05-17 11:03:25.126
133.0, 5720.683124146834, 15169.413705994333, -39012.82417927077, -23812.632121161478, -9691.24700918758, -4073.381909535159, 2178.9374564811537, -1781.9257714659896, -0.022, 0.9460000000000001, 0.366, 192.0, 0.0, 0.0, 0.0, 0.0, 0.0, 0.0, 0.0, 0.0, 0.0, 1.6527782051262977E9, 0.0, 2022-05-17 11:03:25.126
134.0, 5804.479814109781, 15153.879243597896, -39016.44516187253, -23828.09952832455, -9679.266474159536, -4097.946476691542, 2169.4603168321037, -1853.227836278419, -0.022, 0.9460000000000001, 0.366, 192.0, 0.0, 0.0, 0.0, 0.0, 0.0, 0.0, 0.0, 0.0, 0.0, 1.6527782051263032E9, 0.0, 2022-05-17 11:03:25.126
135.0, 5848.311584986638, 15137.338952700968, -39081.6228487042, -23898.932206503418, -9727.792111372008, -4155.859846575242, 2104.059112555875, -1830.7643331008355, -0.022, 0.9460000000000001, 0.366, 192.0, 0.0, 0.0, 0.0, 0.0, 0.0, 0.0, 0.0, 0.0, 0.0, 1.6527782051263084E9, 0.0, 2022-05-17 11:03:25.126
136.0, 5803.608096076024, 15146.547871416555, -39116.536273543396, -23924.189677737915, -9773.546132272022, -4160.777230355409, 2075.4265279086267, -1735.8811778880572, 0.016, 0.9400000000000001, 0.35000000000000003, 192.0, 0.0, 128.0, 29.0, 96.0, 10.0, 240.0, 0.0, 0.0, 0.0, 1.6527782051263137E9, 0.0, 2022-05-17 11:03:25.126
137.0, 5725.958135838287, 15176.208636308747, -39060.09811879374, -23860.35309557356, -9741.873710378852, -4101.567459293301, 2127.6849064451344, -1687.9366860314235, 0.016, 0.9400000000000001, 0.35000000000000003, 192.0, 0.0, 0.0, 0.0, 0.0, 0.0, 0.0, 0.0, 0.0, 0.0, 1.6527782051263192E9, 0.0, 2022-05-17 11:03:25.126
138.0, 5728.059199817086, 15196.302854574067, -38996.61916454067, -23805.99365305825, -9677.970072981128, -4061.155505318106, 2185.352407139827, -1753.270835074286, 0.016, 0.9400000000000001, 0.35000000000000003, 192.0, 0.0, 0.0, 0.0, 0.0, 0.0, 0.0, 0.0, 0.0, 0.0, 1.6527782051263247E9, 0.0, 2022-05-17 11:03:25.126
139.0, 5821.310677684627, 15185.059927113049, -38995.68039127355, -23815.984882829773, -9660.803933239453, -4090.615104510201, 2178.4233663586815, -1860.6933189264917, 0.016, 0.9400000000000001, 0.35000000000000003, 192.0, 0.0, 0.0, 0.0, 0.0, 0.0, 0.0, 0.0, 0.0, 0.0, 1.65277820512633E9, 0.0, 2022-05-17 11:03:25.126
140.0, 5849.362116976037, 15142.278688225591, -39082.06988359331, -23906.554151362678, -9730.250803262092, -4165.739317624488, 2097.197127008096, -1875.7583946893687, 0.016, 0.9400000000000001, 0.35000000000000003, 192.0, 0.0, 0.0, 0.0, 0.0, 0.0, 0.0, 0.0, 0.0, 0.0, 1.6527782051263351E9, 0.0, 2022-05-17 11:03:25.126
141.0, 5797.416662861903, 15135.461406166722, -39130.863741739246, -23940.21587851237, -9782.106850398404, -4168.06389904784, 2054.751164287468, -1766.7042334919256, 0.016, 0.9400000000000001, 0.35000000000000003, 192.0, 0.0, 0.0, 0.0, 0.0, 0.0, 0.0, 0.0, 0.0, 0.0, 1.6527782051263404E9, 0.0, 2022-05-17 11:03:25.126
142.0, 5720.5043101911915, 15162.842293124473, -39083.85802314973, -23882.637784795497, -9753.988355873627, -4122.913375248119, 2098.1806037641295, -1698.9560960478898, 0.016, 0.9400000000000001, 0.35000000000000003, 192.0, 0.0, 0.0, 0.0, 0.0, 0.0, 0.0, 0.0, 0.0, 0.0, 1.6527782051263459E9, 0.0, 2022-05-17 11:03:25.126
143.0, 5733.915356864376, 15186.043403869082, -39006.11865593417, -23803.579664657078, -9684.496782362077, -4064.418860008581, 2159.580845782858, -1748.8451896721351, 0.016, 0.9400000000000001, 0.35000000000000003, 192.0, 0.0, 0.0, 0.0, 0.0, 0.0, 0.0, 0.0, 0.0, 0.0, 1.652778205126351E9, 0.0, 2022-05-17 11:03:25.126
144.0, 5810.067750223608, 15179.583749721498, -39008.91262399109, -23819.62821717599, -9671.845695000375, -4081.607351494712, 2148.2038078551063, -1866.3036067847738, 0.016, 0.9400000000000001, 0.35000000000000003, 192.0, 0.0, 0.0, 0.0, 0.0, 0.0, 0.0, 0.0, 0.0, 0.0, 1.6527782051263564E9, 0.0, 2022-05-17 11:03:25.126
145.0, 5865.500076472768, 15155.108589542937, -39076.10196782374, -23893.88071225652, -9726.227489260136, -4140.05716324534, 2088.703464115079, -1889.7058832294804, 0.016, 0.9400000000000001, 0.35000000000000003, 192.0, 0.0, 0.0, 0.0, 0.0, 0.0, 0.0, 0.0, 0.0, 0.0, 1.6527782051263616E9, 0.0, 2022-05-17 11:03:25.126
146.0, 5816.549756115646, 15139.060037024026, -39130.08143068331, -23937.243096499813, -9789.706443513209, -4176.691672407588, 2045.0058037049537, -1777.4330708304728, 0.052000000000000005, 0.968, 0.33, 192.0, 1.0, 160.0, 30.0, 64.0, 10.0, 80.0, 0.0, 0.0, 0.0, 1.652778205126367E9, 0.0, 2022-05-17 11:03:25.126
147.0, 5753.1378570959405, 15175.471028741722, -39068.18945028656, -23871.551319545666, -9750.725001183153, -4115.6714100446, 2103.187394522118, -1681.3205696726525, 0.052000000000000005, 0.968, 0.33, 192.0, 0.0, 0.0, 0.0, 0.0, 0.0, 0.0, 0.0, 0.0, 0.0, 1.6527782051263723E9, 0.0, 2022-05-17 11:03:25.126
148.0, 5773.254427105717, 15216.039444928105, -38980.14592887711, -23782.949004524828, -9672.404488611757, -4049.063211567785, 2178.9374564811537, -1713.9094130884903, 0.052000000000000005, 0.968, 0.33, 192.0, 0.0, 0.0, 0.0, 0.0, 0.0, 0.0, 0.0, 0.0, 0.0, 1.6527782051263776E9, 0.0, 2022-05-17 11:03:25.126
149.0, 5822.271802696205, 15193.173610350324, -39002.43061809905, -23808.34058622606, -9683.043918972484, -4072.6890054570445, 2149.6790229891567, -1817.1744724720088, 0.052000000000000005, 0.968, 0.33, 192.0, 0.0, 0.0, 0.0, 0.0, 0.0, 0.0, 0.0, 0.0, 0.0, 1.652778205126383E9, 0.0, 2022-05-17 11:03:25.126
150.0, 5861.365003748537, 15173.012336851638, -39080.21468880352, -23881.29668012818, -9744.868844135863, -4132.591680597267, 2072.36433891825, -1839.4815134384053, 0.052000000000000005, 0.968, 0.33, 192.0, 0.0, 0.0, 0.0, 0.0, 0.0, 0.0, 0.0, 0.0, 0.0, 1.6527782051263905E9, 0.0, 2022-05-17 11:03:25.126
151.0, 5833.6711923684115, 15183.04827011207, -39111.86475895224, -23900.787401293208, -9788.544152801533, -4148.193198227072, 2048.8279520068113, -1764.5361142797608, 0.052000000000000005, 0.968, 0.33, 192.0, 0.0, 0.0, 0.0, 0.0, 0.0, 0.0, 0.0, 0.0, 0.0, 1.6527782051263957E9, 0.0, 2022-05-17 11:03:25.126
152.0, 5785.167906900395, 15224.287238632112, -39047.84936283223, -23830.58057195909, -9743.192463301715, -4102.014494182407, 2101.7568828769786, -1712.8141776101802, 0.052000000000000005, 0.968, 0.33, 192.0, 0.0, 0.0, 0.0, 0.0, 0.0, 0.0, 0.0, 0.0, 0.0, 1.652778205126401E9, 0.0, 2022-05-17 11:03:25.126
153.0, 5776.361319585004, 15226.254192144179, -38990.67360051556, -23782.166693468895, -9688.20717194166, -4073.4936682574357, 2148.7402497220337, -1750.9686053953894, 0.052000000000000005, 0.968, 0.33, 192.0, 0.0, 0.0, 0.0, 0.0, 0.0, 0.0, 0.0, 0.0, 0.0, 1.6527782051264064E9, 0.0, 2022-05-17 11:03:25.126
154.0, 5828.306773699138, 15191.117249860437, -39010.36548738069, -23813.079156050582, -9695.49384063409, -4092.358540577715, 2126.2990982889055, -1824.7740655868133, 0.052000000000000005, 0.968, 0.33, 192.0, 0.0, 0.0, 0.0, 0.0, 0.0, 0.0, 0.0, 0.0, 0.0, 1.6527782051264117E9, 0.0, 2022-05-17 11:03:25.126
155.0, 5841.20373024985, 15140.445845180255, -39101.158273358145, -23908.856381041573, -9766.013594390583, -4161.268968733427, 2035.193387889074, -1843.0577925512546, 0.052000000000000005, 0.968, 0.33, 192.0, 0.0, 0.0, 0.0, 0.0, 0.0, 0.0, 0.0, 0.0, 0.0, 1.6527782051264167E9, 0.0, 2022-05-17 11:03:25.126
156.0, 5800.523555341191, 15140.222327735702, -39136.65284355317, -23926.670721372455, -9815.142728703348, -4185.073576578328, 2005.1749950855965, -1776.5390010522606, 0.082, 0.998, 0.316, 192.0, 2.0, 144.0, 31.0, 48.0, 9.0, 224.0, 0.0, 0.0, 0.0, 1.6527782051264222E9, 0.0, 2022-05-17 11:03:25.126
157.0, 5742.029040101653, 15188.703261459264, -39067.20597353053, -23854.027551892705, -9763.063164122483, -4122.153415936639, 2091.0056937939758, -1713.4176747104734, 0.082, 0.998, 0.316, 192.0, 0.0, 0.0, 0.0, 0.0, 0.0, 0.0, 0.0, 0.0, 0.0, 1.6527782051264277E9, 0.0, 2022-05-17 11:03:25.126
158.0, 5745.761781425689, 15213.91602920485, -38999.636650042135, -23799.42224018839, -9696.969055768139, -4083.261380584405, 2158.7761829824667, -1730.0473725852219, 0.082, 0.998, 0.316, 192.0, 0.0, 0.0, 0.0, 0.0, 0.0, 0.0, 0.0, 0.0, 0.0, 1.652778205126433E9, 0.0, 2022-05-17 11:03:25.126
159.0, 5807.139671699962, 15191.519581260633, -39016.3110514058, -23826.557257957134, -9698.15369822427, -4116.565479822812, 2135.195092582118, -1814.0005247593554, 0.082, 0.998, 0.316, 192.0, 0.0, 0.0, 0.0, 0.0, 0.0, 0.0, 0.0, 0.0, 0.0, 1.6527782051264381E9, 0.0, 2022-05-17 11:03:25.126
160.0, 5859.465105469836, 15177.236816553692, -39080.3264475258, -23891.310261644157, -9746.768742414564, -4170.321425237826, 2070.6209028507355, -1846.9022925975673, 0.082, 0.998, 0.316, 192.0, 0.0, 0.0, 0.0, 0.0, 0.0, 0.0, 0.0, 0.0, 0.0, 1.6527782051264436E9, 0.0, 2022-05-17 11:03:25.126
161.0, 5818.2931921831605, 15167.871435626917, -39137.144581931185, -23938.986532567327, -9813.220478680192, -4203.960800643063, 2018.7201522255127, -1781.8140127437132, 0.082, 0.998, 0.316, 192.0, 0.0, 0.0, 0.0, 0.0, 0.0, 0.0, 0.0, 0.0, 0.0, 1.6527782051264489E9, 0.0, 2022-05-17 11:03:25.126
162.0, 5723.812368370577, 15204.841220955996, -39079.58883995877, -23870.25491836726, -9782.442126565235, -4130.937651507575, 2073.638388352202, -1705.6392676400267, 0.082, 0.998, 0.316, 192.0, 0.0, 0.0, 0.0, 0.0, 0.0, 0.0, 0.0, 0.0, 0.0, 1.652778205126454E9, 0.0, 2022-05-17 11:03:25.126
163.0, 5729.489711462225, 15235.708980048774, -38998.36260060818, -23800.405716944424, -9701.238238959104, -4063.6589006971003, 2150.1037061338075, -1729.6003376961157, 0.082, 0.998, 0.316, 192.0, 0.0, 0.0, 0.0, 0.0, 0.0, 0.0, 0.0, 0.0, 0.0, 1.6527782051264596E9, 0.0, 2022-05-17 11:03:25.126
164.0, 5787.268970879194, 15205.467069800743, -39015.10405720521, -23835.05092085015, -9701.841736059396, -4101.031017426374, 2138.793723439422, -1831.3454784566736, 0.082, 0.998, 0.316, 192.0, 0.0, 0.0, 0.0, 0.0, 0.0, 0.0, 0.0, 0.0, 0.0, 1.652778205126465E9, 0.0, 2022-05-17 11:03:25.126
165.0, 5824.551680630646, 15165.390391992378, -39092.35168604275, -23905.63772984001, -9769.07578338096, -4162.207742000549, 2066.061146981853, -1839.0791820382099, 0.082, 0.998, 0.316, 192.0, 0.0, 0.0, 0.0, 0.0, 0.0, 0.0, 0.0, 0.0, 0.0, 1.6527782051264703E9, 0.0, 2022-05-17 11:03:25.126
166.0, 5781.52457255418, 15157.209653521735, -39144.36419539025, -23942.898087847007, -9829.559603877022, -4198.529326740423, 2023.704591239046, -1742.787866924747, 0.10400000000000001, 1.012, 0.302, 192.0, 3.0, 64.0, 31.0, 160.0, 9.0, 112.0, 0.0, 0.0, 0.0, 1.6527782051264758E9, 0.0, 2022-05-17 11:03:25.126
167.0, 5724.03588581513, 15211.256171614668, -39074.49264222296, -23867.34919158807, -9781.101021897915, -4131.496445118957, 2095.252525240484, -1674.793860291703, 0.10400000000000001, 1.012, 0.302, 192.0, 0.0, 0.0, 0.0, 0.0, 0.0, 0.0, 0.0, 0.0, 0.0, 1.6527782051264813E9, 0.0, 2022-05-17 11:03:25.126
168.0, 5732.842473130521, 15244.627326086442, -39005.38104836715, -23805.09958328004, -9711.184765241715, -4085.675368985578, 2157.0103951704973, -1707.7626833632808, 0.10400000000000001, 1.012, 0.302, 192.0, 0.0, 0.0, 0.0, 0.0, 0.0, 0.0, 0.0, 0.0, 0.0, 1.6527782051264863E9, 0.0, 2022-05-17 11:03:25.126
169.0, 5800.411796618914, 15225.382474110422, -39017.78626653985, -23826.04316783466, -9704.881573305318, -4117.101921689739, 2144.404011297704, -1807.1161874671207, 0.10400000000000001, 1.012, 0.302, 192.0, 0.0, 0.0, 0.0, 0.0, 0.0, 0.0, 0.0, 0.0, 0.0, 1.6527782051264918E9, 0.0, 2022-05-17 11:03:25.126
170.0, 5826.853910309543, 15170.084258327994, -39109.02608740641, -23913.326729932636, -9778.93290268575, -4192.606114459767, 2060.4285073791157, -1849.293929254285, 0.10400000000000001, 1.012, 0.302, 192.0, 0.0, 0.0, 0.0, 0.0, 0.0, 0.0, 0.0, 0.0, 0.0, 1.6527782051264973E9, 0.0, 2022-05-17 11:03:25.126
171.0, 5776.897761451932, 15168.698450171763, -39165.93362878962, -23955.280954275247, -9844.691734873264, -4238.985984204529, 2011.031152132887, -1793.235754160375, 0.10400000000000001, 1.012, 0.302, 192.0, 0.0, 0.0, 0.0, 0.0, 0.0, 0.0, 0.0, 0.0, 0.0, 1.6527782051265044E9, 0.0, 2022-05-17 11:03:25.126
172.0, 5714.245821743706, 15213.446642571289, -39104.95806991554, -23888.940976731894, -9809.532440845065, -4185.028873089418, 2064.921208014632, -1719.3185352466746, 0.10400000000000001, 1.012, 0.302, 192.0, 0.0, 0.0, 0.0, 0.0, 0.0, 0.0, 0.0, 0.0, 0.0, 1.6527782051265097E9, 0.0, 2022-05-17 11:03:25.126
173.0, 5721.845414858511, 15243.308573163578, -39022.94951950902, -23822.310426510627, -9733.245937019103, -4118.57713682379, 2140.9841943960423, -1732.7966371532248, 0.10400000000000001, 1.012, 0.302, 192.0, 0.0, 0.0, 0.0, 0.0, 0.0, 0.0, 0.0, 0.0, 0.0, 1.652778205126515E9, 0.0, 2022-05-17 11:03:25.126
174.0, 5786.844287734543, 15216.933514706316, -39021.36254565269, -23837.28609529568, -9713.889326320807, -4151.30009070636, 2134.122208848263, -1826.651612121059, 0.10400000000000001, 1.012, 0.302, 192.0, 0.0, 0.0, 0.0, 0.0, 0.0, 0.0, 0.0, 0.0, 0.0, 1.6527782051265204E9, 0.0, 2022-05-17 11:03:25.126
175.0, 5818.114378227518, 15158.774275633608, -39103.102875125755, -23923.45207017089, -9780.586931775444, -4229.061809666373, 2053.0077282199536, -1849.0257083208214, 0.10400000000000001, 1.012, 0.302, 192.0, 0.0, 0.0, 0.0, 0.0, 0.0, 0.0, 0.0, 0.0, 0.0, 1.6527782051265256E9, 0.0, 2022-05-17 11:03:25.126
176.0, 5784.720872011289, 15147.732513872686, -39157.17174496314, -23971.642431216533, -9849.564415164521, -4257.448525124612, 2003.9903526294654, -1780.8528877321348, 0.1, 1.008, 0.3, 192.0, 3.0, 32.0, 31.0, 128.0, 9.0, 96.0, 0.0, 0.0, 0.0, 1.652778205126531E9, 0.0, 2022-05-17 11:03:25.126
177.0, 5717.732693878734, 15185.618720724431, -39093.871604665714, -23905.436564139913, -9806.045568710038, -4194.796585416387, 2060.093231212286, -1711.8977560875126, 0.1, 1.008, 0.3, 192.0, 0.0, 0.0, 0.0, 0.0, 0.0, 0.0, 0.0, 0.0, 0.0, 1.6527782051265364E9, 0.0, 2022-05-17 11:03:25.126
178.0, 5705.908621061876, 15215.704168761275, -39018.032135728856, -23838.649551707455, -9729.468492206155, -4146.338003437281, 2129.249528557006, -1733.176616808965, 0.1, 1.008, 0.3, 192.0, 0.0, 0.0, 0.0, 0.0, 0.0, 0.0, 0.0, 0.0, 0.0, 1.6527782051265416E9, 0.0, 2022-05-17 11:03:25.126
179.0, 5768.560560770102, 15191.318415560534, -39031.33142367976, -23864.935203186895, -9730.362561984368, -4164.197047257072, 2111.032856825931, -1827.1880539879865, 0.1, 1.008, 0.3, 192.0, 0.0, 0.0, 0.0, 0.0, 0.0, 0.0, 0.0, 0.0, 0.0, 1.652778205126547E9, 0.0, 2022-05-17 11:03:25.126
180.0, 5798.2213256622945, 15149.386542962378, -39109.339011828786, -23950.16240479498, -9792.142783658837, -4241.019992949962, 2035.6627745226353, -1869.5893132197039, 0.1, 1.008, 0.3, 192.0, 0.0, 0.0, 0.0, 0.0, 0.0, 0.0, 0.0, 0.0, 0.0, 1.6527782051265526E9, 0.0, 2022-05-17 11:03:25.126
181.0, 5751.841455917533, 15139.75294110214, -39164.972503778044, -23998.151600140525, -9857.611043168432, -4276.805135822909, 1993.1721083130967, -1808.4125886455286, 0.1, 1.008, 0.3, 192.0, 0.0, 0.0, 0.0, 0.0, 0.0, 0.0, 0.0, 0.0, 0.0, 1.6527782051265595E9, 0.0, 2022-05-17 11:03:25.126
182.0, 5690.17299296534, 15179.471990999222, -39106.85796819424, -23944.820337870162, -9833.225289967691, -4217.796530460898, 2037.897948968166, -1754.0084426413111, 0.1, 1.008, 0.3, 192.0, 0.0, 0.0, 0.0, 0.0, 0.0, 0.0, 0.0, 0.0, 0.0, 1.6527782051265652E9, 0.0, 2022-05-17 11:03:25.126
183.0, 5702.801728582589, 15216.777052495128, -39023.0612782313, -23872.512444557244, -9755.865902407873, -4156.955082053552, 2106.540156190414, -1777.1648498970092, 0.1, 1.008, 0.3, 192.0, 0.0, 0.0, 0.0, 0.0, 0.0, 0.0, 0.0, 0.0, 0.0, 1.6527782051265707E9, 0.0, 2022-05-17 11:03:25.126
184.0, 5774.2155521172945, 15206.607008767965, -39018.166246195586, -23886.348174375078, -9738.073913821449, -4180.580875942812, 2110.6528771701905, -1872.4726882544385, 0.1, 1.008, 0.3, 192.0, 0.0, 0.0, 0.0, 0.0, 0.0, 0.0, 0.0, 0.0, 0.0, 1.6527782051265764E9, 0.0, 2022-05-17 11:03:25.126
185.0, 5811.498261868747, 15169.637223438887, -39088.06015110733, -23962.92525087896, -9793.12626041487, -4252.061754710884, 2042.0106699479427, -1906.3132293597735, 0.08, 1.004, 0.3, 192.0, 2.0, 128.0, 31.0, 96.0, 9.0, 96.0, 0.0, 0.0, 0.0, 1.6527782051265817E9, 0.0, 2022-05-17 11:03:25.126
186.0, 5749.896854149921, 15139.887051568872, -39156.65765484067, -24024.12432719759, -9863.33308974899, -4290.596162151833, 1983.940837853055, -1832.9548040574557, 0.08, 1.004, 0.3, 192.0, 0.0, 0.0, 0.0, 0.0, 0.0, 0.0, 0.0, 0.0, 0.0, 1.6527782051265872E9, 0.0, 2022-05-17 11:03:25.126
187.0, 5667.2624548986505, 15166.463275726233, -39104.60044200426, -23966.07684684716, -9838.835577825974, -4231.095818411805, 2034.9251669556104, -1765.0502044022328, 0.08, 1.004, 0.3, 192.0, 0.0, 0.0, 0.0, 0.0, 0.0, 0.0, 0.0, 0.0, 0.0, 1.6527782051265924E9, 0.0, 2022-05-17 11:03:25.126
188.0, 5671.151658433874, 15194.805287695563, -39023.35185090922, -23896.205293679872, -9763.64430947832, -4186.794660901387, 2122.834577898333, -1781.4116813435176, 0.08, 1.004, 0.3, 192.0, 0.0, 0.0, 0.0, 0.0, 0.0, 0.0, 0.0, 0.0, 0.0, 1.652778205126598E9, 0.0, 2022-05-17 11:03:25.126
189.0, 5738.676278433357, 15173.839351396484, -39029.74444982343, -23914.041985755204, -9752.423733761756, -4211.8286146913315, 2125.472083744059, -1866.5047724848716, 0.08, 1.004, 0.3, 192.0, 0.0, 0.0, 0.0, 0.0, 0.0, 0.0, 0.0, 0.0, 0.0, 1.6527782051266036E9, 0.0, 2022-05-17 11:03:25.126
190.0, 5784.162078399906, 15144.446807437756, -39104.46633153753, -23990.395544814535, -9802.89397274184, -4264.288158927937, 2061.8143155353446, -1887.582467506226, 0.08, 1.004, 0.3, 192.0, 0.0, 0.0, 0.0, 0.0, 0.0, 0.0, 0.0, 0.0, 0.0, 1.652778205126609E9, 0.0, 2022-05-17 11:03:25.126
191.0, 5762.302072322616, 15138.903574812839, -39157.50702112997, -24029.779318544784, -9857.432229212789, -4293.792461608942, 2008.192480587063, -1811.9218125250118, 0.08, 1.004, 0.3, 192.0, 0.0, 0.0, 0.0, 0.0, 0.0, 0.0, 0.0, 0.0, 0.0, 1.6527782051266143E9, 0.0, 2022-05-17 11:03:25.126
192.0, 5696.654998857379, 15186.333976547001, -39091.47996800899, -23956.644410687022, -9824.865737541406, -4218.489434539012, 2068.899818527677, -1731.6343464415488, 0.08, 1.004, 0.3, 192.0, 0.0, 0.0, 0.0, 0.0, 0.0, 0.0, 0.0, 0.0, 0.0, 1.6527782051266227E9, 0.0, 2022-05-17 11:03:25.126
193.0, 5682.975731250731, 15219.079282174025, -39019.23912992944, -23886.795209264186, -9758.704573953697, -4166.834553102798, 2131.305889046894, -1750.4098117840067, 0.08, 1.004, 0.3, 192.0, 0.0, 0.0, 0.0, 0.0, 0.0, 0.0, 0.0, 0.0, 0.0, 1.652778205126628E9, 0.0, 2022-05-17 11:03:25.126
194.0, 5749.449819260814, 15198.403918552867, -39031.21966495748, -23913.818468310652, -9750.79205641652, -4202.820861675842, 2109.244717269506, -1855.9547491019666, 0.08, 1.004, 0.3, 192.0, 0.0, 0.0, 0.0, 0.0, 0.0, 0.0, 0.0, 0.0, 0.0, 1.6527782051266353E9, 0.0, 2022-05-17 11:03:25.126
195.0, 5804.5021658542355, 15167.71497341573, -39096.71027621154, -23981.16427435449, -9799.228286651169, -4264.757545561498, 2051.554864830359, -1897.0149036663656, 0.06, 0.986, 0.296, 192.0, 1.0, 224.0, 30.0, 208.0, 9.0, 64.0, 0.0, 0.0, 0.0, 1.6527782051266403E9, 0.0, 2022-05-17 11:03:25.126
196.0, 5755.6636042193895, 15150.124150529404, -39153.75192806148, -24032.79680404625, -9863.154275793348, -4292.5631156639, 2001.5093089949262, -1810.8042253022463, 0.06, 0.986, 0.296, 192.0, 0.0, 0.0, 0.0, 0.0, 0.0, 0.0, 0.0, 0.0, 0.0, 1.6527782051266458E9, 0.0, 2022-05-17 11:03:25.126
197.0, 5675.800821280578, 15176.029822353104, -39102.85700593675, -23977.587995241644, -9846.703391874242, -4244.328051129348, 2044.4246583491158, -1730.9414423634341, 0.06, 0.986, 0.296, 192.0, 0.0, 0.0, 0.0, 0.0, 0.0, 0.0, 0.0, 0.0, 0.0, 1.6527782051266513E9, 0.0, 2022-05-17 11:03:25.126
198.0, 5674.839696268999, 15215.793575739095, -39008.867920502176, -23895.221816923837, -9756.782323930542, -4188.7616144134545, 2121.538176719925, -1743.167846580487, 0.06, 0.986, 0.296, 192.0, 0.0, 0.0, 0.0, 0.0, 0.0, 0.0, 0.0, 0.0, 0.0, 1.6527782051266565E9, 0.0, 2022-05-17 11:03:25.126
199.0, 5715.65398164439, 15171.604176950954, -39036.002938270925, -23927.453032428388, -9764.605434489898, -4233.778027746443, 2092.279743227928, -1857.5417229582933, 0.06, 0.986, 0.296, 192.0, 0.0, 0.0, 0.0, 0.0, 0.0, 0.0, 0.0, 0.0, 0.0, 1.652778205126662E9, 0.0, 2022-05-17 11:03:25.126
200.0, 5767.264159591694, 15132.935659043273, -39115.619852020725, -24007.382870600566, -9828.307906187523, -4300.632095412266, 2015.5238527684037, -1914.3822091081393, 0.06, 0.986, 0.296, 192.0, 0.0, 0.0, 0.0, 0.0, 0.0, 0.0, 0.0, 0.0, 0.0, 1.6527782051266675E9, 0.0, 2022-05-17 11:03:25.126
201.0, 5740.7549906677, 15130.029932264082, -39165.17366947814, -24050.23116472139, -9879.158124823347, -4318.9605258656175, 1980.1186895511973, -1834.2735569803187, 0.06, 0.986, 0.296, 192.0, 0.0, 0.0, 0.0, 0.0, 0.0, 0.0, 0.0, 0.0, 0.0, 1.6527782051266727E9, 0.0, 2022-05-17 11:03:25.126
202.0, 5663.127382174419, 15166.66444142633, -39115.79866597637, -23995.60350127262, -9858.438057713278, -4270.300778186414, 2026.4762075515043, -1744.6430617145375, 0.06, 0.986, 0.296, 192.0, 0.0, 0.0, 0.0, 0.0, 0.0, 0.0, 0.0, 0.0, 0.0, 1.6527782051266782E9, 0.0, 2022-05-17 11:03:25.126
203.0, 5644.30721334305, 15189.351462048468, -39048.94459831055, -23929.867020829563, -9793.305074370513, -4223.183300874627, 2072.341987173794, -1768.7605939818138, 0.06, 0.986, 0.296, 192.0, 0.0, 0.0, 0.0, 0.0, 0.0, 0.0, 0.0, 0.0, 0.0, 1.652778205126684E9, 0.0, 2022-05-17 11:03:25.126
204.0, 5714.804615355089, 15183.76352593464, -39038.12635399418, -23932.415119697467, -9768.762858958586, -4229.687658511121, 2071.738490073501, -1865.0519090952766, 0.06, 0.986, 0.296, 192.0, 0.0, 0.0, 0.0, 0.0, 0.0, 0.0, 0.0, 0.0, 0.0, 1.6527782051266913E9, 0.0, 2022-05-17 11:03:25.126
205.0, 5777.233037618761, 15163.043458824572, -39097.06790412282, -23991.960166926405, -9810.873545512384, -4291.490231930045, 2016.037942890876, -1898.6912845005138, 0.04, 0.992, 0.29, 192.0, 1.0, 64.0, 31.0, 0.0, 9.0, 16.0, 0.0, 0.0, 0.0, 1.6527782051266968E9, 0.0, 2022-05-17 11:03:25.126
206.0, 5748.064011104586, 15157.030839566094, -39153.34959666128, -24034.830812791686, -9874.643072443376, -4337.490122019068, 1971.714433636002, -1831.5019406678607, 0.04, 0.992, 0.29, 192.0, 0.0, 0.0, 0.0, 0.0, 0.0, 0.0, 0.0, 0.0, 0.0, 1.6527782051267023E9, 0.0, 2022-05-17 11:03:25.126
207.0, 5670.034071211108, 15196.928703418816, -39111.618889763224, -23985.724030223373, -9859.62270016941, -4285.27644697147, 2004.7950154298564, -1769.7440707378473, 0.04, 0.992, 0.29, 192.0, 0.0, 0.0, 0.0, 0.0, 0.0, 0.0, 0.0, 0.0, 0.0, 1.6527782051267076E9, 0.0, 2022-05-17 11:03:25.126
208.0, 5658.88055072791, 15210.183287880815, -39049.32457796628, -23933.35389296459, -9798.401272106323, -4228.927699199641, 2068.229266194018, -1778.7965272422466, 0.04, 0.992, 0.29, 192.0, 0.0, 0.0, 0.0, 0.0, 0.0, 0.0, 0.0, 0.0, 0.0, 1.6527782051267133E9, 0.0, 2022-05-17 11:03:25.126
209.0, 5726.539281194125, 15187.04923236957, -39038.88631330566, -23937.131337777537, -9772.048565393516, -4239.969460960563, 2073.996016263487, -1866.5047724848716, 0.04, 0.992, 0.29, 192.0, 0.0, 0.0, 0.0, 0.0, 0.0, 0.0, 0.0, 0.0, 0.0, 1.6527782051267185E9, 0.0, 2022-05-17 11:03:25.126
210.0, 5746.3876302704375, 15134.61203987742, -39125.09699166977, -24033.17678370199, -9839.930813304283, -4323.14030207876, 1993.417977502105, -1917.0867701872314, 0.04, 0.992, 0.29, 192.0, 0.0, 0.0, 0.0, 0.0, 0.0, 0.0, 0.0, 0.0, 0.0, 1.6527782051267264E9, 0.0, 2022-05-17 11:03:25.126
211.0, 5704.969847794753, 15122.877374038384, -39185.111425532275, -24094.599377465176, -9906.04727340308, -4362.81464848693, 1936.0186977408766, -1867.197676562986, 0.04, 0.992, 0.29, 192.0, 0.0, 0.0, 0.0, 0.0, 0.0, 0.0, 0.0, 0.0, 0.0, 1.6527782051267323E9, 0.0, 2022-05-17 11:03:25.126
212.0, 5634.1595213603405, 15163.825769880506, -39127.779201004414, -24016.725899782887, -9873.771354409619, -4295.334731976358, 1984.387872742161, -1802.914059509523, 0.04, 0.992, 0.29, 192.0, 0.0, 0.0, 0.0, 0.0, 0.0, 0.0, 0.0, 0.0, 0.0, 1.6527782051267383E9, 0.0, 2022-05-17 11:03:25.126
213.0, 5627.990439890676, 15196.459316785254, -39055.62776990268, -23944.283896003235, -9799.407100606812, -4213.996733903496, 2058.8638852672443, -1806.333876411185, 0.04, 0.992, 0.29, 192.0, 0.0, 0.0, 0.0, 0.0, 0.0, 0.0, 0.0, 0.0, 0.0, 1.6527782051267436E9, 0.0, 2022-05-17 11:03:25.126
214.0, 5686.3955481523935, 15183.919988145828, -39059.136993782166, -23962.36645726758, -9786.241923122636, -4255.190998934627, 2048.649138051169, -1891.9857611639216, 0.04, 0.992, 0.29, 192.0, 0.0, 0.0, 0.0, 0.0, 0.0, 0.0, 0.0, 0.0, 0.0, 1.6527782051267517E9, 0.0, 2022-05-17 11:03:25.126
215.0, 5733.714191164278, 15147.017258050117, -39125.70048877007, -24036.194269203457, -9836.689810358264, -4335.992555140562, 1970.0604045463092, -1921.4453603560164, 0.028, 1.002, 0.28200000000000003, 192.0, 0.0, 224.0, 31.0, 80.0, 8.0, 208.0, 0.0, 0.0, 0.0, 1.652778205126757E9, 0.0, 2022-05-17 11:03:25.126
216.0, 5703.025246027141, 15120.150461214836, -39188.33007673384, -24087.826798895218, -9904.750872224675, -4373.051747447461, 1925.6698400580694, -1834.3853157025953, 0.028, 1.002, 0.28200000000000003, 192.0, 0.0, 0.0, 0.0, 0.0, 0.0, 0.0, 0.0, 0.0, 0.0, 1.6527782051267622E9, 0.0, 2022-05-17 11:03:25.126
217.0, 5647.391754077882, 15169.123133316414, -39121.565416045836, -24006.28763512226, -9867.311700262035, -4294.194793009137, 2018.9213179256105, -1742.7431634358363, 0.028, 1.002, 0.28200000000000003, 192.0, 0.0, 0.0, 0.0, 0.0, 0.0, 0.0, 0.0, 0.0, 0.0, 1.6527782051267676E9, 0.0, 2022-05-17 11:03:25.126
218.0, 5642.027335408608, 15205.467069800743, -39040.607397628715, -23928.12358476205, -9789.527629557566, -4222.9821351745295, 2082.3779204342272, -1752.9579106519118, 0.028, 1.002, 0.28200000000000003, 192.0, 0.0, 0.0, 0.0, 0.0, 0.0, 0.0, 0.0, 0.0, 0.0, 1.652778205126773E9, 0.0, 2022-05-17 11:03:25.126
219.0, 5702.444100671304, 15199.409747053356, -39027.173999211074, -23931.4986981748, -9749.987393616128, -4231.1405219007165, 2080.6791878556237, -1848.846894365179, 0.028, 1.002, 0.28200000000000003, 192.0, 0.0, 0.0, 0.0, 0.0, 0.0, 0.0, 0.0, 0.0, 0.0, 1.6527782051267788E9, 0.0, 2022-05-17 11:03:25.126
220.0, 5719.99022006872, 15150.079447040493, -39116.40216307666, -24027.164164443515, -9823.524632874089, -4312.433816484669, 2003.9456491405547, -1886.487232027916, 0.028, 1.002, 0.28200000000000003, 192.0, 0.0, 0.0, 0.0, 0.0, 0.0, 0.0, 0.0, 0.0, 0.0, 1.6527782051267848E9, 0.0, 2022-05-17 11:03:25.126
221.0, 5674.9514549912765, 15131.32633344249, -39189.35825697878, -24089.72669717392, -9900.459337289256, -4354.544503038466, 1947.775715324368, -1817.397989916562, 0.028, 1.002, 0.28200000000000003, 192.0, 0.0, 0.0, 0.0, 0.0, 0.0, 0.0, 0.0, 0.0, 0.0, 1.6527782051267905E9, 0.0, 2022-05-17 11:03:25.126
222.0, 5606.845689635956, 15165.435095481289, -39140.27382615493, -24030.963961000918, -9876.297101533068, -4285.522316160478, 1994.0885298357643, -1733.8471691426241, 0.028, 1.002, 0.28200000000000003, 192.0, 0.0, 0.0, 0.0, 0.0, 0.0, 0.0, 0.0, 0.0, 0.0, 1.652778205126796E9, 0.0, 2022-05-17 11:03:25.126
223.0, 5611.137224571375, 15200.035595898104, -39057.326502481286, -23952.39757924051, -9797.686016283753, -4231.118170156261, 2072.990187762998, -1752.6449862295374, 0.028, 1.002, 0.28200000000000003, 192.0, 0.0, 0.0, 0.0, 0.0, 0.0, 0.0, 0.0, 0.0, 0.0, 1.6527782051268015E9, 0.0, 2022-05-17 11:03:25.126
224.0, 5649.693983756779, 15176.4321537533, -39061.6180374167, -23970.50249224931, -9783.693824254731, -4271.396013664725, 2058.372146889227, -1862.5485137162823, 0.028, 1.002, 0.28200000000000003, 192.0, 0.0, 0.0, 0.0, 0.0, 0.0, 0.0, 0.0, 0.0, 0.0, 1.652778205126807E9, 0.0, 2022-05-17 11:03:25.126
225.0, 5697.593772124502, 15136.75780734513, -39137.25634065346, -24051.5275658998, -9841.60719413843, -4340.082924375883, 1986.1760122985856, -1896.0537786547875, 0.014, 1.004, 0.278, 192.0, 0.0, 112.0, 31.0, 96.0, 8.0, 176.0, 0.0, 0.0, 0.0, 1.6527782051268125E9, 0.0, 2022-05-17 11:03:25.126
226.0, 5686.127327218929, 15127.95122002974, -39189.872347101256, -24089.234958795903, -9901.53222102311, -4368.804916000952, 1937.225691941463, -1811.1395014690759, 0.014, 1.004, 0.278, 192.0, 0.0, 0.0, 0.0, 0.0, 0.0, 0.0, 0.0, 0.0, 0.0, 1.6527782051268177E9, 0.0, 2022-05-17 11:03:25.126
227.0, 5624.950602644754, 15157.76844713312, -39139.96090173256, -24026.068928965204, -9876.38650851089, -4300.140357034249, 1974.7319191374684, -1726.4263899834623, 0.014, 1.004, 0.278, 192.0, 0.0, 0.0, 0.0, 0.0, 0.0, 0.0, 0.0, 0.0, 0.0, 1.6527782051268232E9, 0.0, 2022-05-17 11:03:25.126
228.0, 5597.614419175914, 15169.748982161163, -39081.48873823747, -23979.286727820247, -9819.970705505695, -4255.235702423537, 2035.3722018447165, -1743.0337361137554, 0.014, 1.004, 0.278, 192.0, 0.0, 0.0, 0.0, 0.0, 0.0, 0.0, 0.0, 0.0, 0.0, 1.6527782051268284E9, 0.0, 2022-05-17 11:03:25.126
229.0, 5655.013698937142, 15162.57407219101, -39067.451842719536, -23968.64729745952, -9790.444051080234, -4260.1977896926155, 2067.9386935160987, -1841.64963265057, 0.014, 1.004, 0.278, 192.0, 0.0, 0.0, 0.0, 0.0, 0.0, 0.0, 0.0, 0.0, 0.0, 1.652778205126834E9, 0.0, 2022-05-17 11:03:25.126
230.0, 5711.98829555372, 15140.75876960263, -39132.07073593983, -24031.14277495656, -9834.700505101742, -4311.293877517447, 2013.646306234158, -1886.4201767945501, 0.014, 1.004, 0.278, 192.0, 0.0, 0.0, 0.0, 0.0, 0.0, 0.0, 0.0, 0.0, 0.0, 1.6527782051268392E9, 0.0, 2022-05-17 11:03:25.126
231.0, 5683.467469628748, 15130.476967153189, -39198.54482394992, -24091.984223363903, -9900.146412866881, -4346.00613665654, 1945.4511339010162, -1830.2502429783635, 0.014, 1.004, 0.278, 192.0, 0.0, 0.0, 0.0, 0.0, 0.0, 0.0, 0.0, 0.0, 0.0, 1.652778205126845E9, 0.0, 2022-05-17 11:03:25.126
232.0, 5619.474425253204, 15178.868493898928, -39142.33018664482, -24031.299237167746, -9871.357366008446, -4277.207467223104, 1997.5530502263368, -1752.8685036740906, 0.014, 1.004, 0.278, 192.0, 0.0, 0.0, 0.0, 0.0, 0.0, 0.0, 0.0, 0.0, 0.0, 1.6527782051268504E9, 0.0, 2022-05-17 11:03:25.126
233.0, 5604.007018090131, 15212.753738493175, -39064.791985129355, -23964.623983457564, -9801.93284773026, -4225.194957875605, 2074.8900860416993, -1758.009404898811, 0.014, 1.004, 0.278, 192.0, 0.0, 0.0, 0.0, 0.0, 0.0, 0.0, 0.0, 0.0, 0.0, 1.652778205126856E9, 0.0, 2022-05-17 11:03:25.126
234.0, 5667.508324087658, 15191.00549113816, -39066.06603456331, -23975.46457951839, -9778.17294337427, -4244.149237173705, 2083.2496384679844, -1848.5786734317153, 0.014, 1.004, 0.278, 192.0, 0.0, 0.0, 0.0, 0.0, 0.0, 0.0, 0.0, 0.0, 0.0, 1.6527782051268616E9, 0.0, 2022-05-17 11:03:25.126
235.0, 5717.106845033985, 15155.600327920954, -39140.25147441048, -24051.013475777327, -9825.08925498596, -4304.856575114319, 2016.2614603354289, -1893.1480518755975, 0.006, 0.986, 0.276, 192.0, 0.0, 48.0, 30.0, 208.0, 8.0, 160.0, 0.0, 0.0, 0.0, 1.6527782051268692E9, 0.0, 2022-05-17 11:03:25.126
236.0, 5693.07871974453, 15150.593537162966, -39191.86165235778, -24091.023098352325, -9883.293197547579, -4332.684496961177, 1984.7007971645353, -1822.0471527632658, 0.006, 0.986, 0.276, 192.0, 0.0, 0.0, 0.0, 0.0, 0.0, 0.0, 0.0, 0.0, 0.0, 1.6527782051268744E9, 0.0, 2022-05-17 11:03:25.126
237.0, 5622.760131688134, 15186.5351422471, -39143.40307037867, -24034.875516280594, -9862.953110093249, -4262.879999027253, 2030.2760041089064, -1751.594454240138, 0.006, 0.986, 0.276, 192.0, 0.0, 0.0, 0.0, 0.0, 0.0, 0.0, 0.0, 0.0, 0.0, 1.6527782051268797E9, 0.0, 2022-05-17 11:03:25.126
238.0, 5608.142090814364, 15206.204677367768, -39071.54221195486, -23968.177910825958, -9795.339083115947, -4202.709102953566, 2100.1028537872858, -1770.1911056269535, 0.006, 0.986, 0.276, 192.0, 0.0, 0.0, 0.0, 0.0, 0.0, 0.0, 0.0, 0.0, 0.0, 1.6527782051268852E9, 0.0, 2022-05-17 11:03:25.126
239.0, 5673.923274746332, 15192.123078360926, -39060.321636238295, -23973.02823937276, -9770.08161188145, -4224.367943330758, 2097.1077200302743, -1870.3045690422737, 0.006, 0.986, 0.276, 192.0, 0.0, 0.0, 0.0, 0.0, 0.0, 0.0, 0.0, 0.0, 0.0, 1.6527782051268904E9, 0.0, 2022-05-17 11:03:25.126
240.0, 5727.902737605898, 15175.225159552714, -39117.005660176954, -24024.5713620867, -9810.426510623278, -4286.885772572252, 2028.6666785081243, -1911.364723606673, 0.006, 0.986, 0.276, 192.0, 0.0, 0.0, 0.0, 0.0, 0.0, 0.0, 0.0, 0.0, 0.0, 1.652778205126896E9, 0.0, 2022-05-17 11:03:25.126
241.0, 5706.802690840089, 15152.605194163943, -39186.787806366425, -24084.13876106009, -9887.316511549534, -4320.122816577294, 1962.974901553977, -1822.2483184633636, 0.006, 0.986, 0.276, 192.0, 0.0, 0.0, 0.0, 0.0, 0.0, 0.0, 0.0, 0.0, 0.0, 1.6527782056062243E9, 0.0, 2022-05-17 11:03:25.606
242.0, 5637.959317917743, 15189.306758559556, -39143.62658782322, -24042.13983322857, -9872.452601486755, -4257.515580357978, 2008.3712945427055, -1728.5498057067164, 0.006, 0.986, 0.276, 192.0, 0.0, 0.0, 0.0, 0.0, 0.0, 0.0, 0.0, 0.0, 0.0, 1.6527782056064217E9, 0.0, 2022-05-17 11:03:25.606
243.0, 5621.821358421012, 15226.92474447784, -39068.703540409035, -23964.244003801825, -9792.835687736952, -4194.014274360451, 2081.997940778487, -1742.5196459912834, 0.006, 0.986, 0.276, 192.0, 0.0, 0.0, 0.0, 0.0, 0.0, 0.0, 0.0, 0.0, 0.0, 1.652778205606428E9, 0.0, 2022-05-17 11:03:25.606
244.0, 5687.9825220087205, 15207.903409946372, -39056.477136191985, -23950.36357049508, -9767.086478124438, -4227.944222443607, 2098.448824697593, -1832.843045335179, 0.006, 0.986, 0.276, 192.0, 0.0, 0.0, 0.0, 0.0, 0.0, 0.0, 0.0, 0.0, 0.0, 1.6527782056064332E9, 0.0, 2022-05-17 11:03:25.606
245.0, 5744.152455824907, 15166.127999559403, -39119.21848287803, -24024.41489987551, -9822.451749140233, -4305.370665236791, 2015.8144254463227, -1881.882772670123, -0.004, 0.978, 0.278, 192.0, 255.0, 224.0, 30.0, 144.0, 8.0, 176.0, 0.0, 0.0, 0.0, 1.6527782056064386E9, 0.0, 2022-05-17 11:03:25.606
246.0, 5708.255554229683, 15138.545946901555, -39194.72267564806, -24096.208703065957, -9894.133793608404, -4357.2267123731035, 1924.0158109683766, -1835.301737225263, -0.004, 0.978, 0.278, 192.0, 0.0, 0.0, 0.0, 0.0, 0.0, 0.0, 0.0, 0.0, 0.0, 1.652778205606444E9, 0.0, 2022-05-17 11:03:25.606
247.0, 5634.830073694, 15184.85876141295, -39153.1931344501, -24042.743330328864, -9880.163953323836, -4300.118005289794, 1966.0817940332645, -1761.6750909894815, -0.004, 0.978, 0.278, 192.0, 0.0, 0.0, 0.0, 0.0, 0.0, 0.0, 0.0, 0.0, 0.0, 1.6527782056064494E9, 0.0, 2022-05-17 11:03:25.606
248.0, 5614.579393217492, 15218.051101929083, -39072.413929988616, -23967.373248025568, -9795.517897071588, -4231.296984111904, 2078.153440732174, -1769.5205532932941, -0.004, 0.978, 0.278, 192.0, 0.0, 0.0, 0.0, 0.0, 0.0, 0.0, 0.0, 0.0, 0.0, 1.6527782056064548E9, 0.0, 2022-05-17 11:03:25.606
249.0, 5683.668635328846, 15220.375683352433, -39036.18175222656, -23945.915573348473, -9738.92328011075, -4217.081274638328, 2142.0123746409863, -1859.911007870556, -0.004, 0.978, 0.278, 192.0, 0.0, 0.0, 0.0, 0.0, 0.0, 0.0, 0.0, 0.0, 0.0, 1.65277820560646E9, 0.0, 2022-05-17 11:03:25.606
250.0, 5742.073743590563, 15183.04827011207, -39107.68498273909, -24020.99508297385, -9793.193315648237, -4278.257999212504, 2062.417812635638, -1891.3152088302625, -0.004, 0.978, 0.278, 192.0, 0.0, 0.0, 0.0, 0.0, 0.0, 0.0, 0.0, 0.0, 0.0, 1.6527782056064653E9, 0.0, 2022-05-17 11:03:25.606
251.0, 5723.27592650365, 15157.455522710745, -39187.99480056701, -24091.559540219252, -9879.76162192364, -4335.053781873439, 1979.4928407064488, -1830.5631674007377, -0.004, 0.978, 0.278, 192.0, 0.0, 0.0, 0.0, 0.0, 0.0, 0.0, 0.0, 0.0, 0.0, 1.6527782056064708E9, 0.0, 2022-05-17 11:03:25.606
252.0, 5655.3489751039715, 15195.67700572932, -39142.55370408937, -24039.547030871756, -9858.259243757635, -4278.615627123789, 1989.9758088559877, -1761.3845183115625, -0.004, 0.978, 0.278, 192.0, 0.0, 0.0, 0.0, 0.0, 0.0, 0.0, 0.0, 0.0, 0.0, 1.652778205606476E9, 0.0, 2022-05-17 11:03:25.606
253.0, 5632.885471926388, 15229.003456712182, -39060.92513333859, -23956.800872898206, -9790.242885380136, -4201.882088408719, 2011.902870166644, -1753.784925196758, -0.004, 0.978, 0.278, 192.0, 0.0, 0.0, 0.0, 0.0, 0.0, 0.0, 0.0, 0.0, 0.0, 1.6527782056064816E9, 0.0, 2022-05-17 11:03:25.606
254.0, 5689.860068542966, 15229.115215434458, -39037.388746427154, -23943.523936691756, -9752.669602950764, -4204.83251867682, 2044.6481757936688, -1813.1958619589643, -0.004, 0.978, 0.278, 192.0, 0.0, 0.0, 0.0, 0.0, 0.0, 0.0, 0.0, 0.0, 0.0, 1.6527782056064868E9, 0.0, 2022-05-17 11:03:25.606
255.0, 5740.799694156611, 15194.894694673383, -39101.53825301388, -24013.261379392312, -9788.4100423348, -4280.85080156932, 2059.8473620232776, -1874.9313801445223, -0.004, 0.98, 0.28800000000000003, 192.0, 255.0, 224.0, 30.0, 160.0, 9.0, 0.0, 0.0, 0.0, 0.0, 1.6527782056064923E9, 0.0, 2022-05-17 11:03:25.606
0.0, 5705.059254772575, 15164.831598380995, -39180.08228302983, -24083.088229070694, -9870.91033111934, -4335.232595829081, 1998.0447886043537, -1820.4378271624837, -0.004, 0.98, 0.28800000000000003, 192.0, 0.0, 0.0, 0.0, 0.0, 0.0, 0.0, 0.0, 0.0, 0.0, 1.6527782056065347E9, 0.0, 2022-05-17 11:03:25.606
1.0, 5622.894242154866, 15193.777107450618, -39151.67321582713, -24042.340998928667, -9873.637243942887, -4290.886734829752, 1993.7309019244794, -1732.6401749420377, -0.004, 0.98, 0.28800000000000003, 192.0, 0.0, 0.0, 0.0, 0.0, 0.0, 0.0, 0.0, 0.0, 0.0, 1.6527782056065402E9, 0.0, 2022-05-17 11:03:25.606
2.0, 5593.836974362966, 15224.577811310031, -39069.888182865165, -23967.708524192396, -9802.826917508473, -4215.248431592993, 2050.5043328409593, -1734.4059627540069, -0.004, 0.98, 0.28800000000000003, 192.0, 0.0, 0.0, 0.0, 0.0, 0.0, 0.0, 0.0, 0.0, 0.0, 1.6527782056065457E9, 0.0, 2022-05-17 11:03:25.606
3.0, 5657.807666994056, 15217.693474017797, -39049.05635703282, -23955.75034090881, -9752.267271550569, -4201.21153607506, 2117.291345273417, -1817.8450248056681, -0.004, 0.98, 0.28800000000000003, 192.0, 0.0, 0.0, 0.0, 0.0, 0.0, 0.0, 0.0, 0.0, 0.0, 1.6527782056065516E9, 0.0, 2022-05-17 11:03:25.606
4.0, 5735.099999320508, 15182.333014289501, -39112.892939197176, -24012.05438519173, -9787.694786512231, -4262.410612393691, 2092.5256124169364, -1875.333711544718, -0.004, 0.98, 0.28800000000000003, 192.0, 0.0, 0.0, 0.0, 0.0, 0.0, 0.0, 0.0, 0.0, 0.0, 1.652778205606557E9, 0.0, 2022-05-17 11:03:25.606
5.0, 5690.396510409893, 15143.03864753707, -39199.12596930575, -24089.190255306992, -9871.111496819436, -4345.246177345059, 2007.3654660422167, -1843.5271791848159, -0.004, 0.98, 0.28800000000000003, 192.0, 0.0, 0.0, 0.0, 0.0, 0.0, 0.0, 0.0, 0.0, 0.0, 1.652778205606563E9, 0.0, 2022-05-17 11:03:25.606
6.0, 5622.000172376654, 15194.693528973286, -39144.23008492352, -24027.678254565988, -9844.08823777297, -4285.879944071763, 2047.0621641948421, -1785.300884878741, -0.004, 0.98, 0.28800000000000003, 192.0, 0.0, 0.0, 0.0, 0.0, 0.0, 0.0, 0.0, 0.0, 0.0, 1.6527782056065688E9, 0.0, 2022-05-17 11:03:25.606
7.0, 5614.221765306207, 15251.265794189669, -39048.27404597688, -23929.30822721818, -9749.428600004745, -4191.577934214823, 2147.287386332439, -1752.4214687849844, -0.004, 0.98, 0.28800000000000003, 192.0, 0.0, 0.0, 0.0, 0.0, 0.0, 0.0, 0.0, 0.0, 0.0, 1.6527782056065743E9, 0.0, 2022-05-17 11:03:25.606
8.0, 5665.004928708664, 15234.569041081553, -39049.77161285539, -23929.867020829563, -9729.02145731705, -4196.249448805982, 2141.051249629408, -1794.5321553387828, -0.004, 0.98, 0.28800000000000003, 192.0, 0.0, 0.0, 0.0, 0.0, 0.0, 0.0, 0.0, 0.0, 0.0, 1.6527782056065805E9, 0.0, 2022-05-17 11:03:25.606
9.0, 5729.780284140144, 15200.594389509486, -39118.771447988926, -23999.537408296754, -9776.608321262398, -4260.600121092811, 2053.5888735757917, -1840.0850105386987, 0.01, 0.976, 0.296, 192.0, 0.0, 80.0, 30.0, 128.0, 9.0, 64.0, 0.0, 0.0, 0.0, 1.652778205606586E9, 0.0, 2022-05-17 11:03:25.606
10.0, 5714.625801399446, 15190.267883571136, -39193.26981225846, -24062.14464451607, -9848.402124452845, -4304.409540225213, 1979.5375441953595, -1785.4349953454728, 0.01, 0.976, 0.296, 192.0, 0.0, 0.0, 0.0, 0.0, 0.0, 0.0, 0.0, 0.0, 0.0, 1.652778205606592E9, 0.0, 2022-05-17 11:03:25.606
11.0, 5640.574472019014, 15231.417445113355, -39160.144526975695, -24017.776431772287, -9841.718952860709, -4250.787705276931, 2019.6589254926355, -1704.8346048396356, 0.01, 0.976, 0.296, 192.0, 0.0, 0.0, 0.0, 0.0, 0.0, 0.0, 0.0, 0.0, 0.0, 1.6527782056065977E9, 0.0, 2022-05-17 11:03:25.606
12.0, 5625.7776171896, 15268.476637420254, -39066.28955200786, -23931.766919108264, -9752.289623295024, -4166.745146124977, 2115.4585022280817, -1697.4585291693843, 0.01, 0.976, 0.296, 192.0, 0.0, 0.0, 0.0, 0.0, 0.0, 0.0, 0.0, 0.0, 0.0, 1.6527782056066031E9, 0.0, 2022-05-17 11:03:25.606
13.0, 5687.736652819712, 15264.319212951568, -39039.46745866149, -23919.249942213293, -9706.133270994815, -4180.089137564795, 2143.1970170971176, -1766.2571986028195, 0.01, 0.976, 0.296, 192.0, 0.0, 0.0, 0.0, 0.0, 0.0, 0.0, 0.0, 0.0, 0.0, 1.652778205606609E9, 0.0, 2022-05-17 11:03:25.606
14.0, 5738.028077844153, 15212.954904193271, -39115.97747993201, -23994.485914049856, -9760.716230954675, -4263.572903105367, 2071.2020482065736, -1833.3794872021065, 0.01, 0.976, 0.296, 192.0, 0.0, 0.0, 0.0, 0.0, 0.0, 0.0, 0.0, 0.0, 0.0, 1.6527782056066158E9, 0.0, 2022-05-17 11:03:25.606
15.0, 5723.588850926024, 15195.006453395661, -39187.972448822555, -24058.72482761441, -9838.209728981225, -4311.47269147309, 2004.4597392630267, -1790.6429518035593, 0.01, 0.976, 0.296, 192.0, 0.0, 0.0, 0.0, 0.0, 0.0, 0.0, 0.0, 0.0, 0.0, 1.6527782056066215E9, 0.0, 2022-05-17 11:03:25.606
16.0, 5655.863065226444, 15239.73229405073, -39142.64311106719, -24003.627777532074, -9821.55767936202, -4253.134638444739, 2043.4635333375377, -1718.2903550017304, 0.01, 0.976, 0.296, 192.0, 0.0, 0.0, 0.0, 0.0, 0.0, 0.0, 0.0, 0.0, 0.0, 1.6527782056066275E9, 0.0, 2022-05-17 11:03:25.606
17.0, 5638.808684207044, 15293.622349932475, -39042.50729590742, -23909.951616519884, -9728.417960216757, -4167.01336705844, 2143.219368841573, -1712.5459566767165, 0.01, 0.976, 0.296, 192.0, 0.0, 0.0, 0.0, 0.0, 0.0, 0.0, 0.0, 0.0, 0.0, 1.6527782056066349E9, 0.0, 2022-05-17 11:03:25.606
18.0, 5704.4781094167365, 15290.202533030813, -39023.01657474239, -23904.49779087279, -9685.837887029396, -4161.425430944613, 2140.7159734625784, -1792.8557745046348, 0.024, 0.98, 0.308, 192.0, 0.0, 192.0, 30.0, 160.0, 9.0, 160.0, 0.0, 0.0, 0.0, 1.6527782056066413E9, 0.0, 2022-05-17 11:03:25.606
19.0, 5752.310842551094, 15231.640962557909, -39109.58488101779, -23990.820227959186, -9747.528701726043, -4230.782893989432, 2056.3381381437944, -1830.429056934006, 0.024, 0.98, 0.308, 192.0, 0.0, 0.0, 0.0, 0.0, 0.0, 0.0, 0.0, 0.0, 0.0, 1.6527782056066468E9, 0.0, 2022-05-17 11:03:25.606
20.0, 5715.117539777463, 15183.00356662316, -39200.4000187397, -24072.3817434766, -9842.724781361198, -4290.774976107476, 1976.3635964827058, -1774.5496957957382, 0.024, 0.98, 0.308, 192.0, 0.0, 0.0, 0.0, 0.0, 0.0, 0.0, 0.0, 0.0, 0.0, 1.6527782056066532E9, 0.0, 2022-05-17 11:03:25.606
21.0, 5634.248928338162, 15201.801383710073, -39176.48365217253, -24039.636437849575, -9844.870548828907, -4258.70022281411, 1979.7610616399124, -1725.1523405495097, 0.024, 0.98, 0.308, 192.0, 0.0, 0.0, 0.0, 0.0, 0.0, 0.0, 0.0, 0.0, 0.0, 1.6527782056066604E9, 0.0, 2022-05-17 11:03:25.606
22.0, 5629.443303280271, 15259.82651231605, -39087.76957842941, -23949.53655595023, -9761.207969332692, -4189.029835346918, 2050.616091563236, -1728.6168609400822, 0.024, 0.98, 0.308, 192.0, 0.0, 0.0, 0.0, 0.0, 0.0, 0.0, 0.0, 0.0, 0.0, 1.6527782056066704E9, 0.0, 2022-05-17 11:03:25.606
23.0, 5691.782318566122, 15272.567006655576, -39064.099081051245, -23927.676549872944, -9713.665808876254, -4181.117317809739, 2082.6908448566014, -1822.9859260303888, 0.024, 0.98, 0.308, 192.0, 0.0, 0.0, 0.0, 0.0, 0.0, 0.0, 0.0, 0.0, 0.0, 1.652778205606676E9, 0.0, 2022-05-17 11:03:25.606
24.0, 5727.768627139167, 15212.999607682183, -39137.1892854201, -24000.230312374868, -9757.765800686575, -4235.856739980786, 2055.734641043501, -1842.5437024287824, 0.024, 0.98, 0.308, 192.0, 0.0, 0.0, 0.0, 0.0, 0.0, 0.0, 0.0, 0.0, 0.0, 1.6527782056066816E9, 0.0, 2022-05-17 11:03:25.606
25.0, 5698.309027947072, 15165.435095481289, -39211.55353922291, -24068.93957483048, -9833.448807412244, -4284.2035632376155, 2007.8795561646887, -1770.4593265604171, 0.024, 0.98, 0.308, 192.0, 0.0, 0.0, 0.0, 0.0, 0.0, 0.0, 0.0, 0.0, 0.0, 1.652778205606687E9, 0.0, 2022-05-17 11:03:25.606
26.0, 5616.658105451836, 15192.368947549934, -39170.6945503586, -24004.007757187817, -9818.406083393822, -4228.748885243998, 2024.7327714839903, -1688.271962198253, 0.024, 0.98, 0.308, 192.0, 0.0, 0.0, 0.0, 0.0, 0.0, 0.0, 0.0, 0.0, 0.0, 1.6527782056066935E9, 0.0, 2022-05-17 11:03:25.606
27.0, 5594.574581929992, 15236.379532382434, -39074.00090384494, -23900.5415321042, -9729.580250928433, -4137.48671263298, 2152.115363134785, -1669.5412003447057, 0.024, 0.98, 0.308, 192.0, 0.0, 0.0, 0.0, 0.0, 0.0, 0.0, 0.0, 0.0, 0.0, 1.6527782056067E9, 0.0, 2022-05-17 11:03:25.606
28.0, 5659.1040681724635, 15231.506852091177, -39046.284740720366, -23882.54837781768, -9682.038090471995, -4140.593605112267, 2203.7925963154553, -1753.784925196758, 0.05, 0.988, 0.316, 192.0, 1.0, 144.0, 30.0, 224.0, 9.0, 224.0, 0.0, 0.0, 0.0, 1.6527782056067061E9, 0.0, 2022-05-17 11:03:25.606
29.0, 5706.3556559509825, 15175.448676997266, -39116.379811332205, -23957.94081186543, -9731.614259673865, -4207.000637888985, 2119.9735546080537, -1819.8566818066458, 0.05, 0.988, 0.316, 192.0, 0.0, 0.0, 0.0, 0.0, 0.0, 0.0, 0.0, 0.0, 0.0, 1.6527782056067133E9, 0.0, 2022-05-17 11:03:25.606
30.0, 5684.540353362603, 15142.725723114698, -39188.91122208968, -24023.856106264127, -9812.885202513362, -4251.726478544054, 2030.387762831183, -1756.0200996422889, 0.05, 0.988, 0.316, 192.0, 0.0, 0.0, 0.0, 0.0, 0.0, 0.0, 0.0, 0.0, 0.0, 1.6527782056067224E9, 0.0, 2022-05-17 11:03:25.606
31.0, 5572.826334574978, 15154.348630231456, -39169.42050092465, -23986.97572791287, -9810.292400156546, -4209.638143734711, 2044.1564374156521, -1673.8997905134906, 0.05, 0.988, 0.316, 192.0, 0.0, 0.0, 0.0, 0.0, 0.0, 0.0, 0.0, 0.0, 0.0, 1.6527782056067288E9, 0.0, 2022-05-17 11:03:25.606
32.0, 5544.081991205453, 15207.612837268452, -39062.82503161729, -23873.004182935263, -9707.519079151045, -4115.425540855592, 2148.270863088472, -1651.4586390803622, 0.05, 0.988, 0.316, 192.0, 0.0, 0.0, 0.0, 0.0, 0.0, 0.0, 0.0, 0.0, 0.0, 1.6527782056067345E9, 0.0, 2022-05-17 11:03:25.606
33.0, 5579.53185791157, 15192.503058016666, -39034.728888836966, -23855.592174004578, -9659.954566950151, -4115.134968177673, 2183.832488516866, -1727.365163250585, 0.05, 0.988, 0.316, 192.0, 0.0, 0.0, 0.0, 0.0, 0.0, 0.0, 0.0, 0.0, 0.0, 1.6527782056067405E9, 0.0, 2022-05-17 11:03:25.606
34.0, 5621.217861320718, 15131.795720076052, -39114.39050607568, -23940.417044212467, -9719.343151967902, -4192.539059226401, 2111.4351882261262, -1801.1482716975538, 0.05, 0.988, 0.316, 192.0, 0.0, 0.0, 0.0, 0.0, 0.0, 0.0, 0.0, 0.0, 0.0, 1.652778205606747E9, 0.0, 2022-05-17 11:03:25.606
35.0, 5619.742646186668, 15108.125222697881, -39183.5468034204, -23996.586978028656, -9784.140859143838, -4223.675039252644, 2035.5286640559036, -1743.7042884474147, 0.05, 0.988, 0.316, 192.0, 0.0, 0.0, 0.0, 0.0, 0.0, 0.0, 0.0, 0.0, 0.0, 1.6527782056067555E9, 0.0, 2022-05-17 11:03:25.606
36.0, 5545.266633661585, 15133.695618354754, -39145.548837846385, -23937.31015173318, -9770.483943281644, -4176.44580321858, 2061.7249085575236, -1649.3575751015635, 0.05, 0.988, 0.316, 192.0, 0.0, 0.0, 0.0, 0.0, 0.0, 0.0, 0.0, 0.0, 0.0, 1.6527782056067612E9, 0.0, 2022-05-17 11:03:25.606
37.0, 5504.8993831753, 15154.058057553537, -39062.78032812838, -23851.43474953589, -9697.572552868432, -4110.7540262644325, 2142.1017816188078, -1639.7239732413261, 0.05, 0.988, 0.316, 192.0, 0.0, 0.0, 0.0, 0.0, 0.0, 0.0, 0.0, 0.0, 0.0, 1.6527782056067672E9, 0.0, 2022-05-17 11:03:25.606
38.0, 5540.2374911591405, 15136.243717222658, -39036.24880745993, -23839.58832497458, -9653.070229657917, -4100.606334281723, 2161.4360405726484, -1718.402113724007, 0.058, 1.0, 0.328, 192.0, 1.0, 208.0, 31.0, 64.0, 10.0, 64.0, 0.0, 0.0, 0.0, 1.6527782056067743E9, 0.0, 2022-05-17 11:03:25.606
39.0, 5580.180058500774, 15087.606321287909, -39103.84048269278, -23915.047814255693, -9692.766927810542, -4158.475000676513, 2082.9814175345205, -1783.691559277959, 0.058, 1.0, 0.328, 192.0, 0.0, 0.0, 0.0, 0.0, 0.0, 0.0, 0.0, 0.0, 0.0, 1.652778205606783E9, 0.0, 2022-05-17 11:03:25.606
40.0, 5550.4522383752155, 15041.40526549879, -39189.291201745415, -23989.255605847313, -9771.64623399332, -4227.474835810046, 2025.3809720731942, -1735.210625554398, 0.058, 1.0, 0.328, 192.0, 0.0, 0.0, 0.0, 0.0, 0.0, 0.0, 0.0, 0.0, 0.0, 1.6527782056067896E9, 0.0, 2022-05-17 11:03:25.606
41.0, 5472.444650226194, 15057.498521506612, -39158.669311841644, -23940.819375612664, -9764.940710656729, -4176.736375896499, 2079.9862837775095, -1655.4596013378623, 0.058, 1.0, 0.328, 192.0, 0.0, 0.0, 0.0, 0.0, 0.0, 0.0, 0.0, 0.0, 0.0, 1.652778205606798E9, 0.0, 2022-05-17 11:03:25.606
42.0, 5434.893719541278, 15090.757917256107, -39071.229287532486, -23851.032418135695, -9689.414166142245, -4088.804613209321, 2158.709127749101, -1649.9163687129462, 0.058, 1.0, 0.328, 192.0, 0.0, 0.0, 0.0, 0.0, 0.0, 0.0, 0.0, 0.0, 0.0, 1.6527782056068091E9, 0.0, 2022-05-17 11:03:25.606
43.0, 5471.014138581055, 15100.972664472183, -39031.86786554669, -23814.10733629553, -9630.964354391617, -4071.191438578539, 2204.7537213270334, -1734.4059627540069, 0.058, 1.0, 0.328, 192.0, 0.0, 0.0, 0.0, 0.0, 0.0, 0.0, 0.0, 0.0, 0.0, 1.6527782056068237E9, 0.0, 2022-05-17 11:03:25.606
44.0, 5525.194767140719, 15046.434408001234, -39108.31083158384, -23889.902101743475, -9667.598863553865, -4146.785038326388, 2156.8092294703997, -1776.6284080300818, 0.058, 1.0, 0.328, 192.0, 0.0, 0.0, 0.0, 0.0, 0.0, 0.0, 0.0, 0.0, 0.0, 1.6527782056068308E9, 0.0, 2022-05-17 11:03:25.606
45.0, 5512.0072379120875, 15007.16239299326, -39185.46905344356, -23958.812529899184, -9745.807617402985, -4187.01817834594, 2089.709292615568, -1696.0280175242447, 0.058, 1.0, 0.328, 192.0, 0.0, 0.0, 0.0, 0.0, 0.0, 0.0, 0.0, 0.0, 0.0, 1.6527782056068375E9, 0.0, 2022-05-17 11:03:25.606
46.0, 5397.9239342122, 15009.106994760872, -39172.75091084849, -23933.845631342607, -9763.890178667329, -4145.667451103622, 2090.7598246049674, -1616.0311241187005, 0.058, 1.0, 0.328, 192.0, 0.0, 0.0, 0.0, 0.0, 0.0, 0.0, 0.0, 0.0, 0.0, 1.6527782056068442E9, 0.0, 2022-05-17 11:03:25.606
47.0, 5367.816134430902, 15069.277890834557, -39073.57622070029, -23831.496993481756, -9684.072099217427, -4059.4344209950473, 2168.6333022872573, -1615.2935165516756, 0.058, 1.0, 0.328, 192.0, 0.0, 0.0, 0.0, 0.0, 0.0, 0.0, 0.0, 0.0, 0.0, 1.6527782056068518E9, 0.0, 2022-05-17 11:03:25.606
48.0, 5451.635176138303, 15091.584931800955, -39028.73862132295, -23794.013118030205, -9629.71265670212, -4043.5646824317796, 2176.5905233133462, -1689.6577703544822, 0.07200000000000001, 0.986, 0.338, 192.0, 2.0, 64.0, 30.0, 208.0, 10.0, 144.0, 0.0, 0.0, 0.0, 1.6527782056068614E9, 0.0, 2022-05-17 11:03:25.606
49.0, 5523.943069451221, 15071.557768769, -39077.800700402346, -23850.33951405758, -9654.05370641395, -4092.0456161553407, 2129.964784379576, -1743.369012280585, 0.07200000000000001, 0.986, 0.338, 192.0, 0.0, 0.0, 0.0, 0.0, 0.0, 0.0, 0.0, 0.0, 0.0, 1.6527782056068845E9, 0.0, 2022-05-17 11:03:25.606
50.0, 5501.9489529072, 15029.000047326095, -39171.00747478098, -23936.863116844073, -9733.692971908209, -4164.509971679446, 2091.4527286830817, -1696.9891425358228, 0.07200000000000001, 0.986, 0.338, 192.0, 0.0, 0.0, 0.0, 0.0, 0.0, 0.0, 0.0, 0.0, 0.0, 1.6527782056068935E9, 0.0, 2022-05-17 11:03:25.606
51.0, 5421.370914145818, 15042.344038765912, -39155.20479145108, -23904.766011806252, -9754.010707618083, -4135.273889931905, 2123.862758143277, -1620.1214933540218, 0.07200000000000001, 0.986, 0.338, 192.0, 0.0, 0.0, 0.0, 0.0, 0.0, 0.0, 0.0, 0.0, 0.0, 1.6527782056069012E9, 0.0, 2022-05-17 11:03:25.606
52.0, 5397.387492345273, 15114.920153012295, -39039.89214180614, -23800.33866171106, -9651.371497079313, -4030.9582985589864, 2234.7497623860554, -1622.6025369885608, 0.07200000000000001, 0.986, 0.338, 192.0, 0.0, 0.0, 0.0, 0.0, 0.0, 0.0, 0.0, 0.0, 0.0, 1.6527782056069403E9, 0.0, 2022-05-17 11:03:25.606
53.0, 5485.878048643834, 15161.791761135073, -38978.35778932068, -23754.02584719966, -9578.03542352145, -4006.7513593138888, 2291.925524702731, -1684.7180348298593, 0.07200000000000001, 0.986, 0.338, 192.0, 0.0, 0.0, 0.0, 0.0, 0.0, 0.0, 0.0, 0.0, 0.0, 1.6527782056069748E9, 0.0, 2022-05-17 11:03:25.606
54.0, 5575.039157276054, 15129.918173541806, -39048.18463899906, -23832.122842326506, -9625.488177000068, -4081.875572428176, 2225.9655268151196, -1738.5410354782387, 0.07200000000000001, 0.986, 0.338, 192.0, 0.0, 0.0, 0.0, 0.0, 0.0, 0.0, 0.0, 0.0, 0.0, 1.6527782056070433E9, 0.0, 2022-05-17 11:03:25.607
55.0, 5552.19567444273, 15102.157306928315, -39135.42349760813, -23918.40057592399, -9716.660942633265, -4133.776323053399, 2135.552720493403, -1718.2232997683645, 0.07200000000000001, 0.986, 0.338, 192.0, 0.0, 0.0, 0.0, 0.0, 0.0, 0.0, 0.0, 0.0, 0.0, 1.6527782056070647E9, 0.0, 2022-05-17 11:03:25.607
56.0, 5463.571007677438, 15125.693693839752, -39111.19420661857, -23881.654308039466, -9729.06616080596, -4096.337151090759, 2131.305889046894, -1636.3488598285749, 0.07200000000000001, 0.986, 0.338, 192.0, 0.0, 0.0, 0.0, 0.0, 0.0, 0.0, 0.0, 0.0, 0.0, 1.6527782056070824E9, 0.0, 2022-05-17 11:03:25.607
57.0, 5442.470960911627, 15183.227084067714, -39008.26442340189, -23783.194873713837, -9643.526034775501, -4014.3062489397826, 2222.501006424547, -1607.4480542478627, 0.07200000000000001, 0.986, 0.338, 192.0, 0.0, 0.0, 0.0, 0.0, 0.0, 0.0, 0.0, 0.0, 0.0, 1.6527782056070914E9, 0.0, 2022-05-17 11:03:25.607
58.0, 5528.726342764658, 15215.570058294543, -38962.13042284613, -23753.332943121546, -9582.505772412513, -3998.883545265621, 2281.7778327200217, -1681.2982179281973, 0.06, 0.97, 0.336, 192.0, 1.0, 224.0, 30.0, 80.0, 10.0, 128.0, 0.0, 0.0, 0.0, 1.6527782056071036E9, 0.0, 2022-05-17 11:03:25.607
59.0, 5621.955468887743, 15198.269808086136, -39019.37324039618, -23814.88964735146, -9624.459996755124, -4054.3382232592376, 2230.1229512838067, -1730.6508696855153, 0.06, 0.97, 0.336, 192.0, 0.0, 0.0, 0.0, 0.0, 0.0, 0.0, 0.0, 0.0, 0.0, 1.6527782056071112E9, 0.0, 2022-05-17 11:03:25.607
60.0, 5621.106102598442, 15177.52738923161, -39104.06400013733, -23898.52987510322, -9713.73286410962, -4123.583927581779, 2131.70822044709, -1667.9989299772897, 0.06, 0.97, 0.336, 192.0, 0.0, 0.0, 0.0, 0.0, 0.0, 0.0, 0.0, 0.0, 0.0, 1.6527782056071231E9, 0.0, 2022-05-17 11:03:25.607
61.0, 5538.024668458065, 15224.130776420925, -39067.13891829716, -23858.274383339212, -9713.755215854075, -4084.4683747849913, 2139.71014496209, -1620.9261561544129, 0.06, 0.97, 0.336, 192.0, 0.0, 0.0, 0.0, 0.0, 0.0, 0.0, 0.0, 0.0, 0.0, 1.6527782056071315E9, 0.0, 2022-05-17 11:03:25.607
62.0, 5501.412511040272, 15291.253065020212, -38949.3452250177, -23746.292143618124, -9614.982857106073, -3978.364643855649, 2247.222035792117, -1609.3479525265639, 0.06, 0.97, 0.336, 192.0, 0.0, 0.0, 0.0, 0.0, 0.0, 0.0, 0.0, 0.0, 0.0, 1.6527782056071382E9, 0.0, 2022-05-17 11:03:25.607
63.0, 5598.754358143135, 15323.528984013676, -38902.183044216996, -23712.4963060017, -9558.857626778798, -3952.4813237764033, 2275.273475083527, -1662.3439386300968, 0.06, 0.97, 0.336, 192.0, 0.0, 0.0, 0.0, 0.0, 0.0, 0.0, 0.0, 0.0, 0.0, 1.6527782056071455E9, 0.0, 2022-05-17 11:03:25.607
64.0, 5736.016420843175, 15328.781643960672, -38953.70381518648, -23773.449513131323, -9592.206429506115, -4014.50741463988, 2219.7293901120893, -1722.4477794704176, 0.06, 0.97, 0.336, 192.0, 0.0, 0.0, 0.0, 0.0, 0.0, 0.0, 0.0, 0.0, 0.0, 1.6527782056071732E9, 0.0, 2022-05-17 11:03:25.607
65.0, 5739.257423789194, 15297.153925556413, -39052.65498789013, -23872.378334090514, -9675.265511902036, -4084.155450362617, 2156.675119003668, -1687.5343546312279, 0.06, 0.97, 0.336, 192.0, 0.0, 0.0, 0.0, 0.0, 0.0, 0.0, 0.0, 0.0, 0.0, 1.6527782056071837E9, 0.0, 2022-05-17 11:03:25.607
66.0, 5642.049687153064, 15330.972114917293, -39019.686164818544, -23830.737034170277, -9672.650357800765, -4036.926214328553, 2195.3659886558044, -1597.3674174985192, 0.06, 0.97, 0.336, 192.0, 0.0, 0.0, 0.0, 0.0, 0.0, 0.0, 0.0, 0.0, 0.0, 1.652778205607193E9, 0.0, 2022-05-17 11:03:25.607
67.0, 5607.4491867362485, 15404.91168557545, -38898.3832476596, -23710.037614111618, -9573.229798463559, -3942.221873071417, 2287.321065344938, -1578.3013794781423, 0.06, 0.97, 0.336, 192.0, 0.0, 0.0, 0.0, 0.0, 0.0, 0.0, 0.0, 0.0, 0.0, 1.652778205607201E9, 0.0, 2022-05-17 11:03:25.607
68.0, 5712.502385676192, 15443.2449273163, -38856.42902331698, -23675.16889276134, -9513.528289023434, -3922.664096673024, 2310.209251667172, -1645.3342610996083, 0.032, 0.9500000000000001, 0.34600000000000003, 192.0, 1.0, 0.0, 29.0, 176.0, 10.0, 208.0, 0.0, 0.0, 0.0, 1.6527782056072102E9, 0.0, 2022-05-17 11:03:25.607
69.0, 5849.876207098509, 15446.217709328856, -38907.0333727638, -23729.37187306546, -9538.718705024565, -3975.6377310321013, 2262.085945854896, -1703.918183316968, 0.032, 0.9500000000000001, 0.34600000000000003, 192.0, 0.0, 0.0, 0.0, 0.0, 0.0, 0.0, 0.0, 0.0, 0.0, 1.652778205607218E9, 0.0, 2022-05-17 11:03:25.607
70.0, 5854.011279822741, 15433.857194645072, -38982.023475411355, -23799.51164716621, -9601.840031366353, -4035.2721852388604, 2227.8207216049104, -1668.0212817217448, 0.032, 0.9500000000000001, 0.34600000000000003, 192.0, 0.0, 0.0, 0.0, 0.0, 0.0, 0.0, 0.0, 0.0, 0.0, 1.6527782056072268E9, 0.0, 2022-05-17 11:03:25.607
71.0, 5739.65975518939, 15456.119532122557, -38954.88845764261, -23764.821739771574, -9611.116005315305, -4000.6046295886795, 2247.4455532366696, -1605.1681763134213, 0.032, 0.9500000000000001, 0.34600000000000003, 192.0, 0.0, 0.0, 0.0, 0.0, 0.0, 0.0, 0.0, 0.0, 0.0, 1.6527782056072376E9, 0.0, 2022-05-17 11:03:25.607
72.0, 5707.428539684837, 15536.116425528102, -38825.74007817985, -23633.549944585557, -9516.635181502723, -3876.127764717074, 2317.7641412930657, -1583.2634667472205, 0.032, 0.9500000000000001, 0.34600000000000003, 192.0, 0.0, 0.0, 0.0, 0.0, 0.0, 0.0, 0.0, 0.0, 0.0, 1.6527782056072495E9, 0.0, 2022-05-17 11:03:25.607
73.0, 5804.43511062087, 15575.679013213994, -38763.31165591618, -23591.930996409774, -9435.58775610778, -3841.974299189365, 2374.3140547649928, -1642.7191069983373, 0.032, 0.9500000000000001, 0.34600000000000003, 192.0, 0.0, 0.0, 0.0, 0.0, 0.0, 0.0, 0.0, 0.0, 0.0, 1.6527782056072583E9, 0.0, 2022-05-17 11:03:25.607
74.0, 5937.070362218662, 15583.256254584343, -38795.47581618736, -23624.96687471472, -9439.05227649835, -3892.645703869546, 2397.38105504287, -1679.3312644161301, 0.032, 0.9500000000000001, 0.34600000000000003, 192.0, 0.0, 0.0, 0.0, 0.0, 0.0, 0.0, 0.0, 0.0, 0.0, 1.6527782056072657E9, 0.0, 2022-05-17 11:03:25.607
75.0, 5964.361842198592, 15574.203798079945, -38861.771090241804, -23681.606195164466, -9503.224134829537, -3942.557149238247, 2353.5269324215574, -1616.120531096522, 0.032, 0.9500000000000001, 0.34600000000000003, 192.0, 0.0, 0.0, 0.0, 0.0, 0.0, 0.0, 0.0, 0.0, 0.0, 1.6527782056072729E9, 0.0, 2022-05-17 11:03:25.607
76.0, 5869.25516954126, 15602.925789705014, -38832.82558117218, -23648.167985459328, -9503.090024362806, -3908.4483871994485, 2386.0263688595737, -1568.4666119178073, 0.032, 0.9500000000000001, 0.34600000000000003, 192.0, 0.0, 0.0, 0.0, 0.0, 0.0, 0.0, 0.0, 0.0, 0.0, 1.652778205607282E9, 0.0, 2022-05-17 11:03:25.607
77.0, 5837.850968581554, 15683.123848810656, -38711.70147796887, -23527.826193311954, -9400.473165568492, -3792.0628538206643, 2502.9259923608297, -1545.2207976842878, 0.032, 0.9500000000000001, 0.34600000000000003, 192.0, 0.0, 0.0, 0.0, 0.0, 0.0, 0.0, 0.0, 0.0, 0.0, 1.65277820560729E9, 0.0, 2022-05-17 11:03:25.607
78.0, 5943.552368110701, 15732.677666268071, -38650.65886386143, -23481.60278577838, -9326.980629799442, -3755.607158614059, 2534.5090072761786, -1553.3568326660197, -0.006, 0.932, 0.354, 192.0, 255.0, 208.0, 29.0, 32.0, 11.0, 16.0, 0.0, 0.0, 0.0, 1.6527782056072989E9, 0.0, 2022-05-17 11:03:25.607
79.0, 6064.609416080644, 15713.63397999215, -38706.67233546643, -23543.47241443067, -9358.98832785944, -3816.0239238767535, 2442.7997997760535, -1591.377149984497, -0.006, 0.932, 0.354, 192.0, 0.0, 0.0, 0.0, 0.0, 0.0, 0.0, 0.0, 0.0, 0.0, 1.6527782056073065E9, 0.0, 2022-05-17 11:03:25.607
80.0, 6073.170134207026, 15661.844988089204, -38815.59238619714, -23647.922116270318, -9461.091096531283, -3905.9002883315434, 2331.8010368109985, -1581.2518097462428, -0.006, 0.932, 0.354, 192.0, 0.0, 0.0, 0.0, 0.0, 0.0, 0.0, 0.0, 0.0, 0.0, 1.6527782056073132E9, 0.0, 2022-05-17 11:03:25.607
81.0, 6002.04688335024, 15693.91974138257, -38781.19305148042, -23608.71715649571, -9453.49150341648, -3875.9713025058873, 2417.944659941752, -1549.2888151751538, -0.006, 0.932, 0.354, 192.0, 0.0, 0.0, 0.0, 0.0, 0.0, 0.0, 0.0, 0.0, 0.0, 1.6527782056073208E9, 0.0, 2022-05-17 11:03:25.607
82.0, 5933.359972639081, 15744.54644257384, -38681.347808998566, -23510.213018681174, -9374.388679789148, -3783.1221560385416, 2509.5644604640556, -1554.5638268666062, -0.006, 0.932, 0.354, 192.0, 0.0, 0.0, 0.0, 0.0, 0.0, 0.0, 0.0, 0.0, 0.0, 1.6527782056073408E9, 0.0, 2022-05-17 11:03:25.607
83.0, 6008.1265578420835, 15771.904977787135, -38643.796878313646, -23477.512416543057, -9328.522900166858, -3756.970615025832, 2522.707286203776, -1538.6270330699722, -0.006, 0.932, 0.354, 192.0, 0.0, 0.0, 0.0, 0.0, 0.0, 0.0, 0.0, 0.0, 0.0, 1.6527782056073477E9, 0.0, 2022-05-17 11:03:25.607
84.0, 6119.97468709644, 15753.531843844874, -38710.002745390266, -23546.7581208656, -9373.628720477667, -3812.7829209307342, 2444.364421887925, -1539.0517162146232, -0.006, 0.932, 0.354, 192.0, 0.0, 0.0, 0.0, 0.0, 0.0, 0.0, 0.0, 0.0, 0.0, 1.6527782056073549E9, 0.0, 2022-05-17 11:03:25.607
85.0, 6125.607326699177, 15703.553343242807, -38810.25031927232, -23642.803566790055, -9467.617805912234, -3884.554372376725, 2362.4452784592245, -1489.0508638681013, -0.006, 0.932, 0.354, 192.0, 0.0, 0.0, 0.0, 0.0, 0.0, 0.0, 0.0, 0.0, 0.0, 1.6527782056073623E9, 0.0, 2022-05-17 11:03:25.607
86.0, 6017.670752724499, 15688.421212246563, -38818.8110373987, -23642.378883645404, -9506.040454630907, -3885.6049043661246, 2355.359775466892, -1446.314328469554, -0.006, 0.932, 0.354, 192.0, 0.0, 0.0, 0.0, 0.0, 0.0, 0.0, 0.0, 0.0, 0.0, 1.652778205607374E9, 0.0, 2022-05-17 11:03:25.607
87.0, 5950.79433331422, 15734.085826168755, -38728.75585898827, -23551.89902209032, -9441.242747454971, -3811.911202896977, 2427.8911862243635, -1461.2229420212439, -0.006, 0.932, 0.354, 192.0, 0.0, 0.0, 0.0, 0.0, 0.0, 0.0, 0.0, 0.0, 0.0, 1.6527782056073818E9, 0.0, 2022-05-17 11:03:25.607
88.0, 6012.6416102220555, 15748.614460064706, -38696.14466382798, -23531.17895498025, -9399.422633579092, -3801.271772536251, 2466.4479454097686, -1560.5764461250837, -0.032, 0.934, 0.352, 192.0, 255.0, 0.0, 29.0, 48.0, 11.0, 0.0, 0.0, 0.0, 0.0, 1.6527782056073887E9, 0.0, 2022-05-17 11:03:25.607
89.0, 6132.223443057948, 15733.012942434902, -38755.399138379, -23596.714269723212, -9420.76854953391, -3853.3736888615717, 2417.2517558636378, -1643.7696389877367, -0.032, 0.934, 0.352, 192.0, 0.0, 0.0, 0.0, 0.0, 0.0, 0.0, 0.0, 0.0, 0.0, 1.6527782056073956E9, 0.0, 2022-05-17 11:03:25.607
90.0, 6130.658820946076, 15685.090802322722, -38872.187003157975, -23705.455506498278, -9519.496204793002, -3931.7612566663333, 2308.018780710552, -1615.829958418603, -0.032, 0.934, 0.352, 192.0, 0.0, 0.0, 0.0, 0.0, 0.0, 0.0, 0.0, 0.0, 0.0, 1.6527782056074047E9, 0.0, 2022-05-17 11:03:25.607
91.0, 6002.695083939444, 15656.346458953198, -38899.92551802701, -23705.679023942834, -9570.502885640011, -3929.839006643177, 2279.9896931635967, -1505.2111751092882, -0.032, 0.934, 0.352, 192.0, 0.0, 0.0, 0.0, 0.0, 0.0, 0.0, 0.0, 0.0, 0.0, 1.6527782056074123E9, 0.0, 2022-05-17 11:03:25.607
92.0, 5930.498949348802, 15690.835200647736, -38820.37565951057, -23606.839609961466, -9513.282419834426, -3849.8868167265437, 2359.584255168945, -1465.8721048679479, -0.032, 0.934, 0.352, 192.0, 0.0, 0.0, 0.0, 0.0, 0.0, 0.0, 0.0, 0.0, 0.0, 1.65277820560742E9, 0.0, 2022-05-17 11:03:25.607
93.0, 6007.545412486245, 15715.958561415502, -38783.405874181495, -23577.581176469466, -9461.180503509106, -3845.528226557759, 2385.556982226012, -1572.2664084752093, -0.032, 0.934, 0.352, 192.0, 0.0, 0.0, 0.0, 0.0, 0.0, 0.0, 0.0, 0.0, 0.0, 1.652778205607426E9, 0.0, 2022-05-17 11:03:25.607
94.0, 6116.197242283492, 15699.753546685404, -38840.64869173154, -23639.78608128859, -9486.661492188156, -3905.095625531152, 2343.1333712498395, -1665.3837758760187, -0.032, 0.934, 0.352, 192.0, 0.0, 0.0, 0.0, 0.0, 0.0, 0.0, 0.0, 0.0, 0.0, 1.652778205607432E9, 0.0, 2022-05-17 11:03:25.607
95.0, 6099.768710108842, 15643.33774368021, -38955.84958265419, -23743.475823816756, -9574.74971708652, -3986.970065470942, 2254.9780911181083, -1619.629754976005, -0.032, 0.934, 0.352, 192.0, 0.0, 0.0, 0.0, 0.0, 0.0, 0.0, 0.0, 0.0, 0.0, 1.652778205607438E9, 0.0, 2022-05-17 11:03:25.607
96.0, 5942.948871010408, 15604.848039728171, -38983.92337369006, -23756.976277467762, -9626.941040389662, -3984.7348910254113, 2225.9655268151196, -1535.7213062907824, -0.032, 0.934, 0.352, 192.0, 0.0, 0.0, 0.0, 0.0, 0.0, 0.0, 0.0, 0.0, 0.0, 1.652778205607444E9, 0.0, 2022-05-17 11:03:25.607
97.0, 5891.115175618551, 15650.2444327169, -38895.58927960268, -23657.958049530753, -9557.6059290893, -3900.20059349544, 2308.734036533122, -1530.1333701769556, -0.032, 0.934, 0.352, 192.0, 0.0, 0.0, 0.0, 0.0, 0.0, 0.0, 0.0, 0.0, 0.0, 1.6527782056074495E9, 0.0, 2022-05-17 11:03:25.607
98.0, 5970.6203306460775, 15674.116095795167, -38856.63018901708, -23619.66951127881, -9505.392254041702, -3898.7700818503004, 2358.9360545797413, -1623.6530689779604, -0.014, 0.92, 0.34800000000000003, 192.0, 255.0, 144.0, 28.0, 192.0, 10.0, 224.0, 0.0, 0.0, 0.0, 1.6527782056074555E9, 0.0, 2022-05-17 11:03:25.607
99.0, 6052.025383952307, 15648.344534438198, -38905.826378563215, -23675.59357590599, -9531.320277609859, -3956.1246581226183, 2278.246257096083, -1674.279770169231, -0.014, 0.92, 0.34800000000000003, 192.0, 0.0, 0.0, 0.0, 0.0, 0.0, 0.0, 0.0, 0.0, 0.0, 1.652778205607462E9, 0.0, 2022-05-17 11:03:25.607
100.0, 6039.664869268521, 15603.596342038672, -39001.26832738738, -23765.313478149594, -9613.015903594007, -4031.2488712369054, 2165.839334230344, -1601.7707111562147, -0.014, 0.92, 0.34800000000000003, 192.0, 0.0, 0.0, 0.0, 0.0, 0.0, 0.0, 0.0, 0.0, 0.0, 1.652778205607468E9, 0.0, 2022-05-17 11:03:25.607
101.0, 5916.4397020864135, 15584.55265576275, -39008.644403057624, -23762.430103114857, -9648.62223251131, -4028.3431444577154, 2178.0210349584863, -1531.4521230998187, -0.014, 0.92, 0.34800000000000003, 192.0, 0.0, 0.0, 0.0, 0.0, 0.0, 0.0, 0.0, 0.0, 0.0, 1.652778205607474E9, 0.0, 2022-05-17 11:03:25.607
102.0, 5832.419494678914, 15601.919961204525, -38933.363727732154, -23688.758753390164, -9594.799231862931, -3966.6970332499786, 2274.3570535608596, -1547.634786085461, -0.014, 0.92, 0.34800000000000003, 192.0, 0.0, 0.0, 0.0, 0.0, 0.0, 0.0, 0.0, 0.0, 0.0, 1.6527782056074798E9, 0.0, 2022-05-17 11:03:25.607
103.0, 5916.484405575324, 15643.002467513379, -38868.633075789585, -23637.97558998771, -9520.591440271312, -3924.7875123962776, 2327.0624669864737, -1644.7307639993148, -0.014, 0.92, 0.34800000000000003, 192.0, 0.0, 0.0, 0.0, 0.0, 0.0, 0.0, 0.0, 0.0, 0.0, 1.6527782056074853E9, 0.0, 2022-05-17 11:03:25.607
104.0, 6047.264462383326, 15648.523348393841, -38898.047971492764, -23677.895805584885, -9531.74496075451, -3956.3705273116266, 2280.6825972417114, -1686.7967470642027, -0.014, 0.92, 0.34800000000000003, 192.0, 0.0, 0.0, 0.0, 0.0, 0.0, 0.0, 0.0, 0.0, 0.0, 1.6527782056074908E9, 0.0, 2022-05-17 11:03:25.607
105.0, 6046.370392605114, 15591.32523433271, -38999.74840876441, -23778.456303889314, -9627.43277876768, -4052.997118591919, 2167.247494131028, -1655.8619327380577, -0.014, 0.92, 0.34800000000000003, 192.0, 0.0, 0.0, 0.0, 0.0, 0.0, 0.0, 0.0, 0.0, 0.0, 1.6527782060865886E9, 0.0, 2022-05-17 11:03:26.086
106.0, 5920.530071321735, 15564.167864819512, -39018.43446712905, -23784.692440592342, -9671.711584533643, -4072.9572263905084, 2138.6372612282353, -1622.3790195440079, -0.014, 0.92, 0.34800000000000003, 192.0, 0.0, 0.0, 0.0, 0.0, 0.0, 0.0, 0.0, 0.0, 0.0, 1.6527782060867453E9, 0.0, 2022-05-17 11:03:26.086
107.0, 5831.637183622978, 15594.432126811997, -38927.93225382951, -23697.028898838627, -9607.606781435821, -3996.201335930984, 2193.823718288388, -1625.955298656857, -0.028, 0.966, 0.356, 192.0, 255.0, 32.0, 30.0, 48.0, 11.0, 32.0, 0.0, 0.0, 0.0, 1.65277820608679E9, 0.0, 2022-05-17 11:03:26.086
108.0, 5876.251265555771, 15602.94814144947, -38880.367741628615, -23670.653840381365, -9559.192902945626, -3970.206257129462, 2217.8071400889326, -1678.079566726633, -0.028, 0.966, 0.356, 192.0, 0.0, 0.0, 0.0, 0.0, 0.0, 0.0, 0.0, 0.0, 0.0, 1.6527782060867977E9, 0.0, 2022-05-17 11:03:26.086
109.0, 5983.89726685253, 15591.101716888157, -38919.21507349194, -23719.827678183043, -9591.312359727903, -4008.2042227034835, 2179.898581492732, -1711.8977560875126, -0.028, 0.966, 0.356, 192.0, 0.0, 0.0, 0.0, 0.0, 0.0, 0.0, 0.0, 0.0, 0.0, 1.652778206086804E9, 0.0, 2022-05-17 11:03:26.086
110.0, 5987.8758773655745, 15551.226204779889, -39008.800865268815, -23803.870237334995, -9661.273319873015, -4068.1068978437065, 2126.701429689101, -1656.3983746049853, -0.028, 0.966, 0.356, 192.0, 0.0, 0.0, 0.0, 0.0, 0.0, 0.0, 0.0, 0.0, 0.0, 1.6527782060868096E9, 0.0, 2022-05-17 11:03:26.086
111.0, 5860.806210137154, 15519.419672419986, -39033.23132195846, -23817.057766563627, -9696.902000534774, -4086.390624808148, 2109.9823248365315, -1592.6735511629047, -0.028, 0.966, 0.356, 192.0, 0.0, 0.0, 0.0, 0.0, 0.0, 0.0, 0.0, 0.0, 0.0, 1.6527782060868168E9, 0.0, 2022-05-17 11:03:26.086
112.0, 5761.0056711442085, 15535.870556339092, -38967.271324070854, -23744.41459708388, -9644.442456298168, -4038.267318995872, 2163.4253458291705, -1609.79498741567, -0.028, 0.966, 0.356, 192.0, 0.0, 0.0, 0.0, 0.0, 0.0, 0.0, 0.0, 0.0, 0.0, 1.6527782060868227E9, 0.0, 2022-05-17 11:03:26.086
113.0, 5846.277576241205, 15586.743126719372, -38899.61259360464, -23679.572186419035, -9572.13456298525, -3997.1848126870173, 2229.541805927969, -1695.2904099572195, -0.028, 0.966, 0.356, 192.0, 0.0, 0.0, 0.0, 0.0, 0.0, 0.0, 0.0, 0.0, 0.0, 1.6527782060868292E9, 0.0, 2022-05-17 11:03:26.086
114.0, 5963.624234631567, 15586.810181952738, -38935.107163799665, -23720.654692727887, -9590.172420760682, -4025.862100823176, 2184.5477443394357, -1752.265006573797, -0.028, 0.966, 0.356, 192.0, 0.0, 0.0, 0.0, 0.0, 0.0, 0.0, 0.0, 0.0, 0.0, 1.652778206086835E9, 0.0, 2022-05-17 11:03:26.086
115.0, 5963.981862542852, 15541.88317559757, -39030.8620370462, -23806.08306003607, -9673.633834556798, -4090.3021800878264, 2101.376903221238, -1697.369122191563, -0.028, 0.966, 0.356, 192.0, 0.0, 0.0, 0.0, 0.0, 0.0, 0.0, 0.0, 0.0, 0.0, 1.6527782060868406E9, 0.0, 2022-05-17 11:03:26.086
116.0, 5836.733381358788, 15515.30695144021, -39056.23126700297, -23817.504801452735, -9711.475337919634, -4076.935836903553, 2077.0805569983195, -1596.0486645756562, -0.028, 0.966, 0.356, 192.0, 0.0, 0.0, 0.0, 0.0, 0.0, 0.0, 0.0, 0.0, 0.0, 1.6527782060868466E9, 0.0, 2022-05-17 11:03:26.086
117.0, 5739.570348211569, 15532.160166759511, -38994.29458311732, -23751.008361698194, -9671.10808743335, -4027.851406079699, 2123.862758143277, -1584.828088859092, -0.026000000000000002, 0.982, 0.366, 192.0, 255.0, 48.0, 30.0, 176.0, 11.0, 112.0, 0.0, 0.0, 0.0, 1.6527782060868523E9, 0.0, 2022-05-17 11:03:26.086
118.0, 5807.407892633426, 15562.871463641104, -38954.061443097766, -23717.301931059592, -9619.609668208323, -4006.259620935872, 2149.7460782225226, -1666.5684183321498, -0.026000000000000002, 0.982, 0.366, 192.0, 0.0, 0.0, 0.0, 0.0, 0.0, 0.0, 0.0, 0.0, 0.0, 1.6527782060868585E9, 0.0, 2022-05-17 11:03:26.086
119.0, 5937.606804085589, 15553.483730969874, -38997.04384768532, -23767.883928761952, -9632.774845692498, -4061.669595440578, 2127.1931680671178, -1743.301957047219, -0.026000000000000002, 0.982, 0.366, 192.0, 0.0, 0.0, 0.0, 0.0, 0.0, 0.0, 0.0, 0.0, 0.0, 1.6527782060868645E9, 0.0, 2022-05-17 11:03:26.086
120.0, 5959.511513651791, 15516.3127799407, -39073.21859278901, -23837.554316229143, -9696.119689478837, -4118.800654268343, 2116.4643307285705, -1690.7977093217028, -0.026000000000000002, 0.982, 0.366, 192.0, 0.0, 0.0, 0.0, 0.0, 0.0, 0.0, 0.0, 0.0, 0.0, 1.6527782060868702E9, 0.0, 2022-05-17 11:03:26.086
121.0, 5802.088177453063, 15484.752116769805, -39094.363343043726, -23847.34438030057, -9743.058352834983, -4122.1981194255495, 2105.8472521122994, -1603.4917954792734, -0.026000000000000002, 0.982, 0.366, 192.0, 0.0, 0.0, 0.0, 0.0, 0.0, 0.0, 0.0, 0.0, 0.0, 1.652778206086877E9, 0.0, 2022-05-17 11:03:26.086
122.0, 5680.897019016388, 15480.125305667558, -39043.69193836355, -23796.04712677564, -9710.357750696869, -4074.745365946933, 2145.90157817621, -1617.7522084417592, -0.026000000000000002, 0.982, 0.366, 192.0, 0.0, 0.0, 0.0, 0.0, 0.0, 0.0, 0.0, 0.0, 0.0, 1.6527782060868828E9, 0.0, 2022-05-17 11:03:26.086
123.0, 5741.2243773012615, 15499.548971599219, -39001.33538262074, -23764.79938802712, -9657.115895404328, -4027.9855165464305, 2194.5836775998687, -1709.8413955976243, -0.026000000000000002, 0.982, 0.366, 192.0, 0.0, 0.0, 0.0, 0.0, 0.0, 0.0, 0.0, 0.0, 0.0, 1.6527782060868893E9, 0.0, 2022-05-17 11:03:26.086
124.0, 5881.012187124752, 15511.127175227068, -39015.0593537163, -23791.442667417847, -9648.376363322302, -4070.0514996113184, 2194.5613258554135, -1772.2251143723863, -0.026000000000000002, 0.982, 0.366, 192.0, 0.0, 0.0, 0.0, 0.0, 0.0, 0.0, 0.0, 0.0, 0.0, 1.652778206086896E9, 0.0, 2022-05-17 11:03:26.086
125.0, 5898.044216399696, 15474.336203853632, -39100.21950009102, -23874.278232369215, -9722.651210147287, -4146.047430759362, 2124.287441287928, -1716.301049745208, -0.026000000000000002, 0.982, 0.366, 192.0, 0.0, 0.0, 0.0, 0.0, 0.0, 0.0, 0.0, 0.0, 0.0, 1.6527782060869033E9, 0.0, 2022-05-17 11:03:26.086
126.0, 5763.129086867462, 15433.834842900616, -39137.703375542565, -23897.009956480262, -9773.769649716574, -4162.028928044907, 2077.6617023541576, -1632.8172842046363, -0.026000000000000002, 0.982, 0.366, 192.0, 0.0, 0.0, 0.0, 0.0, 0.0, 0.0, 0.0, 0.0, 0.0, 1.6527782060869093E9, 0.0, 2022-05-17 11:03:26.086
127.0, 5665.183742664307, 15445.748322695295, -39068.59178168676, -23825.104394567537, -9735.324649253447, -4099.6675610146, 2131.0823716023415, -1643.5461215431835, -0.026000000000000002, 0.96, 0.37, 192.0, 255.0, 48.0, 30.0, 0.0, 11.0, 144.0, 0.0, 0.0, 0.0, 1.6527782060869155E9, 0.0, 2022-05-17 11:03:26.086
128.0, 5754.322499552071, 15496.464430864387, -39001.044809942825, -23766.632231072454, -9666.213055397637, -4053.846484881221, 2179.205677414617, -1732.7966371532248, -0.026000000000000002, 0.96, 0.37, 192.0, 0.0, 0.0, 0.0, 0.0, 0.0, 0.0, 0.0, 0.0, 0.0, 1.652778206086929E9, 0.0, 2022-05-17 11:03:26.086
129.0, 5898.625361755534, 15525.432291678464, -39006.0068972119, -23776.735219566253, -9648.53282553349, -4069.291540299838, 2148.248511344017, -1800.008332730333, -0.026000000000000002, 0.96, 0.37, 192.0, 0.0, 0.0, 0.0, 0.0, 0.0, 0.0, 0.0, 0.0, 0.0, 1.6527782060869353E9, 0.0, 2022-05-17 11:03:26.086
130.0, 5894.199716353383, 15476.213750387878, -39095.0785988663, -23864.219947364327, -9717.912640322762, -4132.591680597267, 2062.1048882132636, -1756.7800589537692, -0.026000000000000002, 0.96, 0.37, 192.0, 0.0, 0.0, 0.0, 0.0, 0.0, 0.0, 0.0, 0.0, 0.0, 1.6527782060869408E9, 0.0, 2022-05-17 11:03:26.086
131.0, 5761.586816500047, 15436.181776068423, -39125.767544003436, -23886.795209264186, -9760.448010021211, -4151.434201173091, 2046.0786874388086, -1681.2088109503761, -0.026000000000000002, 0.96, 0.37, 192.0, 0.0, 0.0, 0.0, 0.0, 0.0, 0.0, 0.0, 0.0, 0.0, 1.6527782060869467E9, 0.0, 2022-05-17 11:03:26.086
132.0, 5673.900923001876, 15444.407218027976, -39065.93192409658, -23829.73120566979, -9721.600678157887, -4093.8114039673096, 2112.441016726615, -1678.7501190602923, -0.026000000000000002, 0.96, 0.37, 192.0, 0.0, 0.0, 0.0, 0.0, 0.0, 0.0, 0.0, 0.0, 0.0, 1.6527782060869534E9, 0.0, 2022-05-17 11:03:26.086
133.0, 5734.675316175856, 15479.991195200826, -39006.23041465645, -23780.065629490095, -9665.140171663783, -4074.097165357729, 2163.894732462732, -1754.9919193973446, -0.026000000000000002, 0.96, 0.37, 192.0, 0.0, 0.0, 0.0, 0.0, 0.0, 0.0, 0.0, 0.0, 0.0, 1.652778206086959E9, 0.0, 2022-05-17 11:03:26.086
134.0, 5845.987003563286, 15491.189419172933, -39023.95534800951, -23806.351280969535, -9666.280110631003, -4104.964924450508, 2140.313642062383, -1808.5019956233498, -0.026000000000000002, 0.96, 0.37, 192.0, 0.0, 0.0, 0.0, 0.0, 0.0, 0.0, 0.0, 0.0, 0.0, 1.6527782060869648E9, 0.0, 2022-05-17 11:03:26.086
135.0, 5855.754715890255, 15448.475235518843, -39109.339011828786, -23893.05369771167, -9724.953439826184, -4169.963797326541, 2046.033983949898, -1758.2105705989088, -0.026000000000000002, 0.96, 0.37, 192.0, 0.0, 0.0, 0.0, 0.0, 0.0, 0.0, 0.0, 0.0, 0.0, 1.6527782060869703E9, 0.0, 2022-05-17 11:03:26.086
136.0, 5718.827929357044, 15406.319845476133, -39146.97934949152, -23921.77568933674, -9780.072841652971, -4167.125125780717, 2000.771701427901, -1685.7015115858928, -0.026000000000000002, 0.96, 0.37, 192.0, 0.0, 0.0, 0.0, 0.0, 0.0, 0.0, 0.0, 0.0, 0.0, 1.6527782060869768E9, 0.0, 2022-05-17 11:03:26.086
137.0, 5620.547308987058, 15424.62592418503, -39078.38184575819, -23853.491110025778, -9746.925204625752, -4085.7200724744885, 2108.060074813375, -1691.177688977443, -0.034, 0.964, 0.39, 192.0, 254.0, 240.0, 30.0, 32.0, 12.0, 48.0, 0.0, 0.0, 0.0, 1.652778206086983E9, 0.0, 2022-05-17 11:03:26.086
138.0, 5719.3867229684265, 15475.789067243228, -39003.257632643894, -23783.306632436113, -9662.77088675152, -4092.090319644251, 2180.345616381838, -1775.0861376626656, -0.034, 0.964, 0.39, 192.0, 0.0, 0.0, 0.0, 0.0, 0.0, 0.0, 0.0, 0.0, 0.0, 1.6527782060869884E9, 0.0, 2022-05-17 11:03:26.086
139.0, 5862.661404926945, 15490.138887183535, -39015.30522290531, -23806.70890888082, -9650.633889512288, -4114.732636777477, 2146.907406676699, -1842.811923362246, -0.034, 0.964, 0.39, 192.0, 0.0, 0.0, 0.0, 0.0, 0.0, 0.0, 0.0, 0.0, 0.0, 1.6527782060869944E9, 0.0, 2022-05-17 11:03:26.086
140.0, 5878.7546609347655, 15458.175892612446, -39098.25254657895, -23882.10134292857, -9728.395608472301, -4142.046468501862, 2058.349795144772, -1755.0813263751659, -0.034, 0.964, 0.39, 192.0, 0.0, 0.0, 0.0, 0.0, 0.0, 0.0, 0.0, 0.0, 0.0, 1.652778206087001E9, 0.0, 2022-05-17 11:03:26.087
141.0, 5742.923109879865, 15421.250810772279, -39132.808343506855, -23902.776706549732, -9788.544152801533, -4158.407945443148, 1988.2994280218397, -1630.6491649924715, -0.034, 0.964, 0.39, 192.0, 0.0, 0.0, 0.0, 0.0, 0.0, 0.0, 0.0, 0.0, 0.0, 1.6527782060870073E9, 0.0, 2022-05-17 11:03:26.087
142.0, 5620.703771198246, 15417.540421192698, -39079.99117135897, -23858.073217639118, -9749.853283149396, -4115.000857710941, 2052.292472397384, -1652.151543158477, -0.034, 0.964, 0.39, 192.0, 0.0, 0.0, 0.0, 0.0, 0.0, 0.0, 0.0, 0.0, 0.0, 1.6527782060870132E9, 0.0, 2022-05-17 11:03:26.087
143.0, 5686.440251641304, 15462.802703714695, -39012.53360659285, -23805.85954259152, -9678.975901481617, -4078.1428311041395, 2153.121191635274, -1752.1979513404312, -0.034, 0.964, 0.39, 192.0, 0.0, 0.0, 0.0, 0.0, 0.0, 0.0, 0.0, 0.0, 0.0, 1.6527782060870187E9, 0.0, 2022-05-17 11:03:26.087
144.0, 5833.3806196904925, 15487.076698193157, -39018.74739155143, -23818.398871230947, -9663.10616291835, -4082.0543863838184, 2151.4224590566705, -1806.8032630447465, -0.034, 0.964, 0.39, 192.0, 0.0, 0.0, 0.0, 0.0, 0.0, 0.0, 0.0, 0.0, 0.0, 1.6527782060870247E9, 0.0, 2022-05-17 11:03:26.087
