%OpenBCI Raw EEG Data
%Number of channels = 8
%Sample Rate = 250 Hz
%Board = OpenBCI_GUI$BoardCytonSerial
Sample Index, EXG Channel 0, EXG Channel 1, EXG Channel 2, EXG Channel 3, EXG Channel 4, EXG Channel 5, EXG Channel 6, EXG Channel 7, Accel Channel 0, Accel Channel 1, Accel Channel 2, Other, Other, Other, Other, Other, Other, Other, Analog Channel 0, Analog Channel 1, Analog Channel 2, Timestamp, Other, Timestamp (Formatted)
0.0, 0.0, 0.0, 0.0, 0.0, 0.0, 0.0, 0.0, 0.0, 0.0, 0.0, 0.0, 192.0, 0.0, 0.0, 0.0, 0.0, 0.0, 0.0, 0.0, 0.0, 0.0, 1.6541565855110102E9, 0.0, 2022-06-02 09:56:25.511
1.0, 23941.422872712956, 451.48288625274733, -74501.22529282872, -54322.71859916671, -39302.86041532283, -39980.65471418556, -8536.533538881962, -46366.749270766886, 0.012, 0.806, 0.614, 192.0, 0.0, 96.0, 25.0, 48.0, 19.0, 48.0, 0.0, 0.0, 0.0, 1.654156585993281E9, 0.0, 2022-06-02 09:56:25.993
2.0, 23941.869907602064, 455.1932758323283, -74492.35165027996, -54313.59908742894, -39294.74673208556, -39974.105653060156, -8537.941698782646, -46364.4917445769, 0.012, 0.806, 0.614, 192.0, 0.0, 0.0, 0.0, 0.0, 0.0, 0.0, 0.0, 0.0, 0.0, 1.654156585993318E9, 0.0, 2022-06-02 09:56:25.993
3.0, 23953.716332163374, 455.37208978797076, -74498.76660093863, -54313.755549640126, -39291.63983960627, -39969.277676257814, -8541.40621917322, -46382.86487851917, 0.012, 0.806, 0.614, 192.0, 0.0, 0.0, 0.0, 0.0, 0.0, 0.0, 0.0, 0.0, 0.0, 1.654156585993324E9, 0.0, 2022-06-02 09:56:25.993
4.0, 23941.31111399068, 435.6131476894793, -74540.56436307007, -54350.01007914664, -39324.295738255474, -40006.02394414234, -8589.015434863024, -46450.18833281855, 0.012, 0.806, 0.614, 192.0, 0.0, 0.0, 0.0, 0.0, 0.0, 0.0, 0.0, 0.0, 0.0, 1.65415658599333E9, 0.0, 2022-06-02 09:56:25.993
5.0, 23929.35293070709, 426.6948016518118, -74543.31362763807, -54357.76613447263, -39337.706784928654, -40020.954909438486, -8599.051368123457, -46451.32827178577, 0.012, 0.806, 0.614, 192.0, 0.0, 0.0, 0.0, 0.0, 0.0, 0.0, 0.0, 0.0, 0.0, 1.6541565859933355E9, 0.0, 2022-06-02 09:56:25.993
6.0, 23929.73291036283, 433.1544557993956, -74518.74906048168, -54330.98874461517, -39315.757371873544, -39988.54487997829, -8559.891111837758, -46386.463509376474, 0.012, 0.806, 0.614, 192.0, 0.0, 0.0, 0.0, 0.0, 0.0, 0.0, 0.0, 0.0, 0.0, 1.6541565859933417E9, 0.0, 2022-06-02 09:56:25.993
7.0, 23925.64254112751, 435.32257501156033, -74503.88515041891, -54310.268677505104, -39289.29290643846, -39968.584772179696, -8538.433437160664, -46356.78039273982, 0.012, 0.806, 0.614, 192.0, 0.0, 0.0, 0.0, 0.0, 0.0, 0.0, 0.0, 0.0, 0.0, 1.6541565859933472E9, 0.0, 2022-06-02 09:56:25.993
8.0, 23912.432660154424, 423.69966789480065, -74525.45458381827, -54321.04221833256, -39297.6748106092, -39977.41371123955, -8553.096181523346, -46369.56559056826, 0.02, 0.81, 0.608, 192.0, 0.0, 160.0, 25.0, 80.0, 19.0, 0.0, 0.0, 0.0, 0.0, 1.654156585993353E9, 0.0, 2022-06-02 09:56:25.993
9.0, 23917.707671845874, 419.3634294704711, -74548.36512188496, -54333.2239190607, -39312.73988637208, -39995.92095564854, -8567.446001463652, -46372.73953828091, 0.02, 0.81, 0.608, 192.0, 0.0, 0.0, 0.0, 0.0, 0.0, 0.0, 0.0, 0.0, 0.0, 1.6541565859933589E9, 0.0, 2022-06-02 09:56:25.993
10.0, 23932.862154586575, 430.33813599802687, -74536.71986302374, -54319.25407877613, -39314.17039801722, -39994.043409114296, -8569.323547997898, -46396.36533217017, 0.02, 0.81, 0.608, 192.0, 0.0, 0.0, 0.0, 0.0, 0.0, 0.0, 0.0, 0.0, 0.0, 1.6541565859933643E9, 0.0, 2022-06-02 09:56:25.993
11.0, 23942.249887257803, 444.3303280270491, -74505.9862143977, -54297.818755843495, -39295.909022797234, -39968.785937879795, -8539.59572787234, -46370.30319813528, 0.02, 0.81, 0.608, 192.0, 0.0, 0.0, 0.0, 0.0, 0.0, 0.0, 0.0, 0.0, 0.0, 1.6541565859933703E9, 0.0, 2022-06-02 09:56:25.993
12.0, 23936.505488932788, 443.30214778210495, -74504.15337135237, -54299.24926748864, -39293.807958818434, -39977.81604263974, -8538.858120305315, -46375.24293365991, 0.02, 0.81, 0.608, 192.0, 0.0, 0.0, 0.0, 0.0, 0.0, 0.0, 0.0, 0.0, 0.0, 1.654156585993376E9, 0.0, 2022-06-02 09:56:25.993
13.0, 23943.88156460304, 449.7618019296887, -74509.87541793293, -54297.84110758795, -39302.36867694482, -39986.95790612196, -8567.066021807912, -46411.89979456661, 0.02, 0.81, 0.608, 192.0, 0.0, 0.0, 0.0, 0.0, 0.0, 0.0, 0.0, 0.0, 0.0, 1.6541565859933815E9, 0.0, 2022-06-02 09:56:25.993
14.0, 23938.427738955947, 436.3954587454151, -74545.1911741723, -54330.541709726065, -39336.34332851688, -40012.01421165636, -8605.063987381935, -46461.94535040204, 0.02, 0.81, 0.608, 192.0, 0.0, 0.0, 0.0, 0.0, 0.0, 0.0, 0.0, 0.0, 0.0, 1.6541565859933872E9, 0.0, 2022-06-02 09:56:25.993
15.0, 23941.758148879784, 438.56357795757987, -74535.80344150108, -54328.015962602614, -39339.69609018518, -39996.36799053765, -8589.41776626322, -46390.308009422784, 0.02, 0.81, 0.608, 192.0, 0.0, 0.0, 0.0, 0.0, 0.0, 0.0, 0.0, 0.0, 0.0, 1.6541565859933925E9, 0.0, 2022-06-02 09:56:25.993
16.0, 23947.659009415987, 445.2914530386273, -74507.97551965422, -54308.07820654848, -39313.96923231712, -39974.95501934946, -8540.892129050748, -46336.775581452326, 0.02, 0.81, 0.608, 192.0, 0.0, 0.0, 0.0, 0.0, 0.0, 0.0, 0.0, 0.0, 0.0, 1.654156585993398E9, 0.0, 2022-06-02 09:56:25.993
17.0, 23926.827183583642, 433.914415110876, -74508.9366446658, -54315.83426187447, -39298.837101320874, -39979.09009207369, -8518.92036425118, -46315.07203758622, 0.02, 0.81, 0.608, 192.0, 0.0, 0.0, 0.0, 0.0, 0.0, 0.0, 0.0, 0.0, 0.0, 1.654156585993404E9, 0.0, 2022-06-02 09:56:25.993
18.0, 23920.188715480414, 432.79682788811067, -74517.96674942574, -54324.95377361224, -39295.082008252386, -39974.95501934946, -8538.053457504924, -46356.35570959517, 0.02, 0.8140000000000001, 0.608, 192.0, 0.0, 160.0, 25.0, 112.0, 19.0, 0.0, 0.0, 0.0, 0.0, 1.6541565859934094E9, 0.0, 2022-06-02 09:56:25.993
19.0, 23941.713445390877, 439.301185524605, -74527.71211000826, -54334.85559640594, -39295.64080186377, -39973.79272863778, -8535.93004178167, -46374.50532609288, 0.02, 0.8140000000000001, 0.608, 192.0, 0.0, 0.0, 0.0, 0.0, 0.0, 0.0, 0.0, 0.0, 0.0, 1.6541565859934149E9, 0.0, 2022-06-02 09:56:25.993
20.0, 23938.293628489213, 429.66758366436767, -74531.73542401021, -54344.243329077166, -39308.20248224765, -40001.68770571801, -8544.803684330427, -46377.858087761175, 0.02, 0.8140000000000001, 0.608, 192.0, 0.0, 0.0, 0.0, 0.0, 0.0, 0.0, 0.0, 0.0, 0.0, 1.6541565859934204E9, 0.0, 2022-06-02 09:56:25.993
21.0, 23933.06332028667, 434.04852557760785, -74511.64120574489, -54328.61945970291, -39294.366752429814, -40001.62065048464, -8560.159332771222, -46370.526715579836, 0.02, 0.8140000000000001, 0.608, 192.0, 0.0, 0.0, 0.0, 0.0, 0.0, 0.0, 0.0, 0.0, 0.0, 1.6541565859934258E9, 0.0, 2022-06-02 09:56:25.993
22.0, 23922.714462603864, 434.04852557760785, -74494.72093519222, -54316.3707037414, -39278.76523480001, -39993.462263758454, -8536.39942841523, -46358.769697996344, 0.02, 0.8140000000000001, 0.608, 192.0, 0.0, 0.0, 0.0, 0.0, 0.0, 0.0, 0.0, 0.0, 0.0, 1.6541565859934385E9, 0.0, 2022-06-02 09:56:25.993
23.0, 23922.35683469258, 434.38380174443745, -74498.74424919418, -54319.83522413197, -39276.91004001022, -40003.945231907994, -8517.73572179505, -46358.434421829515, 0.02, 0.8140000000000001, 0.608, 192.0, 0.0, 0.0, 0.0, 0.0, 0.0, 0.0, 0.0, 0.0, 0.0, 1.6541565859934437E9, 0.0, 2022-06-02 09:56:25.993
24.0, 23925.754299849785, 423.36439172797105, -74532.51773506615, -54347.79725644556, -39311.845816593865, -40029.94031070951, -8558.773524614993, -46401.23801246143, 0.02, 0.8140000000000001, 0.608, 192.0, 0.0, 0.0, 0.0, 0.0, 0.0, 0.0, 0.0, 0.0, 0.0, 1.654156585993449E9, 0.0, 2022-06-02 09:56:25.993
25.0, 23931.856326086086, 417.61999340295716, -74543.4924415937, -54360.80597171855, -39324.362793488835, -40057.9023430231, -8604.84046993738, -46443.77338215988, 0.02, 0.8140000000000001, 0.608, 192.0, 0.0, 0.0, 0.0, 0.0, 0.0, 0.0, 0.0, 0.0, 0.0, 1.6541565859934542E9, 0.0, 2022-06-02 09:56:25.993
26.0, 23932.325712719645, 425.21958651776157, -74524.26994136214, -54350.14418961337, -39302.05575252244, -40049.09575570771, -8584.79095516097, -46429.20004477502, 0.02, 0.8140000000000001, 0.608, 192.0, 0.0, 0.0, 0.0, 0.0, 0.0, 0.0, 0.0, 0.0, 0.0, 1.6541565859934595E9, 0.0, 2022-06-02 09:56:25.993
27.0, 23932.437471441925, 441.98339485924186, -74503.97455739672, -54335.7273144397, -39283.9731912581, -40034.500066578395, -8563.98148107308, -46373.544201081306, 0.01, 0.8140000000000001, 0.606, 192.0, 0.0, 80.0, 25.0, 112.0, 18.0, 240.0, 0.0, 0.0, 0.0, 1.6541565859934647E9, 0.0, 2022-06-02 09:56:25.993
28.0, 23931.476346430343, 434.1379325554291, -74511.97648191173, -54340.28707030858, -39280.531022611984, -40036.69053753502, -8540.109817994811, -46385.27886692034, 0.01, 0.8140000000000001, 0.606, 192.0, 0.0, 0.0, 0.0, 0.0, 0.0, 0.0, 0.0, 0.0, 0.0, 1.65415658599347E9, 0.0, 2022-06-02 09:56:25.993
29.0, 23929.84466908511, 421.1515690268957, -74540.05027294758, -54359.822494962515, -39307.48722642508, -40031.68374677703, -8553.36440245681, -46400.9027362946, 0.01, 0.8140000000000001, 0.606, 192.0, 0.0, 0.0, 0.0, 0.0, 0.0, 0.0, 0.0, 0.0, 0.0, 1.6541565859934752E9, 0.0, 2022-06-02 09:56:25.993
30.0, 23923.943808548906, 417.1506067693957, -74538.48565083572, -54359.397811817864, -39319.71363064213, -40024.218264128955, -8579.024205091502, -46406.535375897336, 0.01, 0.8140000000000001, 0.606, 192.0, 0.0, 0.0, 0.0, 0.0, 0.0, 0.0, 0.0, 0.0, 0.0, 1.6541565859934804E9, 0.0, 2022-06-02 09:56:25.993
31.0, 23930.112890018572, 427.74533364121123, -74515.41865055784, -54340.5776429865, -39306.481397924596, -40013.82470295724, -8578.21954229111, -46397.84054730422, 0.01, 0.8140000000000001, 0.606, 192.0, 0.0, 0.0, 0.0, 0.0, 0.0, 0.0, 0.0, 0.0, 0.0, 1.6541565859934857E9, 0.0, 2022-06-02 09:56:25.993
32.0, 23938.315980233667, 444.1962175603173, -74497.11257184895, -54315.18606128527, -39296.93720304218, -39993.66342945855, -8555.577225157884, -46373.05246270329, 0.01, 0.8140000000000001, 0.606, 192.0, 0.0, 0.0, 0.0, 0.0, 0.0, 0.0, 0.0, 0.0, 0.0, 1.6541565859934907E9, 0.0, 2022-06-02 09:56:25.993
33.0, 23936.572544166156, 443.9503483713089, -74502.47699051822, -54313.487328706666, -39297.74186584257, -39991.227089312924, -8535.326544681377, -46373.58890457021, 0.01, 0.8140000000000001, 0.606, 192.0, 0.0, 0.0, 0.0, 0.0, 0.0, 0.0, 0.0, 0.0, 0.0, 1.654156585993496E9, 0.0, 2022-06-02 09:56:25.993
34.0, 23930.112890018572, 427.54416794111347, -74533.43415658882, -54337.13547434038, -39322.14997078776, -40016.37280182514, -8547.865873320803, -46411.60922188869, 0.01, 0.8140000000000001, 0.606, 192.0, 0.0, 0.0, 0.0, 0.0, 0.0, 0.0, 0.0, 0.0, 0.0, 1.6541565859935012E9, 0.0, 2022-06-02 09:56:25.993
35.0, 23924.01086378227, 415.2283567462393, -74547.56045908458, -54351.08296288049, -39340.74662217458, -40042.79256377132, -8590.133022085789, -46444.53334147136, 0.01, 0.8140000000000001, 0.606, 192.0, 0.0, 0.0, 0.0, 0.0, 0.0, 0.0, 0.0, 0.0, 0.0, 1.6541565859935064E9, 0.0, 2022-06-02 09:56:25.993
36.0, 23948.083692560638, 439.83762739153235, -74512.84819994548, -54317.19771828625, -39311.80111310496, -40023.458304817475, -8585.975597617102, -46401.483881650434, 0.01, 0.8140000000000001, 0.606, 192.0, 0.0, 0.0, 0.0, 0.0, 0.0, 0.0, 0.0, 0.0, 0.0, 1.654156585993512E9, 0.0, 2022-06-02 09:56:25.993
37.0, 23949.089521061127, 452.33225254204905, -74489.35651652295, -54301.819718101, -39286.901269781745, -40008.080304632225, -8554.861969335314, -46379.75798603988, 0.014, 0.8140000000000001, 0.61, 192.0, 0.0, 112.0, 25.0, 112.0, 19.0, 16.0, 0.0, 0.0, 0.0, 1.6541565859935172E9, 0.0, 2022-06-02 09:56:25.993
38.0, 23927.16245975047, 439.0553163355966, -74507.21556034274, -54319.18702354277, -39294.76908383001, -40012.46124654546, -8550.749248355538, -46419.320573725774, 0.014, 0.8140000000000001, 0.61, 192.0, 0.0, 0.0, 0.0, 0.0, 0.0, 0.0, 0.0, 0.0, 0.0, 1.6541565859935224E9, 0.0, 2022-06-02 09:56:25.993
39.0, 23927.654198128486, 435.8143133895771, -74530.81900248755, -54339.43770401928, -39315.46679919562, -40027.43691533052, -8582.55578071544, -46435.16796054458, 0.014, 0.8140000000000001, 0.61, 192.0, 0.0, 0.0, 0.0, 0.0, 0.0, 0.0, 0.0, 0.0, 0.0, 1.6541565859935277E9, 0.0, 2022-06-02 09:56:25.993
40.0, 23937.44426219991, 438.4071157463927, -74529.65671177587, -54342.790465687576, -39319.55716843095, -40041.697328293005, -8571.849295121348, -46422.606280160704, 0.014, 0.8140000000000001, 0.61, 192.0, 0.0, 0.0, 0.0, 0.0, 0.0, 0.0, 0.0, 0.0, 0.0, 1.654156585993533E9, 0.0, 2022-06-02 09:56:25.993
41.0, 23943.099253547105, 443.0786303375519, -74504.26513007464, -54324.28322127858, -39300.4240751772, -40025.46996181845, -8536.064152248402, -46361.18368639752, 0.014, 0.8140000000000001, 0.61, 192.0, 0.0, 0.0, 0.0, 0.0, 0.0, 0.0, 0.0, 0.0, 0.0, 1.654156585993538E9, 0.0, 2022-06-02 09:56:25.993
42.0, 23931.096366774604, 436.46251397878103, -74499.28069106111, -54323.36679975591, -39291.237508206075, -40016.37280182514, -8532.130245224267, -46359.10497416317, 0.014, 0.8140000000000001, 0.61, 192.0, 0.0, 0.0, 0.0, 0.0, 0.0, 0.0, 0.0, 0.0, 0.0, 1.654156585993544E9, 0.0, 2022-06-02 09:56:25.993
43.0, 23929.21882024036, 435.6354994339346, -74511.0377086446, -54334.743837683665, -39296.49016815307, -40020.35141233819, -8546.837693075859, -46384.94359075351, 0.014, 0.8140000000000001, 0.61, 192.0, 0.0, 0.0, 0.0, 0.0, 0.0, 0.0, 0.0, 0.0, 0.0, 1.654156585993552E9, 0.0, 2022-06-02 09:56:25.993
44.0, 23946.63082917104, 441.1787320588508, -74525.45458381827, -54342.54459649856, -39300.49113041057, -40029.895607220606, -8565.45669620713, -46409.86578582117, 0.014, 0.8140000000000001, 0.61, 192.0, 0.0, 0.0, 0.0, 0.0, 0.0, 0.0, 0.0, 0.0, 0.0, 1.654156585993558E9, 0.0, 2022-06-02 09:56:25.993
45.0, 23944.149785536505, 440.30701402509385, -74526.46041231876, -54349.965375657725, -39315.08681953989, -40059.62342734617, -8587.450812751153, -46409.08347476524, 0.014, 0.8140000000000001, 0.61, 192.0, 0.0, 0.0, 0.0, 0.0, 0.0, 0.0, 0.0, 0.0, 0.0, 1.6541565859935634E9, 0.0, 2022-06-02 09:56:25.993
46.0, 23932.102195275093, 442.02809834815247, -74507.90846442085, -54340.04120111957, -39299.35119144335, -40054.48252612144, -8558.281786236976, -46414.47024517897, 0.014, 0.8140000000000001, 0.61, 192.0, 0.0, 0.0, 0.0, 0.0, 0.0, 0.0, 0.0, 0.0, 0.0, 1.6541565859935687E9, 0.0, 2022-06-02 09:56:25.993
47.0, 23922.60270388159, 441.29049078112735, -74494.6315282144, -54327.680686435786, -39284.4202261472, -40040.89266549262, -8551.196283244644, -46412.32447771126, 0.014, 0.8220000000000001, 0.61, 192.0, 0.0, 112.0, 25.0, 176.0, 19.0, 16.0, 0.0, 0.0, 0.0, 1.654156585993574E9, 0.0, 2022-06-02 09:56:25.993
48.0, 23914.131392733027, 431.61218543197936, -74508.69077547679, -54338.38717202988, -39296.02078151951, -40041.83143875974, -8564.227350262088, -46418.47120743647, 0.014, 0.8220000000000001, 0.61, 192.0, 0.0, 0.0, 0.0, 0.0, 0.0, 0.0, 0.0, 0.0, 0.0, 1.6541565859935791E9, 0.0, 2022-06-02 09:56:25.993
49.0, 23919.473459657846, 424.52668243964706, -74536.87632523493, -54357.386154816886, -39321.65823240975, -40046.97233998446, -8595.69860645516, -46418.24768999192, 0.014, 0.8220000000000001, 0.61, 192.0, 0.0, 0.0, 0.0, 0.0, 0.0, 0.0, 0.0, 0.0, 0.0, 1.6541565859935844E9, 0.0, 2022-06-02 09:56:25.993
50.0, 23932.45982318638, 424.0349440616303, -74532.51773506615, -54358.570797273016, -39316.45027595166, -40047.53113359584, -8573.659786422228, -46393.727826324444, 0.014, 0.8220000000000001, 0.61, 192.0, 0.0, 0.0, 0.0, 0.0, 0.0, 0.0, 0.0, 0.0, 0.0, 1.6541565859935896E9, 0.0, 2022-06-02 09:56:25.993
51.0, 23944.954448336895, 440.8434558920212, -74503.52752250762, -54336.01788711762, -39288.53294712698, -40022.474828061444, -8544.960146541613, -46386.06117797628, 0.014, 0.8220000000000001, 0.61, 192.0, 0.0, 0.0, 0.0, 0.0, 0.0, 0.0, 0.0, 0.0, 0.0, 1.654156585993595E9, 0.0, 2022-06-02 09:56:25.993
52.0, 23926.06722427216, 439.6364616914346, -74500.26416781713, -54332.86629114942, -39283.257935435526, -40018.54092103731, -8534.767751069994, -46391.87263153466, 0.014, 0.8220000000000001, 0.61, 192.0, 0.0, 0.0, 0.0, 0.0, 0.0, 0.0, 0.0, 0.0, 0.0, 1.6541565859936E9, 0.0, 2022-06-02 09:56:25.993
53.0, 23918.73585209082, 433.13210405494027, -74511.14946736688, -54336.554328984545, -39293.96442102962, -40014.33879307971, -8546.1671407422, -46388.60927684418, 0.014, 0.8220000000000001, 0.61, 192.0, 0.0, 0.0, 0.0, 0.0, 0.0, 0.0, 0.0, 0.0, 0.0, 1.6541565859936051E9, 0.0, 2022-06-02 09:56:25.993
54.0, 23916.903009045483, 416.18948175781753, -74544.65473230538, -54364.158733386845, -39323.62518592181, -40037.74106952442, -8573.79389688896, -46430.027059319866, 0.014, 0.8220000000000001, 0.61, 192.0, 0.0, 0.0, 0.0, 0.0, 0.0, 0.0, 0.0, 0.0, 0.0, 1.6541565859936104E9, 0.0, 2022-06-02 09:56:25.993
55.0, 23912.231494454325, 406.84645257549914, -74548.5439358406, -54371.40069859037, -39329.682508669204, -40052.80614528729, -8586.713205184127, -46409.77637884336, 0.014, 0.8220000000000001, 0.61, 192.0, 0.0, 0.0, 0.0, 0.0, 0.0, 0.0, 0.0, 0.0, 0.0, 1.6541565859936156E9, 0.0, 2022-06-02 09:56:25.993
56.0, 23913.17026772145, 414.3566387124823, -74526.70628150777, -54352.08879138098, -39314.438618950684, -40033.00249969989, -8575.760850401026, -46386.9999512434, 0.014, 0.8220000000000001, 0.61, 192.0, 0.0, 0.0, 0.0, 0.0, 0.0, 0.0, 0.0, 0.0, 0.0, 1.654156585993621E9, 0.0, 2022-06-02 09:56:25.993
57.0, 23929.375282451547, 440.7987524031106, -74497.11257184895, -54319.45524447623, -39297.47364490911, -40010.4942930334, -8555.845446091347, -46381.36731164066, 0.014, 0.8180000000000001, 0.608, 192.0, 0.0, 112.0, 25.0, 144.0, 19.0, 0.0, 0.0, 0.0, 0.0, 1.6541565859936264E9, 0.0, 2022-06-02 09:56:25.993
58.0, 23946.89905010451, 449.6723949518675, -74491.4799322462, -54306.73710188116, -39290.79047331696, -39991.651772457575, -8542.233233718067, -46388.65398033309, 0.014, 0.8180000000000001, 0.608, 192.0, 0.0, 0.0, 0.0, 0.0, 0.0, 0.0, 0.0, 0.0, 0.0, 1.6541565859936316E9, 0.0, 2022-06-02 09:56:25.993
59.0, 23949.69301816142, 439.79292390262174, -74521.07364190504, -54324.81966314551, -39319.66892715322, -40001.03950512881, -8582.89105688227, -46417.1077510247, 0.014, 0.8180000000000001, 0.608, 192.0, 0.0, 0.0, 0.0, 0.0, 0.0, 0.0, 0.0, 0.0, 0.0, 1.6541565859936368E9, 0.0, 2022-06-02 09:56:25.993
60.0, 23927.855363828585, 421.71036263827835, -74540.89963923689, -54347.41727678982, -39339.472572740626, -40027.19104614151, -8578.93479811368, -46403.18261422904, 0.014, 0.8180000000000001, 0.608, 192.0, 0.0, 0.0, 0.0, 0.0, 0.0, 0.0, 0.0, 0.0, 0.0, 1.654156585993642E9, 0.0, 2022-06-02 09:56:25.993
61.0, 23921.26159921427, 429.0640865640744, -74518.2349703592, -54333.670953949804, -39317.389049218786, -40008.61674649915, -8546.1671407422, -46369.49853533489, 0.014, 0.8180000000000001, 0.608, 192.0, 0.0, 0.0, 0.0, 0.0, 0.0, 0.0, 0.0, 0.0, 0.0, 1.654156585993648E9, 0.0, 2022-06-02 09:56:25.993
62.0, 23917.908837545972, 435.8366651340324, -74498.56543523853, -54318.33765725347, -39297.89832805376, -39994.60220272568, -8546.50241690903, -46366.50340157788, 0.014, 0.8180000000000001, 0.608, 192.0, 0.0, 0.0, 0.0, 0.0, 0.0, 0.0, 0.0, 0.0, 0.0, 1.6541565859936533E9, 0.0, 2022-06-02 09:56:25.993
63.0, 23915.338386933614, 426.2477667627057, -74510.30010107758, -54329.2229568032, -39293.56208962943, -40002.268851073844, -8547.843521576347, -46376.44992786049, 0.014, 0.8180000000000001, 0.608, 192.0, 0.0, 0.0, 0.0, 0.0, 0.0, 0.0, 0.0, 0.0, 0.0, 1.6541565859936583E9, 0.0, 2022-06-02 09:56:25.993
64.0, 23922.513296903766, 420.41396145987056, -74527.35448209697, -54349.18306460179, -39309.6776973817, -40019.77026698235, -8565.277882251488, -46384.87653552015, 0.014, 0.8180000000000001, 0.608, 192.0, 0.0, 0.0, 0.0, 0.0, 0.0, 0.0, 0.0, 0.0, 0.0, 1.654156585993666E9, 0.0, 2022-06-02 09:56:25.993
65.0, 23927.609494639575, 419.60929865947946, -74527.33213035252, -54357.296747839064, -39314.39391546177, -40038.61278755817, -8571.134039298779, -46424.841454606234, 0.014, 0.8180000000000001, 0.608, 192.0, 0.0, 0.0, 0.0, 0.0, 0.0, 0.0, 0.0, 0.0, 0.0, 1.6541565859936712E9, 0.0, 2022-06-02 09:56:25.993
66.0, 23923.02738702624, 417.21766200276164, -74515.32924358002, -54350.121837868915, -39296.69133385317, -40031.39317409911, -8549.475198921586, -46405.842471819225, 0.014, 0.8180000000000001, 0.608, 192.0, 0.0, 0.0, 0.0, 0.0, 0.0, 0.0, 0.0, 0.0, 0.0, 1.6541565859936764E9, 0.0, 2022-06-02 09:56:25.993
67.0, 23915.83012531163, 415.1836532573287, -74507.10380162047, -54341.89639590936, -39287.61652560432, -40021.31253734977, -8563.847370606349, -46388.497518121905, 0.014, 0.8220000000000001, 0.61, 192.0, 0.0, 112.0, 25.0, 176.0, 19.0, 16.0, 0.0, 0.0, 0.0, 1.6541565859936817E9, 0.0, 2022-06-02 09:56:25.993
68.0, 23921.060433514172, 422.33621148302694, -74497.87253116042, -54330.85463414844, -39269.75748178452, -40009.66727848855, -8518.003942728514, -46365.38581435512, 0.014, 0.8220000000000001, 0.61, 192.0, 0.0, 0.0, 0.0, 0.0, 0.0, 0.0, 0.0, 0.0, 0.0, 1.6541565859936867E9, 0.0, 2022-06-02 09:56:25.993
69.0, 23931.20812549688, 417.64234514741247, -74518.34672908149, -54345.80795118904, -39291.34926692835, -40026.76636299686, -8532.30905917991, -46393.32549492425, 0.014, 0.8220000000000001, 0.61, 192.0, 0.0, 0.0, 0.0, 0.0, 0.0, 0.0, 0.0, 0.0, 0.0, 1.654156585993692E9, 0.0, 2022-06-02 09:56:25.993
70.0, 23929.30822721818, 412.3002782225941, -74532.36127285496, -54357.14028562788, -39311.95757531614, -40054.25900867689, -8570.441135220664, -46425.556710428806, 0.014, 0.8220000000000001, 0.61, 192.0, 0.0, 0.0, 0.0, 0.0, 0.0, 0.0, 0.0, 0.0, 0.0, 1.6541565859936972E9, 0.0, 2022-06-02 09:56:25.993
71.0, 23932.862154586575, 427.11948479646264, -74508.55666501007, -54338.4765790077, -39295.909022797234, -40041.004424214894, -8550.972765800092, -46401.483881650434, 0.014, 0.8220000000000001, 0.61, 192.0, 0.0, 0.0, 0.0, 0.0, 0.0, 0.0, 0.0, 0.0, 0.0, 1.6541565859937024E9, 0.0, 2022-06-02 09:56:25.993
72.0, 23942.629866913543, 443.1680373153731, -74485.42260949881, -54317.57769794199, -39277.91586851071, -40024.933519951526, -8529.559794611907, -46391.157375712086, 0.014, 0.8220000000000001, 0.61, 192.0, 0.0, 0.0, 0.0, 0.0, 0.0, 0.0, 0.0, 0.0, 0.0, 1.6541565859937074E9, 0.0, 2022-06-02 09:56:25.993
73.0, 23940.349988979102, 438.18359830183965, -74497.91723464933, -54322.40567474433, -39288.13061572678, -40027.5486740528, -8543.663745363207, -46378.282770905826, 0.014, 0.8220000000000001, 0.61, 192.0, 0.0, 0.0, 0.0, 0.0, 0.0, 0.0, 0.0, 0.0, 0.0, 1.654156585993713E9, 0.0, 2022-06-02 09:56:25.993
74.0, 23935.432605198934, 422.6044324164906, -74531.42249958783, -54354.12280012641, -39317.83608410789, -40046.815877773275, -8581.974635359602, -46389.056311733286, 0.014, 0.8220000000000001, 0.61, 192.0, 0.0, 0.0, 0.0, 0.0, 0.0, 0.0, 0.0, 0.0, 0.0, 1.654156585993718E9, 0.0, 2022-06-02 09:56:25.993
75.0, 23943.97097158086, 423.8561301059878, -74522.30298785007, -54354.50277978215, -39319.9818515756, -40049.78865978583, -8572.653957921739, -46416.63836439113, 0.014, 0.8220000000000001, 0.61, 192.0, 0.0, 0.0, 0.0, 0.0, 0.0, 0.0, 0.0, 0.0, 0.0, 1.6541565859937232E9, 0.0, 2022-06-02 09:56:25.993
76.0, 23949.961239094882, 435.36727850047095, -74495.41383927035, -54334.65443070584, -39305.52027291302, -40033.941272967015, -8546.033030275468, -46382.64136107462, 0.014, 0.8220000000000001, 0.61, 192.0, 0.0, 0.0, 0.0, 0.0, 0.0, 0.0, 0.0, 0.0, 0.0, 1.6541565859937284E9, 0.0, 2022-06-02 09:56:25.993
77.0, 23937.466613944365, 439.43529599133683, -74480.84050188548, -54321.0198665881, -39298.05479026494, -40015.92576693604, -8540.132169739267, -46374.55002958179, 0.022, 0.8160000000000001, 0.612, 192.0, 0.0, 176.0, 25.0, 128.0, 19.0, 32.0, 0.0, 0.0, 0.0, 1.6541565859937336E9, 0.0, 2022-06-02 09:56:25.993
78.0, 23937.31015173318, 443.3915547599262, -74489.24475780067, -54322.8750613779, -39304.223871734604, -40013.86940644615, -8561.254568249533, -46389.682160578035, 0.022, 0.8160000000000001, 0.612, 192.0, 0.0, 0.0, 0.0, 0.0, 0.0, 0.0, 0.0, 0.0, 0.0, 1.654156585993739E9, 0.0, 2022-06-02 09:56:25.993
79.0, 23931.051663285692, 426.2254150182504, -74529.92493270933, -54355.41920130482, -39332.67764242621, -40046.3017876508, -8586.020301106013, -46426.51783544038, 0.022, 0.8160000000000001, 0.612, 192.0, 0.0, 0.0, 0.0, 0.0, 0.0, 0.0, 0.0, 0.0, 0.0, 1.654156585993744E9, 0.0, 2022-06-02 09:56:25.993
80.0, 23940.238230256826, 432.01451683217493, -74523.77820298412, -54350.85944543594, -39323.28990975498, -40052.627331331656, -8584.880362138792, -46424.215605761485, 0.022, 0.8160000000000001, 0.612, 192.0, 0.0, 0.0, 0.0, 0.0, 0.0, 0.0, 0.0, 0.0, 0.0, 1.6541565859937491E9, 0.0, 2022-06-02 09:56:25.993
81.0, 23958.36549501008, 453.4721915092697, -74496.91140614885, -54325.46786373471, -39299.21708097662, -40026.65460427458, -8573.033937577478, -46404.0543322628, 0.022, 0.8160000000000001, 0.612, 192.0, 0.0, 0.0, 0.0, 0.0, 0.0, 0.0, 0.0, 0.0, 0.0, 1.6541565859937544E9, 0.0, 2022-06-02 09:56:25.993
82.0, 23955.07978857515, 459.7977351901216, -74488.77537116711, -54312.41444497281, -39282.274458679494, -40015.52343553584, -8571.64812942125, -46379.48976510642, 0.022, 0.8160000000000001, 0.612, 192.0, 0.0, 0.0, 0.0, 0.0, 0.0, 0.0, 0.0, 0.0, 0.0, 1.6541565859937599E9, 0.0, 2022-06-02 09:56:25.993
83.0, 23949.156576294492, 451.6840519528451, -74497.42549627132, -54314.89548860735, -39280.66513307871, -40009.30965057727, -8552.224463489589, -46372.24779990289, 0.022, 0.8160000000000001, 0.612, 192.0, 0.0, 0.0, 0.0, 0.0, 0.0, 0.0, 0.0, 0.0, 0.0, 1.654156585993765E9, 0.0, 2022-06-02 09:56:25.993
84.0, 23949.201279783403, 435.88136862294306, -74518.45848780376, -54336.979012129195, -39296.467816408614, -40013.2435576014, -8552.604443145328, -46391.157375712086, 0.022, 0.8160000000000001, 0.612, 192.0, 0.0, 0.0, 0.0, 0.0, 0.0, 0.0, 0.0, 0.0, 0.0, 1.6541565859937701E9, 0.0, 2022-06-02 09:56:25.993
85.0, 23941.48992794632, 425.77838012914424, -74527.62270303044, -54352.60288150345, -39308.87303458131, -40026.52049380785, -8545.1166087528, -46385.1000529647, 0.022, 0.8160000000000001, 0.612, 192.0, 0.0, 0.0, 0.0, 0.0, 0.0, 0.0, 0.0, 0.0, 0.0, 1.6541565859937751E9, 0.0, 2022-06-02 09:56:25.993
86.0, 23935.454956943388, 428.95232784179785, -74512.31175807855, -54343.30455581004, -39296.73603734208, -40020.954909438486, -8522.630753830761, -46363.01652944285, 0.022, 0.8160000000000001, 0.612, 192.0, 0.0, 0.0, 0.0, 0.0, 0.0, 0.0, 0.0, 0.0, 0.0, 1.6541565859937823E9, 0.0, 2022-06-02 09:56:25.993
87.0, 23928.324750462147, 430.5169499536693, -74497.49255150468, -54335.3249830395, -39282.94501101315, -40018.65267975959, -8516.148747938723, -46354.94754969449, 0.014, 0.81, 0.612, 192.0, 0.0, 112.0, 25.0, 80.0, 19.0, 32.0, 0.0, 0.0, 0.0, 1.6541565859937875E9, 0.0, 2022-06-02 09:56:25.993
88.0, 23933.55505866469, 433.13210405494027, -74497.38079278241, -54339.840035419475, -39286.3201244259, -40031.92961596604, -8544.289594207954, -46400.858032805685, 0.014, 0.81, 0.612, 192.0, 0.0, 0.0, 0.0, 0.0, 0.0, 0.0, 0.0, 0.0, 0.0, 1.6541565859937963E9, 0.0, 2022-06-02 09:56:25.993
89.0, 23923.563828893166, 408.8581095764768, -74535.95990371227, -54377.36861435993, -39321.90410159875, -40065.747805326915, -8583.494553982562, -46455.84332416574, 0.014, 0.81, 0.612, 192.0, 0.0, 0.0, 0.0, 0.0, 0.0, 0.0, 0.0, 0.0, 0.0, 1.654156585993802E9, 0.0, 2022-06-02 09:56:25.993
90.0, 23915.740718333807, 404.85714731897684, -74541.36902587044, -54385.50464934167, -39334.13050581581, -40077.0577880213, -8592.614065720329, -46434.11742855518, 0.014, 0.81, 0.612, 192.0, 0.0, 0.0, 0.0, 0.0, 0.0, 0.0, 0.0, 0.0, 0.0, 1.6541565859938073E9, 0.0, 2022-06-02 09:56:25.993
91.0, 23926.06722427216, 423.4985021947029, -74512.17764761182, -54358.95077692876, -39309.0294967925, -40062.953837270004, -8591.138850586278, -46422.20394876051, 0.014, 0.81, 0.612, 192.0, 0.0, 0.0, 0.0, 0.0, 0.0, 0.0, 0.0, 0.0, 0.0, 1.6541565859938123E9, 0.0, 2022-06-02 09:56:25.993
92.0, 23923.899105059994, 423.40909521688167, -74497.22433057122, -54342.835169176484, -39299.39589493226, -40047.53113359584, -8568.340071241864, -46376.539334838315, 0.014, 0.81, 0.612, 192.0, 0.0, 0.0, 0.0, 0.0, 0.0, 0.0, 0.0, 0.0, 0.0, 1.6541565859938176E9, 0.0, 2022-06-02 09:56:25.993
93.0, 23925.01669228276, 433.8250081330548, -74491.6363944574, -54333.04510510506, -39292.51155764003, -40035.70706077899, -8560.807533360427, -46363.57532305424, 0.014, 0.81, 0.612, 192.0, 0.0, 0.0, 0.0, 0.0, 0.0, 0.0, 0.0, 0.0, 0.0, 1.6541565859938228E9, 0.0, 2022-06-02 09:56:25.993
94.0, 23926.514259161268, 423.5432056836135, -74520.42544131583, -54349.98772740218, -39312.04698229396, -40054.52722961036, -8575.738498656572, -46420.773437115364, 0.014, 0.81, 0.612, 192.0, 0.0, 0.0, 0.0, 0.0, 0.0, 0.0, 0.0, 0.0, 0.0, 1.654156585993828E9, 0.0, 2022-06-02 09:56:25.993
95.0, 23923.049738770693, 408.07579852054107, -74536.33988336801, -54369.81372473404, -39339.65138669627, -40074.17441298657, -8597.46439426713, -46432.7092686545, 0.014, 0.81, 0.612, 192.0, 0.0, 0.0, 0.0, 0.0, 0.0, 0.0, 0.0, 0.0, 0.0, 1.6541565859938357E9, 0.0, 2022-06-02 09:56:25.993
96.0, 23932.63863714202, 424.303164995094, -74509.51779002164, -54351.82057044752, -39313.96923231712, -40048.87223826316, -8582.98046386009, -46409.530509654345, 0.014, 0.81, 0.612, 192.0, 0.0, 0.0, 0.0, 0.0, 0.0, 0.0, 0.0, 0.0, 0.0, 1.6541565859938407E9, 0.0, 2022-06-02 09:56:25.993
97.0, 23937.399558711, 436.82014189006594, -74488.44009500029, -54336.66608770682, -39299.39589493226, -40027.21339788597, -8573.637434677772, -46398.24287870442, 0.016, 0.81, 0.608, 192.0, 0.0, 128.0, 25.0, 80.0, 19.0, 0.0, 0.0, 0.0, 0.0, 1.654156585993846E9, 0.0, 2022-06-02 09:56:25.993
98.0, 23947.12256754906, 448.55480772910215, -74478.94060360678, -54328.82062540301, -39292.93624078468, -40012.50595003438, -8567.669518908206, -46396.9017740371, 0.016, 0.81, 0.608, 192.0, 0.0, 0.0, 0.0, 0.0, 0.0, 0.0, 0.0, 0.0, 0.0, 1.6541565859938512E9, 0.0, 2022-06-02 09:56:25.993
99.0, 23937.578372666645, 434.2496912777056, -74509.80836269955, -54357.92259668381, -39316.539682929484, -40030.92378746555, -8605.600429248861, -46430.8093703758, 0.016, 0.81, 0.608, 192.0, 0.0, 0.0, 0.0, 0.0, 0.0, 0.0, 0.0, 0.0, 0.0, 1.6541565859938564E9, 0.0, 2022-06-02 09:56:25.993
100.0, 23943.948619836407, 430.29343250911626, -74512.80349645657, -54362.057669408045, -39326.35209874536, -40039.77507826985, -8609.981371162101, -46397.12529148165, 0.016, 0.81, 0.608, 192.0, 0.0, 0.0, 0.0, 0.0, 0.0, 0.0, 0.0, 0.0, 0.0, 1.6541565859938617E9, 0.0, 2022-06-02 09:56:25.993
101.0, 23949.53655595023, 438.9659093577754, -74491.65874620185, -54343.90805291034, -39305.564976401925, -40033.40483110009, -8571.35755674333, -46384.96594249796, 0.016, 0.81, 0.608, 192.0, 0.0, 0.0, 0.0, 0.0, 0.0, 0.0, 0.0, 0.0, 0.0, 1.6541565859938667E9, 0.0, 2022-06-02 09:56:25.993
102.0, 23934.762052865273, 432.37214474345984, -74490.22823455671, -54344.42214303281, -39305.699086868655, -40037.76342126887, -8581.952283615146, -46421.04165804883, 0.016, 0.81, 0.608, 192.0, 0.0, 0.0, 0.0, 0.0, 0.0, 0.0, 0.0, 0.0, 0.0, 1.6541565859938722E9, 0.0, 2022-06-02 09:56:25.993
103.0, 23923.541477148712, 424.16905452836215, -74506.00856614216, -54355.59801526046, -39327.80496213496, -40028.26392987537, -8583.114574326823, -46412.63740213364, 0.016, 0.81, 0.608, 192.0, 0.0, 0.0, 0.0, 0.0, 0.0, 0.0, 0.0, 0.0, 0.0, 1.6541565859938776E9, 0.0, 2022-06-02 09:56:25.993
104.0, 23931.319884219156, 421.08451379352977, -74523.8899617064, -54366.84094272149, -39316.964366074135, -40017.11040939217, -8545.273070963987, -46385.65884657608, 0.016, 0.81, 0.608, 192.0, 0.0, 0.0, 0.0, 0.0, 0.0, 0.0, 0.0, 0.0, 0.0, 1.654156585993883E9, 0.0, 2022-06-02 09:56:25.993
105.0, 23944.239192514324, 426.0242493181526, -74519.97840642672, -54369.344338100476, -39300.20055773265, -40023.05597341728, -8556.873626336292, -46380.115613951166, 0.016, 0.81, 0.608, 192.0, 0.0, 0.0, 0.0, 0.0, 0.0, 0.0, 0.0, 0.0, 0.0, 1.654156585993888E9, 0.0, 2022-06-02 09:56:25.993
106.0, 23950.207108283892, 436.0601825785855, -74497.11257184895, -54351.26177683613, -39282.90030752424, -40014.67406924654, -8541.585033128862, -46371.51019233587, 0.016, 0.81, 0.608, 192.0, 0.0, 0.0, 0.0, 0.0, 0.0, 0.0, 0.0, 0.0, 0.0, 1.654156585993893E9, 0.0, 2022-06-02 09:56:25.993
107.0, 23957.761997909787, 453.4498397648144, -74469.06113255753, -54329.915860881316, -39268.39402537275, -39995.831548670714, -8522.54134685294, -46344.95631992297, 0.01, 0.812, 0.612, 192.0, 0.0, 80.0, 25.0, 96.0, 19.0, 32.0, 0.0, 0.0, 0.0, 1.6541565859939005E9, 0.0, 2022-06-02 09:56:25.993
108.0, 23960.354800266603, 458.12135435597355, -74469.03878081308, -54327.121892824405, -39267.49995559454, -39992.52349049133, -8517.668666561683, -46349.80664846977, 0.01, 0.812, 0.612, 192.0, 0.0, 0.0, 0.0, 0.0, 0.0, 0.0, 0.0, 0.0, 0.0, 1.6541565859939055E9, 0.0, 2022-06-02 09:56:25.993
109.0, 23951.59291644012, 438.16124655738435, -74504.30983356356, -54354.74864897116, -39293.96442102962, -40028.17452289755, -8551.26333847801, -46404.99310552992, 0.01, 0.812, 0.612, 192.0, 0.0, 0.0, 0.0, 0.0, 0.0, 0.0, 0.0, 0.0, 0.0, 1.6541565859939108E9, 0.0, 2022-06-02 09:56:25.993
110.0, 23943.5015849473, 422.42561846084817, -74519.8889994489, -54372.22771313521, -39310.817636348926, -40056.807107544795, -8577.616045190816, -46392.543183868314, 0.01, 0.812, 0.612, 192.0, 0.0, 0.0, 0.0, 0.0, 0.0, 0.0, 0.0, 0.0, 0.0, 1.654156585993916E9, 0.0, 2022-06-02 09:56:25.993
111.0, 23938.02540755575, 425.2419382622169, -74510.99300515569, -54365.499838054166, -39309.54358691497, -40058.19291570102, -8583.628664449294, -46418.962945814485, 0.01, 0.812, 0.612, 192.0, 0.0, 0.0, 0.0, 0.0, 0.0, 0.0, 0.0, 0.0, 0.0, 1.6541565859939213E9, 0.0, 2022-06-02 09:56:25.993
112.0, 23941.802852368695, 440.37406925845977, -74487.61308045544, -54345.85265467795, -39287.661229093224, -40040.378575370145, -8564.98730957357, -46428.685954652545, 0.01, 0.812, 0.612, 192.0, 0.0, 0.0, 0.0, 0.0, 0.0, 0.0, 0.0, 0.0, 0.0, 1.6541565859939263E9, 0.0, 2022-06-02 09:56:25.993
113.0, 23956.68911417593, 448.688918195834, -74483.075676331, -54331.54753822655, -39278.921697011196, -40016.79748496979, -8558.974690315092, -46385.14475645361, 0.01, 0.812, 0.612, 192.0, 0.0, 0.0, 0.0, 0.0, 0.0, 0.0, 0.0, 0.0, 0.0, 1.6541565859939315E9, 0.0, 2022-06-02 09:56:25.993
114.0, 23950.4529774729, 430.4498947203034, -74517.83263895901, -54359.44251530678, -39309.54358691497, -40039.9985957144, -8583.874533638304, -46426.49548369592, 0.01, 0.812, 0.612, 192.0, 0.0, 0.0, 0.0, 0.0, 0.0, 0.0, 0.0, 0.0, 0.0, 1.6541565859939368E9, 0.0, 2022-06-02 09:56:25.993
115.0, 23946.943753593416, 420.6151271599683, -74531.26603737666, -54369.90313171186, -39318.55133993046, -40055.37659589966, -8601.08537686889, -46434.631518677656, 0.01, 0.812, 0.612, 192.0, 0.0, 0.0, 0.0, 0.0, 0.0, 0.0, 0.0, 0.0, 0.0, 1.6541565859939423E9, 0.0, 2022-06-02 09:56:25.993
116.0, 23954.945678108415, 433.9591185997866, -74503.08048761851, -54343.393962787864, -39292.73507508458, -40037.87517999115, -8584.902713883248, -46396.879422292644, 0.018000000000000002, 0.8140000000000001, 0.604, 192.0, 0.0, 144.0, 25.0, 112.0, 18.0, 224.0, 0.0, 0.0, 0.0, 1.6541565859939475E9, 0.0, 2022-06-02 09:56:25.993
117.0, 23950.810605384184, 441.5363599701357, -74486.7860659106, -54325.33375326798, -39285.89544128125, -40028.44274383101, -8570.061155564923, -46383.602486086194, 0.018000000000000002, 0.8140000000000001, 0.604, 192.0, 0.0, 0.0, 0.0, 0.0, 0.0, 0.0, 0.0, 0.0, 0.0, 1.6541565859939525E9, 0.0, 2022-06-02 09:56:25.993
118.0, 23940.21587851237, 433.9814703442419, -74498.07369686052, -54333.84976790545, -39298.18890073167, -40035.66235729007, -8569.681175909183, -46410.62574513266, 0.018000000000000002, 0.8140000000000001, 0.604, 192.0, 0.0, 0.0, 0.0, 0.0, 0.0, 0.0, 0.0, 0.0, 0.0, 1.6541565859939578E9, 0.0, 2022-06-02 09:56:25.993
119.0, 23949.871832117064, 434.36144999998214, -74514.65869124635, -54341.20349183125, -39305.900252568754, -40021.67016526105, -8578.420707991208, -46412.48093992245, 0.018000000000000002, 0.8140000000000001, 0.604, 192.0, 0.0, 0.0, 0.0, 0.0, 0.0, 0.0, 0.0, 0.0, 0.0, 1.654156585993963E9, 0.0, 2022-06-02 09:56:25.993
120.0, 23938.114814533572, 413.8649003344656, -74531.82483098803, -54360.09071589598, -39320.00420332005, -40040.55738932579, -8573.436268977675, -46373.72301503694, 0.018000000000000002, 0.8140000000000001, 0.604, 192.0, 0.0, 0.0, 0.0, 0.0, 0.0, 0.0, 0.0, 0.0, 0.0, 1.654156585993968E9, 0.0, 2022-06-02 09:56:25.993
121.0, 23939.813547112175, 415.6083364019795, -74512.40116505638, -54350.14418961337, -39304.805017090446, -40040.73620328143, -8559.93581532667, -46397.795843815315, 0.018000000000000002, 0.8140000000000001, 0.604, 192.0, 0.0, 0.0, 0.0, 0.0, 0.0, 0.0, 0.0, 0.0, 0.0, 1.6541565864738922E9, 0.0, 2022-06-02 09:56:26.473
122.0, 23938.427738955947, 422.04563880510796, -74504.9356824083, -54347.394925045366, -39294.90319429674, -40028.5992060422, -8561.388678716265, -46406.22245147496, 0.018000000000000002, 0.8140000000000001, 0.604, 192.0, 0.0, 0.0, 0.0, 0.0, 0.0, 0.0, 0.0, 0.0, 0.0, 1.6541565864741986E9, 0.0, 2022-06-02 09:56:26.474
123.0, 23929.889372574016, 417.6646968918678, -74515.55276102458, -54356.80500946105, -39298.993563532065, -40025.80523798528, -8563.780315372982, -46396.27592519235, 0.018000000000000002, 0.8140000000000001, 0.604, 192.0, 0.0, 0.0, 0.0, 0.0, 0.0, 0.0, 0.0, 0.0, 0.0, 1.6541565864742224E9, 0.0, 2022-06-02 09:56:26.474
124.0, 23928.101233017594, 413.3731619564488, -74531.73542401021, -54373.4347073358, -39305.09558976837, -40029.91795896506, -8567.691870652661, -46399.29341069382, 0.018000000000000002, 0.8140000000000001, 0.604, 192.0, 0.0, 0.0, 0.0, 0.0, 0.0, 0.0, 0.0, 0.0, 0.0, 1.654156586474228E9, 0.0, 2022-06-02 09:56:26.474
125.0, 23931.655160385988, 414.2448799902058, -74537.50217407968, -54384.61057956345, -39307.308412469436, -40048.44755511851, -8576.520809712507, -46412.749160855914, 0.018000000000000002, 0.8140000000000001, 0.604, 192.0, 0.0, 0.0, 0.0, 0.0, 0.0, 0.0, 0.0, 0.0, 0.0, 1.654156586474233E9, 0.0, 2022-06-02 09:56:26.474
126.0, 23946.49671870431, 427.3206504965604, -74515.37394706893, -54369.52315205612, -39289.18114771618, -40035.751764267894, -8552.135056511766, -46387.40228264359, 0.016, 0.8140000000000001, 0.606, 192.0, 0.0, 128.0, 25.0, 112.0, 18.0, 240.0, 0.0, 0.0, 0.0, 1.6541565864742384E9, 0.0, 2022-06-02 09:56:26.474
127.0, 23947.234326271337, 435.1437610559179, -74499.79478118358, -54355.218035604725, -39280.66513307871, -40026.2969763633, -8535.125378981278, -46372.627779558636, 0.016, 0.8140000000000001, 0.606, 192.0, 0.0, 0.0, 0.0, 0.0, 0.0, 0.0, 0.0, 0.0, 0.0, 1.6541565864742439E9, 0.0, 2022-06-02 09:56:26.474
128.0, 23928.615323140064, 420.74923762670016, -74517.76558372565, -54368.69613751127, -39291.55043262845, -40029.6497380316, -8538.50049239403, -46400.031018260845, 0.016, 0.8140000000000001, 0.606, 192.0, 0.0, 0.0, 0.0, 0.0, 0.0, 0.0, 0.0, 0.0, 0.0, 1.654156586474264E9, 0.0, 2022-06-02 09:56:26.474
129.0, 23912.879695043528, 397.8163478155551, -74558.02107548965, -54401.59790534949, -39324.094572555376, -40052.22499993146, -8603.119385614322, -46423.925033083564, 0.016, 0.8140000000000001, 0.606, 192.0, 0.0, 0.0, 0.0, 0.0, 0.0, 0.0, 0.0, 0.0, 0.0, 1.654156586474269E9, 0.0, 2022-06-02 09:56:26.474
130.0, 23915.02546251124, 389.70266457827864, -74573.13085474144, -54418.24995496869, -39345.95457863266, -40093.575727173775, -8629.42738883822, -46457.47500151098, 0.016, 0.8140000000000001, 0.606, 192.0, 0.0, 0.0, 0.0, 0.0, 0.0, 0.0, 0.0, 0.0, 0.0, 1.6541565864742744E9, 0.0, 2022-06-02 09:56:26.474
131.0, 23937.734834877832, 413.9766590567421, -74535.37875835643, -54385.079966197016, -39323.513427199534, -40070.285209451344, -8598.313760556432, -46459.598417234236, 0.016, 0.8140000000000001, 0.606, 192.0, 0.0, 0.0, 0.0, 0.0, 0.0, 0.0, 0.0, 0.0, 0.0, 1.65415658647428E9, 0.0, 2022-06-02 09:56:26.474
132.0, 23930.962256307874, 412.6355543894237, -74529.03086293112, -54379.73789927219, -39315.64561315127, -40054.23665693244, -8591.004740119546, -46446.83557115025, 0.016, 0.8140000000000001, 0.606, 192.0, 0.0, 0.0, 0.0, 0.0, 0.0, 0.0, 0.0, 0.0, 0.0, 1.6541565864742851E9, 0.0, 2022-06-02 09:56:26.474
133.0, 23928.883544073527, 417.0611997915745, -74525.67810126282, -54372.138306157394, -39309.83415959289, -40038.38927011362, -8574.710318411628, -46402.959096784485, 0.016, 0.8140000000000001, 0.606, 192.0, 0.0, 0.0, 0.0, 0.0, 0.0, 0.0, 0.0, 0.0, 0.0, 1.6541565864742906E9, 0.0, 2022-06-02 09:56:26.474
134.0, 23929.84466908511, 413.5966794010019, -74543.67125554934, -54387.583361576006, -39327.648499923765, -40048.067575462774, -8603.588772247884, -46433.938614599545, 0.016, 0.8140000000000001, 0.606, 192.0, 0.0, 0.0, 0.0, 0.0, 0.0, 0.0, 0.0, 0.0, 0.0, 1.6541565864742959E9, 0.0, 2022-06-02 09:56:26.474
135.0, 23935.20908775438, 412.41203694487064, -74547.02401721764, -54390.042053466095, -39327.581444690404, -40069.83817456224, -8616.955115432158, -46456.69269045504, 0.016, 0.8140000000000001, 0.606, 192.0, 0.0, 0.0, 0.0, 0.0, 0.0, 0.0, 0.0, 0.0, 0.0, 1.654156586474301E9, 0.0, 2022-06-02 09:56:26.474
136.0, 23930.02348304075, 411.65207763339015, -74529.50024956468, -54377.88270448241, -39316.182055018195, -40060.0034070019, -8577.906617868735, -46395.337151925225, 0.018000000000000002, 0.8160000000000001, 0.61, 192.0, 0.0, 144.0, 25.0, 128.0, 19.0, 16.0, 0.0, 0.0, 0.0, 1.654156586474306E9, 0.0, 2022-06-02 09:56:26.474
137.0, 23936.103157532594, 423.7890748726219, -74502.74521145168, -54350.03243089109, -39293.51738614051, -40036.802296257294, -8542.859082562814, -46330.07005811573, 0.018000000000000002, 0.8160000000000001, 0.61, 192.0, 0.0, 0.0, 0.0, 0.0, 0.0, 0.0, 0.0, 0.0, 0.0, 1.6541565864743116E9, 0.0, 2022-06-02 09:56:26.474
138.0, 23945.513241948276, 431.85805462098773, -74495.54794973707, -54332.26279404912, -39284.95666801413, -40021.2454821164, -8527.794006799937, -46371.912523736064, 0.018000000000000002, 0.8160000000000001, 0.61, 192.0, 0.0, 0.0, 0.0, 0.0, 0.0, 0.0, 0.0, 0.0, 0.0, 1.6541565864743168E9, 0.0, 2022-06-02 09:56:26.474
139.0, 23944.865041359073, 424.5713859285577, -74523.50998205066, -54348.8254366905, -39301.362848444325, -40025.15703739608, -8558.684117637173, -46422.91920458308, 0.018000000000000002, 0.8160000000000001, 0.61, 192.0, 0.0, 0.0, 0.0, 0.0, 0.0, 0.0, 0.0, 0.0, 0.0, 1.6541565864743223E9, 0.0, 2022-06-02 09:56:26.474
140.0, 23945.803814626197, 420.9504033267979, -74535.11053742297, -54358.637852506385, -39312.96340381663, -40041.94319748202, -8592.435251764686, -46445.00272810492, 0.018000000000000002, 0.8160000000000001, 0.61, 192.0, 0.0, 0.0, 0.0, 0.0, 0.0, 0.0, 0.0, 0.0, 0.0, 1.6541565864743276E9, 0.0, 2022-06-02 09:56:26.474
141.0, 23951.436454228933, 428.01355457467497, -74516.9385691808, -54343.550424999055, -39308.60481364785, -40034.05303168929, -8581.1252690703, -46426.27196625137, 0.018000000000000002, 0.8160000000000001, 0.61, 192.0, 0.0, 0.0, 0.0, 0.0, 0.0, 0.0, 0.0, 0.0, 0.0, 1.6541565864743328E9, 0.0, 2022-06-02 09:56:26.474
142.0, 23938.62890465604, 424.6384411619236, -74510.47891503322, -54340.08590460848, -39302.7263048561, -40037.76342126887, -8572.497495710551, -46424.79675111732, 0.018000000000000002, 0.8160000000000001, 0.61, 192.0, 0.0, 0.0, 0.0, 0.0, 0.0, 0.0, 0.0, 0.0, 0.0, 1.654156586474338E9, 0.0, 2022-06-02 09:56:26.474
143.0, 23934.605590654086, 427.99120283021966, -74507.12615336492, -54334.69913419475, -39286.767159315015, -40028.88977872012, -8568.2730160085, -46410.26811722137, 0.018000000000000002, 0.8160000000000001, 0.61, 192.0, 0.0, 0.0, 0.0, 0.0, 0.0, 0.0, 0.0, 0.0, 0.0, 1.6541565864743435E9, 0.0, 2022-06-02 09:56:26.474
144.0, 23935.901991832496, 422.8055981165884, -74522.77237448364, -54349.4289337908, -39299.9770402881, -40022.20660712798, -8573.83860037787, -46407.20592823099, 0.018000000000000002, 0.8160000000000001, 0.61, 192.0, 0.0, 0.0, 0.0, 0.0, 0.0, 0.0, 0.0, 0.0, 0.0, 1.654156586474349E9, 0.0, 2022-06-02 09:56:26.474
145.0, 23948.620134427565, 421.41978996035937, -74526.34865359649, -54359.196646117765, -39316.85260735185, -40037.49520033541, -8611.344827573876, -46410.648096877114, 0.018000000000000002, 0.8160000000000001, 0.61, 192.0, 0.0, 0.0, 0.0, 0.0, 0.0, 0.0, 0.0, 0.0, 0.0, 1.6541565864743545E9, 0.0, 2022-06-02 09:56:26.474
146.0, 23952.442282729422, 422.69383939431185, -74511.19417085579, -54354.167503615325, -39305.38616244628, -40037.226979401945, -8571.871646865804, -46377.098128449696, 0.014, 0.8200000000000001, 0.604, 192.0, 0.0, 112.0, 25.0, 160.0, 18.0, 224.0, 0.0, 0.0, 0.0, 1.6541565864743595E9, 0.0, 2022-06-02 09:56:26.474
147.0, 23945.043855314718, 423.9008335948984, -74493.9833276252, -54343.79629418806, -39296.22194721961, -40024.91116820707, -8550.905710566725, -46347.14679087958, 0.014, 0.8200000000000001, 0.604, 192.0, 0.0, 0.0, 0.0, 0.0, 0.0, 0.0, 0.0, 0.0, 0.0, 1.6541565864743652E9, 0.0, 2022-06-02 09:56:26.474
148.0, 23937.667779644464, 430.494598209214, -74492.82103691352, -54340.91291915333, -39286.901269781745, -40017.28922334781, -8543.529634896473, -46383.58013434173, 0.014, 0.8200000000000001, 0.604, 192.0, 0.0, 0.0, 0.0, 0.0, 0.0, 0.0, 0.0, 0.0, 0.0, 1.6541565864743707E9, 0.0, 2022-06-02 09:56:26.474
149.0, 23936.729006377343, 431.23220577623914, -74510.79183945559, -54355.061573393534, -39286.409531403726, -40024.77705774034, -8550.861007077814, -46400.67921885005, 0.014, 0.8200000000000001, 0.604, 192.0, 0.0, 0.0, 0.0, 0.0, 0.0, 0.0, 0.0, 0.0, 0.0, 1.6541565864743757E9, 0.0, 2022-06-02 09:56:26.474
150.0, 23960.64537294452, 442.1175053259737, -74501.9852521402, -54347.57373900101, -39284.77785405849, -40028.48744731992, -8553.185588501166, -46422.8074458608, 0.014, 0.8200000000000001, 0.604, 192.0, 0.0, 0.0, 0.0, 0.0, 0.0, 0.0, 0.0, 0.0, 0.0, 1.654156586474384E9, 0.0, 2022-06-02 09:56:26.474
151.0, 23951.615268184578, 431.9921650877196, -74499.72772595022, -54348.780733201595, -39282.31916216841, -40040.33387188124, -8561.254568249533, -46424.349716228215, 0.014, 0.8200000000000001, 0.604, 192.0, 0.0, 0.0, 0.0, 0.0, 0.0, 0.0, 0.0, 0.0, 0.0, 1.6541565864743893E9, 0.0, 2022-06-02 09:56:26.474
152.0, 23936.39373021051, 423.63261266143473, -74491.56933922402, -54340.91291915333, -39279.43578713367, -40029.269758375856, -8536.332373181865, -46374.68414004852, 0.014, 0.8200000000000001, 0.604, 192.0, 0.0, 0.0, 0.0, 0.0, 0.0, 0.0, 0.0, 0.0, 0.0, 1.6541565864743948E9, 0.0, 2022-06-02 09:56:26.474
153.0, 23946.384959982035, 434.9425953558201, -74482.6286414419, -54326.78661665757, -39265.845926504844, -40015.52343553584, -8535.2147859591, -46382.08256746323, 0.014, 0.8200000000000001, 0.604, 192.0, 0.0, 0.0, 0.0, 0.0, 0.0, 0.0, 0.0, 0.0, 0.0, 1.6541565864744012E9, 0.0, 2022-06-02 09:56:26.474
154.0, 23947.971933838362, 430.53930169812463, -74508.44490628778, -54343.3269075545, -39287.9741535156, -40027.369860097155, -8572.251626521544, -46416.526605668856, 0.014, 0.8200000000000001, 0.604, 192.0, 0.0, 0.0, 0.0, 0.0, 0.0, 0.0, 0.0, 0.0, 0.0, 1.6541565864744067E9, 0.0, 2022-06-02 09:56:26.474
155.0, 23935.79023311022, 406.93585955332037, -74537.36806361296, -54370.461925323245, -39320.20536902015, -40061.769194813874, -8596.503269255552, -46421.57809991576, 0.014, 0.8200000000000001, 0.604, 192.0, 0.0, 0.0, 0.0, 0.0, 0.0, 0.0, 0.0, 0.0, 0.0, 1.6541565864744136E9, 0.0, 2022-06-02 09:56:26.474
156.0, 23941.31111399068, 416.27888873563876, -74515.50805753566, -54354.34631757097, -39294.97024953011, -40057.76823255637, -8563.288576994966, -46377.96984648345, 0.018000000000000002, 0.8160000000000001, 0.608, 192.0, 0.0, 144.0, 25.0, 128.0, 19.0, 0.0, 0.0, 0.0, 0.0, 1.6541565864744189E9, 0.0, 2022-06-02 09:56:26.474
157.0, 23932.07984353064, 427.81238887457715, -74498.85600791646, -54336.93430864028, -39274.652513820234, -40037.025813701846, -8544.535463396962, -46391.358541412184, 0.018000000000000002, 0.8160000000000001, 0.608, 192.0, 0.0, 0.0, 0.0, 0.0, 0.0, 0.0, 0.0, 0.0, 0.0, 1.6541565864744256E9, 0.0, 2022-06-02 09:56:26.474
158.0, 23916.098346245093, 420.9280515823426, -74510.2330458442, -54344.600956988455, -39284.59904010285, -40038.59043581372, -8552.179760000678, -46399.89690779411, 0.018000000000000002, 0.8160000000000001, 0.608, 192.0, 0.0, 0.0, 0.0, 0.0, 0.0, 0.0, 0.0, 0.0, 0.0, 1.6541565864744325E9, 0.0, 2022-06-02 09:56:26.474
159.0, 23917.68532010142, 411.8755950779432, -74538.30683688007, -54364.292843853575, -39313.90217708376, -40055.756575555395, -8577.951321357647, -46431.703440154015, 0.018000000000000002, 0.8160000000000001, 0.608, 192.0, 0.0, 0.0, 0.0, 0.0, 0.0, 0.0, 0.0, 0.0, 0.0, 1.6541565864744377E9, 0.0, 2022-06-02 09:56:26.474
160.0, 23925.620189383055, 402.68902810681203, -74541.63724680392, -54370.104297411955, -39328.766087146534, -40068.80999431729, -8584.36627201632, -46434.072725066275, 0.018000000000000002, 0.8160000000000001, 0.608, 192.0, 0.0, 0.0, 0.0, 0.0, 0.0, 0.0, 0.0, 0.0, 0.0, 1.6541565864744434E9, 0.0, 2022-06-02 09:56:26.474
161.0, 23923.541477148712, 400.36444668346013, -74530.28256062062, -54363.01879441962, -39321.45706670965, -40071.26868620738, -8570.575245687396, -46425.266137750885, 0.018000000000000002, 0.8160000000000001, 0.608, 192.0, 0.0, 0.0, 0.0, 0.0, 0.0, 0.0, 0.0, 0.0, 0.0, 1.6541565864744487E9, 0.0, 2022-06-02 09:56:26.474
162.0, 23925.44137542741, 418.96109807027557, -74507.77435395413, -54340.599994730954, -39299.619412376815, -40054.03549123234, -8585.349748772353, -46427.74718138542, 0.018000000000000002, 0.8160000000000001, 0.608, 192.0, 0.0, 0.0, 0.0, 0.0, 0.0, 0.0, 0.0, 0.0, 0.0, 1.654156586474454E9, 0.0, 2022-06-02 09:56:26.474
163.0, 23932.437471441925, 428.1253132969515, -74496.03968811508, -54323.478558478186, -39272.149118441244, -40022.96656643946, -8560.204036260133, -46406.401265430606, 0.018000000000000002, 0.8160000000000001, 0.608, 192.0, 0.0, 0.0, 0.0, 0.0, 0.0, 0.0, 0.0, 0.0, 0.0, 1.6541565864744594E9, 0.0, 2022-06-02 09:56:26.474
164.0, 23919.026424768737, 407.53935665361365, -74526.86274371896, -54348.713677968226, -39295.10435999684, -40029.38151709813, -8565.546103184952, -46408.30116370931, 0.018000000000000002, 0.8160000000000001, 0.608, 192.0, 0.0, 0.0, 0.0, 0.0, 0.0, 0.0, 0.0, 0.0, 0.0, 1.654156586474465E9, 0.0, 2022-06-02 09:56:26.474
165.0, 23913.460840399366, 406.0864932640187, -74541.10080493698, -54362.88468395289, -39316.40557246275, -40055.93538951104, -8596.570324488917, -46406.06598926378, 0.018000000000000002, 0.8160000000000001, 0.608, 192.0, 0.0, 0.0, 0.0, 0.0, 0.0, 0.0, 0.0, 0.0, 0.0, 1.6541565864744716E9, 0.0, 2022-06-02 09:56:26.474
166.0, 23919.96519803586, 420.1680922708622, -74519.41961281534, -54345.629137233394, -39305.20734849064, -40057.32119766727, -8603.834641436892, -46421.71221038249, 0.02, 0.8180000000000001, 0.6, 192.0, 0.0, 160.0, 25.0, 144.0, 18.0, 192.0, 0.0, 0.0, 0.0, 1.6541565864744804E9, 0.0, 2022-06-02 09:56:26.474
167.0, 23922.513296903766, 427.2982987521051, -74505.62858648642, -54328.84297714746, -39294.232641963084, -40038.79160151382, -8614.138795630788, -46437.47019022348, 0.02, 0.8180000000000001, 0.6, 192.0, 0.0, 0.0, 0.0, 0.0, 0.0, 0.0, 0.0, 0.0, 0.0, 1.6541565864744873E9, 0.0, 2022-06-02 09:56:26.474
168.0, 23928.41415743997, 435.2778715226497, -74498.54308349408, -54324.3726282564, -39279.39108364476, -40020.41846757156, -8571.625777676794, -46425.333192984246, 0.02, 0.8180000000000001, 0.6, 192.0, 0.0, 0.0, 0.0, 0.0, 0.0, 0.0, 0.0, 0.0, 0.0, 1.6541565864744923E9, 0.0, 2022-06-02 09:56:26.474
169.0, 23938.517145933765, 437.49069422372514, -74509.89776967738, -54336.33081153999, -39288.30942968243, -40025.40290658509, -8564.473219451096, -46442.05229783682, 0.02, 0.8180000000000001, 0.6, 192.0, 0.0, 0.0, 0.0, 0.0, 0.0, 0.0, 0.0, 0.0, 0.0, 1.6541565864744978E9, 0.0, 2022-06-02 09:56:26.474
170.0, 23938.137166278026, 423.2526330056945, -74523.42057507284, -54356.402678060855, -39307.48722642508, -40044.69246205002, -8569.323547997898, -46425.93669008454, 0.02, 0.8180000000000001, 0.6, 192.0, 0.0, 0.0, 0.0, 0.0, 0.0, 0.0, 0.0, 0.0, 0.0, 1.654156586474503E9, 0.0, 2022-06-02 09:56:26.474
171.0, 23940.461747701378, 426.11365629597384, -74509.83071444402, -54348.87014017942, -39301.60871763334, -40039.5515608253, -8549.02816403248, -46385.65884657608, 0.02, 0.8180000000000001, 0.6, 192.0, 0.0, 0.0, 0.0, 0.0, 0.0, 0.0, 0.0, 0.0, 0.0, 1.654156586474511E9, 0.0, 2022-06-02 09:56:26.474
172.0, 23934.717349376366, 435.2555197781944, -74494.16214158085, -54333.80506441654, -39286.02955174799, -40022.139551894616, -8543.909614552214, -46372.203096413985, 0.02, 0.8180000000000001, 0.6, 192.0, 0.0, 0.0, 0.0, 0.0, 0.0, 0.0, 0.0, 0.0, 0.0, 1.654156586474516E9, 0.0, 2022-06-02 09:56:26.474
173.0, 23927.72125336185, 439.92703436935363, -74496.62083347092, -54334.56502372802, -39279.86047027832, -40023.5477117953, -8552.291518722954, -46385.16710819806, 0.02, 0.8180000000000001, 0.6, 192.0, 0.0, 0.0, 0.0, 0.0, 0.0, 0.0, 0.0, 0.0, 0.0, 1.654156586474521E9, 0.0, 2022-06-02 09:56:26.474
174.0, 23926.268389972258, 432.528606954647, -74523.8899617064, -54354.56983501552, -39296.02078151951, -40038.948063725, -8574.866780622815, -46390.308009422784, 0.02, 0.8180000000000001, 0.6, 192.0, 0.0, 0.0, 0.0, 0.0, 0.0, 0.0, 0.0, 0.0, 0.0, 1.654156586474526E9, 0.0, 2022-06-02 09:56:26.474
175.0, 23938.517145933765, 432.3050895100939, -74522.45945006126, -54352.93815767028, -39300.8264065774, -40044.82657251675, -8572.676309666194, -46409.262288720885, 0.02, 0.8180000000000001, 0.6, 192.0, 0.0, 0.0, 0.0, 0.0, 0.0, 0.0, 0.0, 0.0, 0.0, 1.6541565864745312E9, 0.0, 2022-06-02 09:56:26.474
176.0, 23939.657084900988, 436.0154790896749, -74510.07658363302, -54340.465884264224, -39304.33563045688, -40033.42718284454, -8565.993138074058, -46405.73071309694, 0.016, 0.8180000000000001, 0.608, 192.0, 0.0, 128.0, 25.0, 144.0, 19.0, 0.0, 0.0, 0.0, 0.0, 1.6541565864745371E9, 0.0, 2022-06-02 09:56:26.474
177.0, 23944.46270995888, 450.25354030770546, -74488.7306676782, -54322.31626776651, -39288.86822329381, -40014.31644133526, -8550.413972188708, -46381.85905001868, 0.016, 0.8180000000000001, 0.608, 192.0, 0.0, 0.0, 0.0, 0.0, 0.0, 0.0, 0.0, 0.0, 0.0, 1.6541565864745424E9, 0.0, 2022-06-02 09:56:26.474
178.0, 23948.083692560638, 458.9483689008199, -74484.05915308704, -54315.38722698537, -39278.74288305556, -40006.85095868718, -8553.230291990078, -46391.38089315664, 0.016, 0.8180000000000001, 0.608, 192.0, 0.0, 0.0, 0.0, 0.0, 0.0, 0.0, 0.0, 0.0, 0.0, 1.6541565864745476E9, 0.0, 2022-06-02 09:56:26.474
179.0, 23936.77370986625, 437.2895285236274, -74521.67713900532, -54347.730201212195, -39314.52802592851, -40039.97624396995, -8596.32445529991, -46453.60814972021, 0.016, 0.8180000000000001, 0.608, 192.0, 0.0, 0.0, 0.0, 0.0, 0.0, 0.0, 0.0, 0.0, 0.0, 1.654156586474553E9, 0.0, 2022-06-02 09:56:26.474
180.0, 23932.59393365311, 422.40326671639286, -74536.56340081256, -54370.41722183433, -39334.17520930472, -40067.223020460966, -8608.014417650034, -46466.77332720439, 0.016, 0.8180000000000001, 0.608, 192.0, 0.0, 0.0, 0.0, 0.0, 0.0, 0.0, 0.0, 0.0, 0.0, 1.6541565864745586E9, 0.0, 2022-06-02 09:56:26.474
181.0, 23937.01957905526, 433.10975231048496, -74514.837505202, -54352.558178014544, -39303.82154033441, -40044.17837192755, -8572.765716644015, -46411.13983525513, 0.016, 0.8180000000000001, 0.608, 192.0, 0.0, 0.0, 0.0, 0.0, 0.0, 0.0, 0.0, 0.0, 0.0, 1.6541565864745636E9, 0.0, 2022-06-02 09:56:26.474
182.0, 23924.70376786039, 432.238034276728, -74504.89097891939, -54344.48919826618, -39289.04703724945, -40028.33098510873, -8556.091315280357, -46376.27111390485, 0.016, 0.8180000000000001, 0.608, 192.0, 0.0, 0.0, 0.0, 0.0, 0.0, 0.0, 0.0, 0.0, 0.0, 1.6541565864745688E9, 0.0, 2022-06-02 09:56:26.474
183.0, 23911.136258976014, 417.754103869689, -74516.89386569189, -54355.329794327, -39293.42797916269, -40042.99372947142, -8571.871646865804, -46393.101977479695, 0.016, 0.8180000000000001, 0.608, 192.0, 0.0, 0.0, 0.0, 0.0, 0.0, 0.0, 0.0, 0.0, 0.0, 1.654156586474574E9, 0.0, 2022-06-02 09:56:26.474
184.0, 23918.333520690623, 416.18948175781753, -74535.37875835643, -54364.67282350932, -39303.06158102293, -40050.63802607513, -8597.55380124495, -46474.93171393058, 0.016, 0.8180000000000001, 0.608, 192.0, 0.0, 0.0, 0.0, 0.0, 0.0, 0.0, 0.0, 0.0, 0.0, 1.654156586474579E9, 0.0, 2022-06-02 09:56:26.474
185.0, 23936.79606161071, 424.21375801727277, -74530.90840946537, -54363.51053279764, -39302.88276706729, -40053.29788366531, -8588.881324396292, -46466.97449290449, 0.016, 0.8180000000000001, 0.608, 192.0, 0.0, 0.0, 0.0, 0.0, 0.0, 0.0, 0.0, 0.0, 0.0, 1.6541565864745846E9, 0.0, 2022-06-02 09:56:26.474
186.0, 23941.422872712956, 429.0640865640744, -74517.89969419238, -54348.445457034766, -39292.66801985121, -40038.12104918016, -8544.133131996767, -46398.10876823769, 0.016, 0.8180000000000001, 0.604, 192.0, 0.0, 128.0, 25.0, 144.0, 18.0, 224.0, 0.0, 0.0, 0.0, 1.6541565864745903E9, 0.0, 2022-06-02 09:56:26.474
187.0, 23929.554096407188, 433.13210405494027, -74502.99108064068, -54336.75549468464, -39282.430920890685, -40029.82855198724, -8558.192379259155, -46393.19138445752, 0.016, 0.8180000000000001, 0.604, 192.0, 0.0, 0.0, 0.0, 0.0, 0.0, 0.0, 0.0, 0.0, 0.0, 1.6541565864745953E9, 0.0, 2022-06-02 09:56:26.474
188.0, 23923.541477148712, 431.7239441542559, -74505.76269695314, -54334.36385802792, -39281.98388600157, -40021.20077862749, -8575.179705045188, -46405.216622974476, 0.016, 0.8180000000000001, 0.604, 192.0, 0.0, 0.0, 0.0, 0.0, 0.0, 0.0, 0.0, 0.0, 0.0, 1.6541565864746008E9, 0.0, 2022-06-02 09:56:26.474
189.0, 23928.72708186234, 419.16226377037333, -74534.8423164895, -54353.29578558157, -39305.60967989083, -40036.01998520136, -8590.311836041432, -46437.649004179126, 0.016, 0.8180000000000001, 0.604, 192.0, 0.0, 0.0, 0.0, 0.0, 0.0, 0.0, 0.0, 0.0, 0.0, 1.654156586474606E9, 0.0, 2022-06-02 09:56:26.474
190.0, 23938.763015122775, 411.4732636777477, -74551.18144168633, -54364.04697466457, -39321.278252754004, -40054.90720926609, -8606.1815746047, -46452.33410028626, 0.016, 0.8180000000000001, 0.604, 192.0, 0.0, 0.0, 0.0, 0.0, 0.0, 0.0, 0.0, 0.0, 0.0, 1.6541565864746113E9, 0.0, 2022-06-02 09:56:26.474
191.0, 23928.30239871769, 405.3265339525383, -74549.25919166318, -54364.80693397605, -39327.35792724585, -40061.72449132496, -8607.299161827465, -46445.82974264977, 0.016, 0.8180000000000001, 0.604, 192.0, 0.0, 0.0, 0.0, 0.0, 0.0, 0.0, 0.0, 0.0, 0.0, 1.6541565864746168E9, 0.0, 2022-06-02 09:56:26.474
192.0, 23928.525916162245, 417.0164963026639, -74529.5449530536, -54351.865273936426, -39314.61743290632, -40055.063671477285, -8583.27103653801, -46407.67531486456, 0.016, 0.8180000000000001, 0.604, 192.0, 0.0, 0.0, 0.0, 0.0, 0.0, 0.0, 0.0, 0.0, 0.0, 1.654156586474625E9, 0.0, 2022-06-02 09:56:26.474
193.0, 23930.604628396588, 427.09713305200734, -74524.3369965955, -54349.94302391327, -39307.19665374716, -40057.76823255637, -8586.757908673038, -46423.99208831693, 0.016, 0.8180000000000001, 0.604, 192.0, 0.0, 0.0, 0.0, 0.0, 0.0, 0.0, 0.0, 0.0, 0.0, 1.6541565864746304E9, 0.0, 2022-06-02 09:56:26.474
194.0, 23928.704730117886, 419.51989168165824, -74551.38260738643, -54373.41235559135, -39324.362793488835, -40072.63214261915, -8596.503269255552, -46473.791774963356, 0.016, 0.8180000000000001, 0.604, 192.0, 0.0, 0.0, 0.0, 0.0, 0.0, 0.0, 0.0, 0.0, 0.0, 1.6541565864746358E9, 0.0, 2022-06-02 09:56:26.474
195.0, 23938.159518022483, 418.22349050325045, -74562.78199705863, -54384.45411735227, -39336.74565991708, -40076.70016011002, -8614.541127030985, -46458.72669920048, 0.016, 0.8160000000000001, 0.602, 192.0, 0.0, 128.0, 25.0, 128.0, 18.0, 208.0, 0.0, 0.0, 0.0, 1.654156586474641E9, 0.0, 2022-06-02 09:56:26.474
196.0, 23942.227535513346, 429.8016941310995, -74533.72472926673, -54362.66116650834, -39322.552302187956, -40053.14142145412, -8599.31958905692, -46417.59948940271, 0.016, 0.8160000000000001, 0.602, 192.0, 0.0, 0.0, 0.0, 0.0, 0.0, 0.0, 0.0, 0.0, 0.0, 1.654156586474646E9, 0.0, 2022-06-02 09:56:26.474
197.0, 23950.92236410646, 449.27006355167197, -74496.17379858182, -54333.44743650525, -39287.70593258213, -40026.45343857449, -8554.951376313136, -46381.926105252045, 0.016, 0.8160000000000001, 0.602, 192.0, 0.0, 0.0, 0.0, 0.0, 0.0, 0.0, 0.0, 0.0, 0.0, 1.654156586474651E9, 0.0, 2022-06-02 09:56:26.474
198.0, 23961.405332256, 455.1485723434177, -74486.09316183248, -54323.545613711554, -39268.14815618374, -40017.088057647714, -8526.385846899253, -46373.36538712566, 0.016, 0.8160000000000001, 0.602, 192.0, 0.0, 0.0, 0.0, 0.0, 0.0, 0.0, 0.0, 0.0, 0.0, 1.6541565864746566E9, 0.0, 2022-06-02 09:56:26.474
199.0, 23961.047704344717, 440.23995879172793, -74521.63243551641, -54348.8254366905, -39297.808921075935, -40037.20462765749, -8565.747268885048, -46416.9065853246, 0.016, 0.8160000000000001, 0.602, 192.0, 0.0, 0.0, 0.0, 0.0, 0.0, 0.0, 0.0, 0.0, 0.0, 1.6541565864746616E9, 0.0, 2022-06-02 09:56:26.474
200.0, 23948.93305884994, 427.99120283021966, -74543.98417997173, -54374.26172188065, -39321.74763938757, -40078.44359617753, -8619.704380000161, -46468.896742927645, 0.016, 0.8160000000000001, 0.602, 192.0, 0.0, 0.0, 0.0, 0.0, 0.0, 0.0, 0.0, 0.0, 0.0, 1.654156586474667E9, 0.0, 2022-06-02 09:56:26.474
201.0, 23961.31592527818, 448.82302866256583, -74510.47891503322, -54345.83030293349, -39298.05479026494, -40063.78085181485, -8602.739405958582, -46445.673280438576, 0.016, 0.8160000000000001, 0.602, 192.0, 0.0, 0.0, 0.0, 0.0, 0.0, 0.0, 0.0, 0.0, 0.0, 1.6541565864746723E9, 0.0, 2022-06-02 09:56:26.474
202.0, 23964.892204391028, 455.752069443711, -74494.1397898364, -54331.99457311566, -39281.91683076821, -40043.507819593884, -8546.837693075859, -46391.20207920099, 0.016, 0.8160000000000001, 0.602, 192.0, 0.0, 0.0, 0.0, 0.0, 0.0, 0.0, 0.0, 0.0, 0.0, 1.6541565864746776E9, 0.0, 2022-06-02 09:56:26.474
203.0, 23956.465596731377, 449.784153674144, -74501.78408644011, -54339.415352274824, -39287.28124943748, -40043.68663354953, -8543.373172685287, -46388.005779743886, 0.016, 0.8160000000000001, 0.602, 192.0, 0.0, 0.0, 0.0, 0.0, 0.0, 0.0, 0.0, 0.0, 0.0, 1.6541565864746828E9, 0.0, 2022-06-02 09:56:26.474
204.0, 23954.49864321931, 442.89981638190943, -74518.79376397059, -54345.33856455548, -39290.36579017231, -40044.558351583284, -8572.475143966096, -46422.44981794951, 0.016, 0.8160000000000001, 0.602, 192.0, 0.0, 0.0, 0.0, 0.0, 0.0, 0.0, 0.0, 0.0, 0.0, 1.6541565864746878E9, 0.0, 2022-06-02 09:56:26.474
205.0, 23937.22074475536, 416.92708932484265, -74549.1474329409, -54372.7865067466, -39316.87495909631, -40076.14136649864, -8605.756891460049, -46449.54013222935, 0.022, 0.8160000000000001, 0.604, 192.0, 0.0, 176.0, 25.0, 128.0, 18.0, 224.0, 0.0, 0.0, 0.0, 1.6541565864746928E9, 0.0, 2022-06-02 09:56:26.474
206.0, 23933.68916913142, 416.8153306025661, -74533.83648798901, -54364.1810851313, -39314.84095035088, -40074.86731706469, -8603.745234459071, -46444.93567287156, 0.022, 0.8160000000000001, 0.604, 192.0, 0.0, 0.0, 0.0, 0.0, 0.0, 0.0, 0.0, 0.0, 0.0, 1.654156586474698E9, 0.0, 2022-06-02 09:56:26.474
207.0, 23943.54628843621, 432.46155172128107, -74502.87932191842, -54338.588337729976, -39283.72732206909, -40049.09575570771, -8574.55385620044, -46431.077591309266, 0.022, 0.8160000000000001, 0.604, 192.0, 0.0, 0.0, 0.0, 0.0, 0.0, 0.0, 0.0, 0.0, 0.0, 1.6541565864747033E9, 0.0, 2022-06-02 09:56:26.474
208.0, 23942.294590746715, 432.1486272989068, -74509.31662432154, -54337.180177829294, -39287.3706564153, -40046.25708416189, -8576.006719590036, -46442.27581528137, 0.022, 0.8160000000000001, 0.604, 192.0, 0.0, 0.0, 0.0, 0.0, 0.0, 0.0, 0.0, 0.0, 0.0, 1.6541565864747083E9, 0.0, 2022-06-02 09:56:26.474
209.0, 23950.475329217355, 436.19429304531735, -74526.21454312975, -54346.23263433369, -39295.417284419214, -40040.4009271146, -8586.109708083834, -46424.975565072964, 0.022, 0.8160000000000001, 0.604, 192.0, 0.0, 0.0, 0.0, 0.0, 0.0, 0.0, 0.0, 0.0, 0.0, 1.6541565864747133E9, 0.0, 2022-06-02 09:56:26.474
210.0, 23959.147806066016, 435.9707756007643, -74529.41084258686, -54356.5814920165, -39308.78362760349, -40048.46990686296, -8612.216545607633, -46433.7598006439, 0.022, 0.8160000000000001, 0.604, 192.0, 0.0, 0.0, 0.0, 0.0, 0.0, 0.0, 0.0, 0.0, 0.0, 1.6541565864747188E9, 0.0, 2022-06-02 09:56:26.474
211.0, 23950.78825363973, 428.28177550813865, -74528.0473861751, -54357.52026528362, -39313.85747359484, -40052.4038138871, -8599.543106501473, -46429.91530059759, 0.022, 0.8160000000000001, 0.604, 192.0, 0.0, 0.0, 0.0, 0.0, 0.0, 0.0, 0.0, 0.0, 0.0, 1.654156586474724E9, 0.0, 2022-06-02 09:56:26.474
212.0, 23937.1983930109, 417.1059032804851, -74525.00754892916, -54355.66507049383, -39311.53289217149, -40055.823630788764, -8573.190399788666, -46418.8064836033, 0.022, 0.8160000000000001, 0.604, 192.0, 0.0, 0.0, 0.0, 0.0, 0.0, 0.0, 0.0, 0.0, 0.0, 1.6541565864747293E9, 0.0, 2022-06-02 09:56:26.474
213.0, 23935.052625543194, 424.21375801727277, -74515.73157498021, -54347.19375934527, -39309.54358691497, -40055.71187206649, -8578.063080079923, -46399.449872905, 0.022, 0.8160000000000001, 0.604, 192.0, 0.0, 0.0, 0.0, 0.0, 0.0, 0.0, 0.0, 0.0, 0.0, 1.6541565864747343E9, 0.0, 2022-06-02 09:56:26.474
214.0, 23937.511317433276, 430.91928135386485, -74527.15331639687, -54352.200550103254, -39318.9313195862, -40058.17056395657, -8602.381778047298, -46443.05812633731, 0.022, 0.8160000000000001, 0.604, 192.0, 0.0, 0.0, 0.0, 0.0, 0.0, 0.0, 0.0, 0.0, 0.0, 1.6541565864747417E9, 0.0, 2022-06-02 09:56:26.474
215.0, 23938.584201167134, 425.42075221785933, -74539.08914793601, -54360.02366066261, -39339.15964831825, -40070.35226468471, -8627.32632485942, -46469.07555688328, 0.02, 0.8140000000000001, 0.598, 192.0, 0.0, 160.0, 25.0, 112.0, 18.0, 176.0, 0.0, 0.0, 0.0, 1.6541565864747467E9, 0.0, 2022-06-02 09:56:26.474
216.0, 23960.44420724442, 443.34685127101557, -74511.70826097825, -54330.29584053706, -39306.63786013578, -40054.25900867689, -8580.968806859113, -46427.769533129875, 0.02, 0.8140000000000001, 0.598, 192.0, 0.0, 0.0, 0.0, 0.0, 0.0, 0.0, 0.0, 0.0, 0.0, 1.654156586474752E9, 0.0, 2022-06-02 09:56:26.474
217.0, 23962.478215989857, 456.44497352182555, -74489.91531013434, -54311.18509902777, -39281.514499368015, -40032.77898225534, -8559.26526299301, -46406.870652064164, 0.02, 0.8140000000000001, 0.598, 192.0, 0.0, 0.0, 0.0, 0.0, 0.0, 0.0, 0.0, 0.0, 0.0, 1.6541565864747572E9, 0.0, 2022-06-02 09:56:26.474
218.0, 23942.40634946899, 449.18065657385074, -74496.64318521538, -54317.64475317535, -39285.91779302571, -40030.27558687635, -8558.952338570636, -46402.71322759548, 0.02, 0.8140000000000001, 0.598, 192.0, 0.0, 0.0, 0.0, 0.0, 0.0, 0.0, 0.0, 0.0, 0.0, 1.654156586474763E9, 0.0, 2022-06-02 09:56:26.474
219.0, 23939.07593954515, 431.54513019861344, -74530.57313329853, -54347.864311678924, -39312.695182883166, -40052.761441798386, -8585.595617961362, -46450.992995618944, 0.02, 0.8140000000000001, 0.598, 192.0, 0.0, 0.0, 0.0, 0.0, 0.0, 0.0, 0.0, 0.0, 0.0, 1.654156586474768E9, 0.0, 2022-06-02 09:56:26.474
220.0, 23950.341218750626, 430.6734121648565, -74541.03374970362, -54359.30840484004, -39324.40749697775, -40068.92175303957, -8615.390493320287, -46469.00850164992, 0.02, 0.8140000000000001, 0.598, 192.0, 0.0, 0.0, 0.0, 0.0, 0.0, 0.0, 0.0, 0.0, 0.0, 1.654156586474773E9, 0.0, 2022-06-02 09:56:26.474
221.0, 23943.769805880762, 426.82891211854366, -74527.4885925637, -54354.52513152661, -39316.942014329674, -40065.63604660464, -8612.820042707926, -46450.992995618944, 0.02, 0.8140000000000001, 0.598, 192.0, 0.0, 0.0, 0.0, 0.0, 0.0, 0.0, 0.0, 0.0, 0.0, 1.6541565864747782E9, 0.0, 2022-06-02 09:56:26.474
222.0, 23929.576448151645, 423.8114266170772, -74511.44004004479, -54345.04799187756, -39292.846833806856, -40057.20943894499, -8570.731707898583, -46431.52462619837, 0.02, 0.8140000000000001, 0.598, 192.0, 0.0, 0.0, 0.0, 0.0, 0.0, 0.0, 0.0, 0.0, 0.0, 1.6541565864747832E9, 0.0, 2022-06-02 09:56:26.474
223.0, 23924.815526582664, 430.56165344257994, -74506.00856614216, -54340.15295984185, -39283.70497032464, -40048.35814814069, -8572.36338524382, -46431.2564052649, 0.02, 0.8140000000000001, 0.598, 192.0, 0.0, 0.0, 0.0, 0.0, 0.0, 0.0, 0.0, 0.0, 0.0, 1.654156586474791E9, 0.0, 2022-06-02 09:56:26.474
224.0, 23926.626017883544, 425.75602838468893, -74528.24855187518, -54357.60967226144, -39297.384237931285, -40060.49514537992, -8603.029978636501, -46464.04641438084, 0.02, 0.8140000000000001, 0.598, 192.0, 0.0, 0.0, 0.0, 0.0, 0.0, 0.0, 0.0, 0.0, 0.0, 1.6541565864747963E9, 0.0, 2022-06-02 09:56:26.474
225.0, 23933.778576109242, 417.8211591030549, -74542.4419096043, -54371.221884634724, -39310.102380526354, -40076.387235687645, -8609.333170572898, -46458.03379512236, 0.024, 0.8200000000000001, 0.594, 192.0, 0.0, 192.0, 25.0, 160.0, 18.0, 144.0, 0.0, 0.0, 0.0, 1.6541565864748018E9, 0.0, 2022-06-02 09:56:26.474
226.0, 23926.268389972258, 407.785225842622, -74538.82092700254, -54364.67282350932, -39316.65144165176, -40060.27162793537, -8598.000836134057, -46383.75894829738, 0.024, 0.8200000000000001, 0.594, 192.0, 0.0, 0.0, 0.0, 0.0, 0.0, 0.0, 0.0, 0.0, 0.0, 1.6541565864748073E9, 0.0, 2022-06-02 09:56:26.474
227.0, 23927.453032428388, 418.4023044588929, -74515.57511276903, -54342.790465687576, -39302.86041532283, -40045.765345783875, -8575.112649811823, -46402.892041551124, 0.024, 0.8200000000000001, 0.594, 192.0, 0.0, 0.0, 0.0, 0.0, 0.0, 0.0, 0.0, 0.0, 0.0, 1.6541565864748123E9, 0.0, 2022-06-02 09:56:26.474
228.0, 23933.152727264493, 432.4839034657364, -74499.79478118358, -54326.071360835005, -39278.27349642199, -40027.32515660825, -8535.840634803848, -46385.81530878726, 0.024, 0.8200000000000001, 0.594, 192.0, 0.0, 0.0, 0.0, 0.0, 0.0, 0.0, 0.0, 0.0, 0.0, 1.6541565864748173E9, 0.0, 2022-06-02 09:56:26.474
229.0, 23931.990436552816, 424.48197895073645, -74521.83360121651, -54342.87987266539, -39287.5718221154, -40035.3494328677, -8546.055382019924, -46413.19619574502, 0.024, 0.8200000000000001, 0.594, 192.0, 0.0, 0.0, 0.0, 0.0, 0.0, 0.0, 0.0, 0.0, 0.0, 1.6541565864748232E9, 0.0, 2022-06-02 09:56:26.474
230.0, 23928.458860928877, 415.6753916353454, -74542.06192994857, -54359.88955019588, -39316.87495909631, -40061.12099422467, -8588.478992996097, -46444.823914149274, 0.024, 0.8200000000000001, 0.594, 192.0, 0.0, 0.0, 0.0, 0.0, 0.0, 0.0, 0.0, 0.0, 0.0, 1.6541565864748282E9, 0.0, 2022-06-02 09:56:26.474
231.0, 23924.59200913811, 416.7706271136555, -74540.76552877016, -54355.39684956037, -39324.1839795332, -40071.894535052124, -8603.32055131442, -46448.19902756203, 0.024, 0.8200000000000001, 0.594, 192.0, 0.0, 0.0, 0.0, 0.0, 0.0, 0.0, 0.0, 0.0, 0.0, 1.6541565864748335E9, 0.0, 2022-06-02 09:56:26.474
232.0, 23933.91268657597, 426.42658071834813, -74520.64895876039, -54335.012058617125, -39301.4746071666, -40060.53984886883, -8580.946455114658, -46440.778248402865, 0.024, 0.8200000000000001, 0.594, 192.0, 0.0, 0.0, 0.0, 0.0, 0.0, 0.0, 0.0, 0.0, 0.0, 1.6541565864748387E9, 0.0, 2022-06-02 09:56:26.474
233.0, 23930.314055718667, 425.21958651776157, -74518.88317094841, -54328.12772132489, -39291.930412284186, -40035.77411601235, -8560.338146726865, -46395.98535251443, 0.024, 0.8200000000000001, 0.594, 192.0, 0.0, 0.0, 0.0, 0.0, 0.0, 0.0, 0.0, 0.0, 0.0, 1.6541565864748442E9, 0.0, 2022-06-02 09:56:26.474
234.0, 23938.62890465604, 432.41684823237046, -74535.51286882316, -54335.90612839534, -39302.03340077799, -40026.38638334112, -8586.243818550565, -46410.62574513266, 0.024, 0.8200000000000001, 0.594, 192.0, 0.0, 0.0, 0.0, 0.0, 0.0, 0.0, 0.0, 0.0, 0.0, 1.6541565864748497E9, 0.0, 2022-06-02 09:56:26.474
235.0, 23943.099253547105, 422.00093531619734, -74554.10952020998, -54351.641756491874, -39321.54647368747, -40057.20943894499, -8601.55476350245, -46416.727771368955, 0.022, 0.8160000000000001, 0.604, 192.0, 0.0, 176.0, 25.0, 128.0, 18.0, 224.0, 0.0, 0.0, 0.0, 1.654156586474857E9, 0.0, 2022-06-02 09:56:26.474
236.0, 23957.18085255395, 436.9319006123425, -74525.16401114035, -54325.84784339045, -39290.41049366123, -40049.319273152265, -8570.821114876404, -46407.004762530894, 0.022, 0.8160000000000001, 0.604, 192.0, 0.0, 0.0, 0.0, 0.0, 0.0, 0.0, 0.0, 0.0, 0.0, 1.6541565864748628E9, 0.0, 2022-06-02 09:56:26.474
237.0, 23958.566660710178, 447.236054806239, -74502.29817656257, -54303.36198846841, -39279.10051096684, -40018.496217548396, -8549.07286752139, -46385.45768087598, 0.022, 0.8160000000000001, 0.604, 192.0, 0.0, 0.0, 0.0, 0.0, 0.0, 0.0, 0.0, 0.0, 0.0, 1.654156586474868E9, 0.0, 2022-06-02 09:56:26.474
238.0, 23960.623021200066, 444.08445883804075, -74504.22042658573, -54304.92661058028, -39278.96640050011, -40023.458304817475, -8547.68705936516, -46419.253518492405, 0.022, 0.8160000000000001, 0.604, 192.0, 0.0, 0.0, 0.0, 0.0, 0.0, 0.0, 0.0, 0.0, 0.0, 1.6541565864748738E9, 0.0, 2022-06-02 09:56:26.474
239.0, 23966.12155033607, 443.63742394893455, -74520.89482794939, -54315.54368919655, -39295.841967563865, -40030.20853164298, -8592.345844786865, -46441.73937341444, 0.022, 0.8160000000000001, 0.604, 192.0, 0.0, 0.0, 0.0, 0.0, 0.0, 0.0, 0.0, 0.0, 0.0, 1.65415658647488E9, 0.0, 2022-06-02 09:56:26.474
240.0, 23950.207108283892, 433.1544557993956, -74537.68098803532, -54333.55919522753, -39319.64657540877, -40043.12783993815, -8579.538295213973, -46419.812312103786, 0.022, 0.8160000000000001, 0.604, 192.0, 0.0, 0.0, 0.0, 0.0, 0.0, 0.0, 0.0, 0.0, 0.0, 1.6541565864748855E9, 0.0, 2022-06-02 09:56:26.474
241.0, 23943.434529713933, 437.6695081793676, -74516.4915342917, -54322.428026488786, -39292.04217100646, -40042.613749815675, -8533.761922569505, -46395.068930991765, 0.022, 0.8160000000000001, 0.604, 192.0, 0.0, 0.0, 0.0, 0.0, 0.0, 0.0, 0.0, 0.0, 0.0, 1.654156586953288E9, 0.0, 2022-06-02 09:56:26.953
242.0, 23934.136204020528, 428.34883074150457, -74512.64703424538, -54320.99751484365, -39290.09756923885, -40039.84213350322, -8555.93485306917, -46392.833756546235, 0.022, 0.8160000000000001, 0.604, 192.0, 0.0, 0.0, 0.0, 0.0, 0.0, 0.0, 0.0, 0.0, 0.0, 1.6541565869534242E9, 0.0, 2022-06-02 09:56:26.953
243.0, 23935.320846476658, 433.02034533266374, -74508.95899641025, -54315.83426187447, -39277.13355745478, -40029.78384849833, -8537.1146842378, -46384.585962842226, 0.022, 0.8160000000000001, 0.604, 192.0, 0.0, 0.0, 0.0, 0.0, 0.0, 0.0, 0.0, 0.0, 0.0, 1.6541565869534311E9, 0.0, 2022-06-02 09:56:26.953
244.0, 23931.25282898579, 422.42561846084817, -74538.68681653582, -54344.243329077166, -39297.6748106092, -40050.39215688612, -8568.36242298632, -46432.19517853203, 0.022, 0.8160000000000001, 0.604, 192.0, 0.0, 0.0, 0.0, 0.0, 0.0, 0.0, 0.0, 0.0, 0.0, 1.6541565869534929E9, 0.0, 2022-06-02 09:56:26.953
245.0, 23928.458860928877, 409.1263305099405, -74556.2999911666, -54369.36668984493, -39319.043078308474, -40082.08693052375, -8598.023187878513, -46431.546977942824, 0.022, 0.806, 0.608, 192.0, 0.0, 176.0, 25.0, 48.0, 19.0, 0.0, 0.0, 0.0, 0.0, 1.654156586953501E9, 0.0, 2022-06-02 09:56:26.953
246.0, 23946.854346615597, 426.3148219960716, -74524.44875531779, -54342.87987266539, -39289.136444227275, -40063.42322390356, -8583.628664449294, -46420.46051269299, 0.022, 0.806, 0.608, 192.0, 0.0, 0.0, 0.0, 0.0, 0.0, 0.0, 0.0, 0.0, 0.0, 1.6541565869535077E9, 0.0, 2022-06-02 09:56:26.953
247.0, 23949.581259439143, 429.1311417974403, -74505.24860683068, -54324.14911081185, -39259.833307246365, -40029.58268279823, -8548.201149487633, -46412.77151260037, 0.022, 0.806, 0.608, 192.0, 0.0, 0.0, 0.0, 0.0, 0.0, 0.0, 0.0, 0.0, 0.0, 1.654156586953513E9, 0.0, 2022-06-02 09:56:26.953
248.0, 23938.561849422676, 423.69966789480065, -74512.7364412232, -54330.89933763735, -39262.53786832546, -40028.420392086555, -8550.79395184445, -46417.84535859172, 0.022, 0.806, 0.608, 192.0, 0.0, 0.0, 0.0, 0.0, 0.0, 0.0, 0.0, 0.0, 0.0, 1.6541565869535184E9, 0.0, 2022-06-02 09:56:26.953
249.0, 23936.617247655064, 418.89404283690965, -74533.63532228892, -54348.3784018014, -39291.95276402864, -40038.47867709144, -8592.74817618706, -46439.303033268814, 0.022, 0.806, 0.608, 192.0, 0.0, 0.0, 0.0, 0.0, 0.0, 0.0, 0.0, 0.0, 0.0, 1.6541565869535236E9, 0.0, 2022-06-02 09:56:26.953
250.0, 23935.052625543194, 407.13702525341813, -74554.8024242881, -54364.33754734249, -39324.295738255474, -40069.86052630669, -8641.609089566362, -46486.018179180406, 0.022, 0.806, 0.608, 192.0, 0.0, 0.0, 0.0, 0.0, 0.0, 0.0, 0.0, 0.0, 0.0, 1.6541565869535303E9, 0.0, 2022-06-02 09:56:26.953
251.0, 23934.762052865273, 411.5626706555689, -74537.94920896878, -54352.11114312543, -39304.69325836817, -40063.28911343683, -8582.756946415539, -46448.9142833846, 0.022, 0.806, 0.608, 192.0, 0.0, 0.0, 0.0, 0.0, 0.0, 0.0, 0.0, 0.0, 0.0, 1.6541565869535353E9, 0.0, 2022-06-02 09:56:26.953
252.0, 23939.165346522972, 426.6948016518118, -74507.4837812762, -54323.09857882245, -39272.082063207876, -40026.185217641025, -8519.009771229003, -46369.00679695688, 0.022, 0.806, 0.608, 192.0, 0.0, 0.0, 0.0, 0.0, 0.0, 0.0, 0.0, 0.0, 0.0, 1.6541565869535408E9, 0.0, 2022-06-02 09:56:26.953
253.0, 23933.867983087064, 424.9960690732085, -74508.51196152114, -54321.578660199484, -39275.34541789835, -40017.60214777019, -8523.077788719867, -46363.91059922107, 0.022, 0.806, 0.608, 192.0, 0.0, 0.0, 0.0, 0.0, 0.0, 0.0, 0.0, 0.0, 0.0, 1.654156586953546E9, 0.0, 2022-06-02 09:56:26.953
254.0, 23925.97781729434, 414.75897011267784, -74541.86076424847, -54350.41241054683, -39309.29771772596, -40045.16184868358, -8573.704489911139, -46417.510082424895, 0.022, 0.806, 0.608, 192.0, 0.0, 0.0, 0.0, 0.0, 0.0, 0.0, 0.0, 0.0, 0.0, 1.6541565869535513E9, 0.0, 2022-06-02 09:56:26.953
255.0, 23919.518163146757, 400.78912982811096, -74569.19694771731, -54373.94879745827, -39341.39482276378, -40079.69529386703, -8603.789937947982, -46463.44291728055, 0.018000000000000002, 0.808, 0.61, 192.0, 0.0, 144.0, 25.0, 64.0, 19.0, 16.0, 0.0, 0.0, 0.0, 1.654156586953558E9, 0.0, 2022-06-02 09:56:26.953
0.0, 23923.943808548906, 402.8454903179992, -74552.88017426494, -54358.19081761728, -39330.28600576949, -40068.92175303957, -8601.018321635524, -46458.34671954474, 0.018000000000000002, 0.808, 0.61, 192.0, 0.0, 0.0, 0.0, 0.0, 0.0, 0.0, 0.0, 0.0, 0.0, 1.6541565869535751E9, 0.0, 2022-06-02 09:56:26.953
1.0, 23920.12166024705, 405.0583130190746, -74528.91910420885, -54340.3764772864, -39309.20831074814, -40046.1006219507, -8594.916295399225, -46433.782152388354, 0.018000000000000002, 0.808, 0.61, 192.0, 0.0, 0.0, 0.0, 0.0, 0.0, 0.0, 0.0, 0.0, 0.0, 1.6541565869535809E9, 0.0, 2022-06-02 09:56:26.953
2.0, 23923.83204982663, 414.9824875572309, -74516.91621743634, -54325.51256722362, -39295.03730476348, -40027.12399090815, -8567.468353208107, -46375.82407901574, 0.018000000000000002, 0.808, 0.61, 192.0, 0.0, 0.0, 0.0, 0.0, 0.0, 0.0, 0.0, 0.0, 0.0, 1.6541565869535863E9, 0.0, 2022-06-02 09:56:26.953
3.0, 23938.584201167134, 426.76185688517774, -74520.64895876039, -54320.46107297672, -39284.643743591754, -40019.50204604889, -8565.099068295845, -46405.686009608035, 0.018000000000000002, 0.808, 0.61, 192.0, 0.0, 0.0, 0.0, 0.0, 0.0, 0.0, 0.0, 0.0, 0.0, 1.6541565869535918E9, 0.0, 2022-06-02 09:56:26.953
4.0, 23929.73291036283, 407.58406014252427, -74547.7392730402, -54344.33273605499, -39303.30745021194, -40047.91111325158, -8586.087356339378, -46440.26415828039, 0.018000000000000002, 0.808, 0.61, 192.0, 0.0, 0.0, 0.0, 0.0, 0.0, 0.0, 0.0, 0.0, 0.0, 1.6541565869535973E9, 0.0, 2022-06-02 09:56:26.953
5.0, 23921.239247469814, 393.56951636904677, -74544.27475264964, -54346.18793084478, -39303.463912423125, -40062.84207854773, -8588.79191741847, -46448.08726883975, 0.018000000000000002, 0.808, 0.61, 192.0, 0.0, 0.0, 0.0, 0.0, 0.0, 0.0, 0.0, 0.0, 0.0, 1.6541565869536023E9, 0.0, 2022-06-02 09:56:26.953
6.0, 23910.197485708894, 394.0389030026082, -74523.0405954171, -54335.03441036158, -39291.081045994884, -40051.39798538661, -8581.192324303665, -46434.31859425528, 0.018000000000000002, 0.808, 0.61, 192.0, 0.0, 0.0, 0.0, 0.0, 0.0, 0.0, 0.0, 0.0, 0.0, 1.6541565869536076E9, 0.0, 2022-06-02 09:56:26.953
7.0, 23904.25192168378, 401.5043856506808, -74513.87638019043, -54328.48534923617, -39288.1753192157, -40030.789676998815, -8566.50722819653, -46416.95128881351, 0.018000000000000002, 0.808, 0.61, 192.0, 0.0, 0.0, 0.0, 0.0, 0.0, 0.0, 0.0, 0.0, 0.0, 1.654156586953613E9, 0.0, 2022-06-02 09:56:26.953
8.0, 23896.831142524617, 392.25076344618367, -74537.63628454642, -54350.85944543594, -39301.429903677694, -40054.10254646571, -8583.002815604546, -46452.244693308436, 0.018000000000000002, 0.808, 0.61, 192.0, 0.0, 0.0, 0.0, 0.0, 0.0, 0.0, 0.0, 0.0, 0.0, 1.6541565869536183E9, 0.0, 2022-06-02 09:56:26.953
9.0, 23908.342290919103, 391.02141750114174, -74545.81702301705, -54356.961471672235, -39312.11403752733, -40067.04420650533, -8602.694702469671, -46465.119298114696, 0.014, 0.808, 0.618, 192.0, 0.0, 112.0, 25.0, 64.0, 19.0, 80.0, 0.0, 0.0, 0.0, 1.6541565869536235E9, 0.0, 2022-06-02 09:56:26.953
10.0, 23925.910762060972, 405.0583130190746, -74518.30202559258, -54333.60389871644, -39291.34926692835, -40040.803258514796, -8577.906617868735, -46418.89589058112, 0.014, 0.808, 0.618, 192.0, 0.0, 0.0, 0.0, 0.0, 0.0, 0.0, 0.0, 0.0, 0.0, 1.6541565869536288E9, 0.0, 2022-06-02 09:56:26.953
11.0, 23930.895201074505, 412.50144392269186, -74499.92889165031, -54319.343485753954, -39269.489260851056, -40034.701232278494, -8543.373172685287, -46412.34682945572, 0.014, 0.808, 0.618, 192.0, 0.0, 0.0, 0.0, 0.0, 0.0, 0.0, 0.0, 0.0, 0.0, 1.654156586953634E9, 0.0, 2022-06-02 09:56:26.953
12.0, 23921.127488747537, 405.9970862861975, -74508.10963012095, -54328.306535280535, -39272.73026379708, -40038.948063725, -8544.244890719043, -46416.37014345767, 0.014, 0.808, 0.618, 192.0, 0.0, 0.0, 0.0, 0.0, 0.0, 0.0, 0.0, 0.0, 0.0, 1.6541565869536393E9, 0.0, 2022-06-02 09:56:26.953
13.0, 23926.246038227804, 406.82410083104384, -74517.89969419238, -54335.1238173394, -39278.80993828892, -40032.51076132188, -8564.69673689565, -46407.96588754248, 0.014, 0.808, 0.618, 192.0, 0.0, 0.0, 0.0, 0.0, 0.0, 0.0, 0.0, 0.0, 0.0, 1.6541565869536445E9, 0.0, 2022-06-02 09:56:26.953
14.0, 23923.87675331554, 397.95045828228695, -74540.47495609224, -54356.5814920165, -39301.16168274423, -40061.0539389913, -8588.456641251641, -46416.303088224304, 0.014, 0.808, 0.618, 192.0, 0.0, 0.0, 0.0, 0.0, 0.0, 0.0, 0.0, 0.0, 0.0, 1.65415658695365E9, 0.0, 2022-06-02 09:56:26.953
15.0, 23923.943808548906, 400.16328098336237, -74530.81900248755, -54350.4794657802, -39302.703953111646, -40066.44070940503, -8608.863783939336, -46438.85599837971, 0.014, 0.808, 0.618, 192.0, 0.0, 0.0, 0.0, 0.0, 0.0, 0.0, 0.0, 0.0, 0.0, 1.6541565869536552E9, 0.0, 2022-06-02 09:56:26.953
16.0, 23919.11583174656, 402.73373159572265, -74519.35255758198, -54339.772980186106, -39295.79726407496, -40058.37172965667, -8631.684915028205, -46497.35051361925, 0.014, 0.808, 0.618, 192.0, 0.0, 0.0, 0.0, 0.0, 0.0, 0.0, 0.0, 0.0, 0.0, 1.654156586953661E9, 0.0, 2022-06-02 09:56:26.953
17.0, 23912.477363643335, 404.20894672977295, -74514.14460112389, -54333.268622549615, -39291.41632216171, -40045.206552172494, -8604.594600748373, -46457.139725344154, 0.014, 0.808, 0.618, 192.0, 0.0, 0.0, 0.0, 0.0, 0.0, 0.0, 0.0, 0.0, 0.0, 1.6541565869536667E9, 0.0, 2022-06-02 09:56:26.953
18.0, 23908.07406998564, 396.3858361704155, -74531.2436856322, -54342.72341045421, -39297.54070014247, -40031.013194443374, -8543.93196629667, -46397.90760253759, 0.014, 0.808, 0.618, 192.0, 0.0, 0.0, 0.0, 0.0, 0.0, 0.0, 0.0, 0.0, 0.0, 1.6541565869536724E9, 0.0, 2022-06-02 09:56:26.953
19.0, 23918.11000324607, 397.25755420417244, -74549.81798527455, -54359.93425368479, -39311.75640961604, -40050.83919177523, -8548.02233553199, -46410.11165501019, 0.016, 0.8160000000000001, 0.622, 192.0, 0.0, 128.0, 25.0, 128.0, 19.0, 112.0, 0.0, 0.0, 0.0, 1.6541565869536777E9, 0.0, 2022-06-02 09:56:26.953
20.0, 23929.419985940458, 411.92029856685383, -74539.69264503631, -54351.41823904732, -39309.83415959289, -40054.90720926609, -8565.322585740398, -46417.59948940271, 0.016, 0.8160000000000001, 0.622, 192.0, 0.0, 0.0, 0.0, 0.0, 0.0, 0.0, 0.0, 0.0, 0.0, 1.6541565869536836E9, 0.0, 2022-06-02 09:56:26.953
21.0, 23915.83012531163, 401.5043856506808, -74518.07850814801, -54335.10146559495, -39295.417284419214, -40039.37274686965, -8558.237082748066, -46409.57521314326, 0.016, 0.8160000000000001, 0.622, 192.0, 0.0, 0.0, 0.0, 0.0, 0.0, 0.0, 0.0, 0.0, 0.0, 1.6541565869536896E9, 0.0, 2022-06-02 09:56:26.953
22.0, 23914.958407277874, 399.8727083054433, -74510.21069409975, -54328.06066609152, -39287.191842459666, -40030.54380780981, -8557.275957736487, -46404.03198051834, 0.016, 0.8160000000000001, 0.622, 192.0, 0.0, 0.0, 0.0, 0.0, 0.0, 0.0, 0.0, 0.0, 0.0, 1.6541565869536989E9, 0.0, 2022-06-02 09:56:26.953
23.0, 23929.30822721818, 410.4674351772589, -74530.86370597646, -54342.43283777629, -39301.6757728667, -40040.646796303605, -8577.727803913094, -46434.497408210926, 0.016, 0.8160000000000001, 0.622, 192.0, 0.0, 0.0, 0.0, 0.0, 0.0, 0.0, 0.0, 0.0, 0.0, 1.6541565869537053E9, 0.0, 2022-06-02 09:56:26.953
24.0, 23938.807718611686, 408.2322607317282, -74552.9919329872, -54360.80597171855, -39326.97794759011, -40068.87704955066, -8614.317609586431, -46474.39527206365, 0.016, 0.8160000000000001, 0.622, 192.0, 0.0, 0.0, 0.0, 0.0, 0.0, 0.0, 0.0, 0.0, 0.0, 1.6541565869537125E9, 0.0, 2022-06-02 09:56:26.953
25.0, 23948.195451282914, 420.97275507125323, -74535.55757231207, -54342.36578254292, -39311.86816833832, -40059.28815117933, -8595.005702377046, -46448.131972328665, 0.016, 0.8160000000000001, 0.622, 192.0, 0.0, 0.0, 0.0, 0.0, 0.0, 0.0, 0.0, 0.0, 0.0, 1.6541565869537208E9, 0.0, 2022-06-02 09:56:26.953
26.0, 23946.004980326295, 426.0466010626079, -74514.8822086909, -54324.93142186778, -39292.66801985121, -40046.86058126218, -8554.817265846405, -46421.60045166021, 0.016, 0.8160000000000001, 0.622, 192.0, 0.0, 0.0, 0.0, 0.0, 0.0, 0.0, 0.0, 0.0, 0.0, 1.6541565869537263E9, 0.0, 2022-06-02 09:56:26.953
27.0, 23948.64248617202, 432.34979299900453, -74507.23791208719, -54317.19771828625, -39286.78951105947, -40034.05303168929, -8552.984422801068, -46395.0018757584, 0.016, 0.8160000000000001, 0.622, 192.0, 0.0, 0.0, 0.0, 0.0, 0.0, 0.0, 0.0, 0.0, 0.0, 1.6541565869537334E9, 0.0, 2022-06-02 09:56:26.953
28.0, 23962.70173343441, 442.92216812636474, -74510.68008073332, -54317.13066305288, -39285.44840639215, -40023.23478737292, -8599.744272201571, -46430.74231514244, 0.012, 0.8140000000000001, 0.618, 192.0, 0.0, 96.0, 25.0, 112.0, 19.0, 80.0, 0.0, 0.0, 0.0, 1.6541565869537404E9, 0.0, 2022-06-02 09:56:26.953
29.0, 23945.423834970457, 425.42075221785933, -74541.9948747152, -54347.84195993447, -39316.56203467394, -40052.02383423136, -8637.183444164211, -46486.30875185833, 0.012, 0.8140000000000001, 0.618, 192.0, 0.0, 0.0, 0.0, 0.0, 0.0, 0.0, 0.0, 0.0, 0.0, 1.6541565869537456E9, 0.0, 2022-06-02 09:56:26.953
30.0, 23938.427738955947, 417.19531025830634, -74535.33405486752, -54347.08200062299, -39307.48722642508, -40043.82074401626, -8593.50813549854, -46433.08924831024, 0.012, 0.8140000000000001, 0.618, 192.0, 0.0, 0.0, 0.0, 0.0, 0.0, 0.0, 0.0, 0.0, 0.0, 1.6541565869537516E9, 0.0, 2022-06-02 09:56:26.953
31.0, 23943.076901802648, 423.40909521688167, -74512.37881331192, -54326.45134049074, -39275.79245278746, -40021.60311002769, -8546.278899464476, -46393.101977479695, 0.012, 0.8140000000000001, 0.618, 192.0, 0.0, 0.0, 0.0, 0.0, 0.0, 0.0, 0.0, 0.0, 0.0, 1.654156586953758E9, 0.0, 2022-06-02 09:56:26.953
32.0, 23955.638582186533, 436.7754384011553, -74500.01829862813, -54313.4202734733, -39261.53203982497, -40009.22024359945, -8535.17008247019, -46388.22929718844, 0.012, 0.8140000000000001, 0.618, 192.0, 0.0, 0.0, 0.0, 0.0, 0.0, 0.0, 0.0, 0.0, 0.0, 1.6541565869537635E9, 0.0, 2022-06-02 09:56:26.953
33.0, 23953.537518207733, 429.28760400862745, -74524.42640357332, -54332.88864289387, -39286.744807570554, -40025.291147862816, -8570.776411387493, -46427.6577744076, 0.012, 0.8140000000000001, 0.618, 192.0, 0.0, 0.0, 0.0, 0.0, 0.0, 0.0, 0.0, 0.0, 0.0, 1.6541565869537697E9, 0.0, 2022-06-02 09:56:26.953
34.0, 23944.440358214422, 413.9543073122868, -74552.96958124275, -54358.079058895004, -39325.97211908962, -40058.43878489003, -8637.988106964602, -46471.53424877337, 0.012, 0.8140000000000001, 0.618, 192.0, 0.0, 0.0, 0.0, 0.0, 0.0, 0.0, 0.0, 0.0, 0.0, 1.6541565869537787E9, 0.0, 2022-06-02 09:56:26.953
35.0, 23923.943808548906, 401.6384961174126, -74553.77424404315, -54368.070288666524, -39329.43663948019, -40084.88089858066, -8630.880252227815, -46496.925830474596, 0.012, 0.8140000000000001, 0.618, 192.0, 0.0, 0.0, 0.0, 0.0, 0.0, 0.0, 0.0, 0.0, 0.0, 1.6541565869537888E9, 0.0, 2022-06-02 09:56:26.953
36.0, 23922.423889925944, 409.95334505478684, -74530.86370597646, -54350.52416926911, -39306.79432234697, -40076.70016011002, -8606.002760649057, -46491.8743362277, 0.012, 0.8140000000000001, 0.618, 192.0, 0.0, 0.0, 0.0, 0.0, 0.0, 0.0, 0.0, 0.0, 0.0, 1.6541565869537947E9, 0.0, 2022-06-02 09:56:26.953
37.0, 23922.289779459214, 416.54710966910244, -74520.58190352701, -54340.689401708776, -39303.195691489665, -40055.39894764411, -8585.372100516808, -46448.28843453985, 0.012, 0.8140000000000001, 0.618, 192.0, 0.0, 0.0, 0.0, 0.0, 0.0, 0.0, 0.0, 0.0, 0.0, 1.6541565869538004E9, 0.0, 2022-06-02 09:56:26.953
38.0, 23918.02059626825, 408.7687025986556, -74538.91033398037, -54349.09365762397, -39307.9789648031, -40052.85084877621, -8579.65005393625, -46439.12421931318, 0.016, 0.8140000000000001, 0.616, 192.0, 0.0, 128.0, 25.0, 112.0, 19.0, 64.0, 0.0, 0.0, 0.0, 1.6541565869538069E9, 0.0, 2022-06-02 09:56:26.953
39.0, 23927.54243940621, 409.93099331033153, -74549.32624689654, -54357.07323039451, -39322.99933707707, -40067.915924539084, -8619.905545700258, -46469.41083305012, 0.016, 0.8140000000000001, 0.616, 192.0, 0.0, 0.0, 0.0, 0.0, 0.0, 0.0, 0.0, 0.0, 0.0, 1.654156586953812E9, 0.0, 2022-06-02 09:56:26.953
40.0, 23940.014712812274, 427.45476096329224, -74517.51971453664, -54333.64860220535, -39295.48433965258, -40047.91111325158, -8568.317719497409, -46410.8045590883, 0.016, 0.8140000000000001, 0.616, 192.0, 0.0, 0.0, 0.0, 0.0, 0.0, 0.0, 0.0, 0.0, 0.0, 1.6541565869538174E9, 0.0, 2022-06-02 09:56:26.953
41.0, 23945.89322160402, 439.50235122470275, -74492.32929853551, -54313.30851475102, -39271.657380063225, -40028.10746766418, -8527.391675399742, -46352.51120954886, 0.016, 0.8140000000000001, 0.616, 192.0, 0.0, 0.0, 0.0, 0.0, 0.0, 0.0, 0.0, 0.0, 0.0, 1.6541565869538236E9, 0.0, 2022-06-02 09:56:26.953
42.0, 23959.326620021657, 450.47705775225853, -74482.0251443416, -54305.6195146584, -39261.33087412487, -40021.558406538774, -8515.16527118269, -46369.27501789034, 0.016, 0.8140000000000001, 0.616, 192.0, 0.0, 0.0, 0.0, 0.0, 0.0, 0.0, 0.0, 0.0, 0.0, 1.6541565869538288E9, 0.0, 2022-06-02 09:56:26.953
43.0, 23962.098236334114, 439.0776680800519, -74504.37688879692, -54322.65154393334, -39276.70887431013, -40024.48648506242, -8556.515998425008, -46422.1592452716, 0.016, 0.8140000000000001, 0.616, 192.0, 0.0, 0.0, 0.0, 0.0, 0.0, 0.0, 0.0, 0.0, 0.0, 1.6541565869538388E9, 0.0, 2022-06-02 09:56:26.953
44.0, 23939.858250601086, 410.4227316883483, -74546.35346488398, -54361.029489163106, -39324.787476633486, -40066.373654171664, -8638.748066276083, -46484.699426257546, 0.016, 0.8140000000000001, 0.616, 192.0, 0.0, 0.0, 0.0, 0.0, 0.0, 0.0, 0.0, 0.0, 0.0, 1.6541565869538445E9, 0.0, 2022-06-02 09:56:26.953
45.0, 23941.534631435232, 416.1224265244516, -74537.94920896878, -54354.50277978215, -39321.61352892083, -40075.604924631705, -8626.901641714769, -46480.38553957767, 0.016, 0.8140000000000001, 0.616, 192.0, 0.0, 0.0, 0.0, 0.0, 0.0, 0.0, 0.0, 0.0, 0.0, 1.6541565869538512E9, 0.0, 2022-06-02 09:56:26.953
46.0, 23957.650239187507, 435.72490641175585, -74506.50030452017, -54324.50673872313, -39285.00137150304, -40047.41937487356, -8573.168048044212, -46432.329288998764, 0.016, 0.8140000000000001, 0.616, 192.0, 0.0, 0.0, 0.0, 0.0, 0.0, 0.0, 0.0, 0.0, 0.0, 1.6541565869538567E9, 0.0, 2022-06-02 09:56:26.953
47.0, 23953.671628674463, 439.0553163355966, -74492.99985086916, -54312.28033450608, -39271.81384227441, -40031.72845026594, -8551.375097200287, -46421.28752723784, 0.016, 0.8140000000000001, 0.616, 192.0, 0.0, 0.0, 0.0, 0.0, 0.0, 0.0, 0.0, 0.0, 0.0, 1.654156586953863E9, 0.0, 2022-06-02 09:56:26.953
48.0, 23950.654143172997, 437.334232012538, -74506.20973184225, -54318.13649155337, -39278.720531311104, -40023.391249584114, -8539.148692983234, -46417.66654463608, 0.018000000000000002, 0.8, 0.618, 192.0, 0.0, 144.0, 25.0, 0.0, 19.0, 80.0, 0.0, 0.0, 0.0, 1.6541565869538703E9, 0.0, 2022-06-02 09:56:26.953
49.0, 23944.39565472551, 418.4470079478035, -74539.75970026967, -54344.82447443301, -39307.040191535976, -40056.49418312242, -8584.209809805132, -46450.09892584073, 0.018000000000000002, 0.8, 0.618, 192.0, 0.0, 0.0, 0.0, 0.0, 0.0, 0.0, 0.0, 0.0, 0.0, 1.6541565869538774E9, 0.0, 2022-06-02 09:56:26.953
50.0, 23949.290686761226, 427.3430022410157, -74525.05225241807, -54337.20252957375, -39302.94982230065, -40058.43878489003, -8600.347769301865, -46454.72573694298, 0.018000000000000002, 0.8, 0.618, 192.0, 0.0, 0.0, 0.0, 0.0, 0.0, 0.0, 0.0, 0.0, 0.0, 1.654156586953886E9, 0.0, 2022-06-02 09:56:26.953
51.0, 23951.771730395765, 438.89885412440947, -74499.61596722793, -54315.83426187447, -39277.51353711051, -40034.96945321196, -8559.108800781823, -46411.922146311066, 0.018000000000000002, 0.8, 0.618, 192.0, 0.0, 0.0, 0.0, 0.0, 0.0, 0.0, 0.0, 0.0, 0.0, 1.6541565869538932E9, 0.0, 2022-06-02 09:56:26.953
52.0, 23953.939849607927, 441.02226984766367, -74493.24572005817, -54302.06558729, -39268.72930153958, -40011.500121533885, -8534.208957458612, -46362.636549787116, 0.018000000000000002, 0.8, 0.618, 192.0, 0.0, 0.0, 0.0, 0.0, 0.0, 0.0, 0.0, 0.0, 0.0, 1.6541565869539013E9, 0.0, 2022-06-02 09:56:26.953
53.0, 23955.571526953165, 437.6471564349123, -74510.6353772444, -54315.61074442992, -39282.207403446126, -40016.14928438059, -8551.30804196692, -46387.60344834369, 0.018000000000000002, 0.8, 0.618, 192.0, 0.0, 0.0, 0.0, 0.0, 0.0, 0.0, 0.0, 0.0, 0.0, 1.6541565869539127E9, 0.0, 2022-06-02 09:56:26.953
54.0, 23953.78338739674, 429.8463976200101, -74533.38945309991, -54341.650526720354, -39311.39878170476, -40050.727433052954, -8600.37012104632, -46423.589756916735, 0.018000000000000002, 0.8, 0.618, 192.0, 0.0, 0.0, 0.0, 0.0, 0.0, 0.0, 0.0, 0.0, 0.0, 1.6541565869539301E9, 0.0, 2022-06-02 09:56:26.953
55.0, 23962.2546985453, 438.6306331909458, -74517.3856040699, -54330.31819228151, -39304.6262031348, -40054.638988332634, -8601.1300803578, -46427.076629051764, 0.018000000000000002, 0.8, 0.618, 192.0, 0.0, 0.0, 0.0, 0.0, 0.0, 0.0, 0.0, 0.0, 0.0, 1.6541565869539397E9, 0.0, 2022-06-02 09:56:26.953
56.0, 23971.821245172174, 459.08247936755174, -74488.21657755574, -54300.07628203348, -39275.54658359845, -40030.32029036526, -8572.251626521544, -46411.09513176622, 0.018000000000000002, 0.8, 0.618, 192.0, 0.0, 0.0, 0.0, 0.0, 0.0, 0.0, 0.0, 0.0, 0.0, 1.6541565869539523E9, 0.0, 2022-06-02 09:56:26.953
57.0, 23959.952468866406, 453.5168949981803, -74489.35651652295, -54301.663255889805, -39273.51257485301, -40020.798447227295, -8553.16323675671, -46384.004817486384, 0.018000000000000002, 0.8, 0.618, 192.0, 0.0, 0.0, 0.0, 0.0, 0.0, 0.0, 0.0, 0.0, 0.0, 1.654156586953966E9, 0.0, 2022-06-02 09:56:26.953
58.0, 23956.063265331184, 441.2010838033061, -74508.40020279888, -54319.008209587126, -39279.03345573348, -40027.369860097155, -8549.274033221487, -46403.80846307379, 0.018000000000000002, 0.798, 0.622, 192.0, 0.0, 144.0, 24.0, 240.0, 19.0, 112.0, 0.0, 0.0, 0.0, 1.6541565869539883E9, 0.0, 2022-06-02 09:56:26.953
59.0, 23960.26539328878, 432.238034276728, -74526.68392976331, -54339.415352274824, -39298.9265082987, -40052.26970342037, -8589.529524985495, -46452.42350726408, 0.018000000000000002, 0.798, 0.622, 192.0, 0.0, 0.0, 0.0, 0.0, 0.0, 0.0, 0.0, 0.0, 0.0, 1.6541565869540083E9, 0.0, 2022-06-02 09:56:26.954
60.0, 23957.337314765136, 434.2496912777056, -74519.62077851544, -54338.05189586305, -39299.64176412127, -40062.08211923625, -8588.70251044065, -46450.009518862906, 0.018000000000000002, 0.798, 0.622, 192.0, 0.0, 0.0, 0.0, 0.0, 0.0, 0.0, 0.0, 0.0, 0.0, 1.6541565869540255E9, 0.0, 2022-06-02 09:56:26.954
61.0, 23958.857233388095, 438.6753366798564, -74497.06786836003, -54322.40567474433, -39283.86143253582, -40043.73133703844, -8582.98046386009, -46427.367201729685, 0.018000000000000002, 0.798, 0.622, 192.0, 0.0, 0.0, 0.0, 0.0, 0.0, 0.0, 0.0, 0.0, 0.0, 1.6541565869540524E9, 0.0, 2022-06-02 09:56:26.954
62.0, 23961.159463066993, 446.0067088611971, -74483.29919377556, -54311.14039553886, -39270.472737607095, -40022.45247631699, -8565.993138074058, -46412.391532944624, 0.018000000000000002, 0.798, 0.622, 192.0, 0.0, 0.0, 0.0, 0.0, 0.0, 0.0, 0.0, 0.0, 0.0, 1.6541565869540753E9, 0.0, 2022-06-02 09:56:26.954
63.0, 23944.88739310353, 429.95815634228666, -74506.05326963107, -54332.26279404912, -39280.66513307871, -40015.97047042495, -8534.901861536726, -46381.12144245165, 0.018000000000000002, 0.798, 0.622, 192.0, 0.0, 0.0, 0.0, 0.0, 0.0, 0.0, 0.0, 0.0, 0.0, 1.6541565869541001E9, 0.0, 2022-06-02 09:56:26.954
64.0, 23936.77370986625, 410.95917355527564, -74535.75873801217, -54363.21996011972, -39316.40557246275, -40048.98399698544, -8577.41487949072, -46427.38955347414, 0.018000000000000002, 0.798, 0.622, 192.0, 0.0, 0.0, 0.0, 0.0, 0.0, 0.0, 0.0, 0.0, 0.0, 1.6541565869541256E9, 0.0, 2022-06-02 09:56:26.954
65.0, 23943.03219831374, 421.97858357174204, -74519.84429595999, -54353.876930937404, -39313.54454917247, -40056.98592150044, -8601.487708269085, -46449.316614784795, 0.018000000000000002, 0.798, 0.622, 192.0, 0.0, 0.0, 0.0, 0.0, 0.0, 0.0, 0.0, 0.0, 0.0, 1.6541565869541311E9, 0.0, 2022-06-02 09:56:26.954
66.0, 23947.144919293514, 431.7239441542559, -74499.01247012765, -54336.263756306624, -39287.102435481844, -40042.25612190439, -8574.12917305579, -46420.08053303725, 0.018000000000000002, 0.798, 0.622, 192.0, 0.0, 0.0, 0.0, 0.0, 0.0, 0.0, 0.0, 0.0, 0.0, 1.6541565869541364E9, 0.0, 2022-06-02 09:56:26.954
67.0, 23947.591954182622, 437.9377291128313, -74484.26031878714, -54320.75164565464, -39267.455252105625, -40026.2969763633, -8535.527710381473, -46375.86878250466, 0.018000000000000002, 0.798, 0.622, 192.0, 0.0, 0.0, 0.0, 0.0, 0.0, 0.0, 0.0, 0.0, 0.0, 1.654156586954142E9, 0.0, 2022-06-02 09:56:26.954
68.0, 23957.56083220969, 443.2127408042837, -74495.25737705916, -54323.03152358908, -39278.497013866545, -40037.91988348006, -8568.45182996414, -46405.59660263021, 0.018000000000000002, 0.802, 0.626, 192.0, 0.0, 144.0, 25.0, 16.0, 19.0, 144.0, 0.0, 0.0, 0.0, 1.6541565869541476E9, 0.0, 2022-06-02 09:56:26.954
69.0, 23948.50837570529, 423.2079295167839, -74527.53329605261, -54350.85944543594, -39306.9284328137, -40058.416433145576, -8597.531449500495, -46462.50414401342, 0.018000000000000002, 0.802, 0.626, 192.0, 0.0, 0.0, 0.0, 0.0, 0.0, 0.0, 0.0, 0.0, 0.0, 1.6541565869541528E9, 0.0, 2022-06-02 09:56:26.954
70.0, 23953.82809088565, 427.3877057299263, -74507.55083650957, -54335.68261095078, -39292.846833806856, -40043.3513573827, -8572.273978266, -46412.16801550007, 0.018000000000000002, 0.802, 0.626, 192.0, 0.0, 0.0, 0.0, 0.0, 0.0, 0.0, 0.0, 0.0, 0.0, 1.654156586954158E9, 0.0, 2022-06-02 09:56:26.954
71.0, 23955.437416486435, 438.85415063549885, -74485.93669962129, -54317.465939219706, -39274.22783067558, -40029.58268279823, -8559.622890904295, -46388.47516637745, 0.018000000000000002, 0.802, 0.626, 192.0, 0.0, 0.0, 0.0, 0.0, 0.0, 0.0, 0.0, 0.0, 0.0, 1.6541565869541636E9, 0.0, 2022-06-02 09:56:26.954
72.0, 23954.990381597327, 447.3254617840602, -74478.67238267332, -54313.53203219557, -39271.165641685206, -40029.67208977605, -8575.827905634393, -46421.15341677111, 0.018000000000000002, 0.802, 0.626, 192.0, 0.0, 0.0, 0.0, 0.0, 0.0, 0.0, 0.0, 0.0, 0.0, 1.6541565869541693E9, 0.0, 2022-06-02 09:56:26.954
73.0, 23945.043855314718, 426.0018975736973, -74509.56249351054, -54337.247233062655, -39289.24820294955, -40037.76342126887, -8578.867742880315, -46442.36522225919, 0.018000000000000002, 0.802, 0.626, 192.0, 0.0, 0.0, 0.0, 0.0, 0.0, 0.0, 0.0, 0.0, 0.0, 1.6541565869541745E9, 0.0, 2022-06-02 09:56:26.954
74.0, 23944.485061703333, 415.72009512425603, -74530.05904317606, -54355.352146071455, -39306.41434269123, -40052.180296442544, -8579.135963813778, -46456.29035905485, 0.018000000000000002, 0.802, 0.626, 192.0, 0.0, 0.0, 0.0, 0.0, 0.0, 0.0, 0.0, 0.0, 0.0, 1.6541565869541795E9, 0.0, 2022-06-02 09:56:26.954
75.0, 23956.331486264648, 431.7015924098006, -74504.04161263008, -54335.28027955059, -39281.04511273446, -40038.568084069266, -8566.730745641082, -46420.304050481805, 0.018000000000000002, 0.802, 0.626, 192.0, 0.0, 0.0, 0.0, 0.0, 0.0, 0.0, 0.0, 0.0, 0.0, 1.6541565869541852E9, 0.0, 2022-06-02 09:56:26.954
76.0, 23949.13422455004, 428.0359063191303, -74493.40218226936, -54329.96056437022, -39273.37846438628, -40037.76342126887, -8569.100030553345, -46422.31570748278, 0.018000000000000002, 0.802, 0.626, 192.0, 0.0, 0.0, 0.0, 0.0, 0.0, 0.0, 0.0, 0.0, 0.0, 1.6541565869541907E9, 0.0, 2022-06-02 09:56:26.954
77.0, 23927.58714289512, 405.93003105283157, -74511.97648191173, -54348.60191924595, -39299.93233679919, -40058.21526744548, -8583.338091771377, -46456.67033871059, 0.018000000000000002, 0.802, 0.626, 192.0, 0.0, 0.0, 0.0, 0.0, 0.0, 0.0, 0.0, 0.0, 0.0, 1.654156586954196E9, 0.0, 2022-06-02 09:56:26.954
78.0, 23927.475384172845, 407.6511153758902, -74525.72280475174, -54352.781695459096, -39309.36477295933, -40051.48739236443, -8597.531449500495, -46453.00465261992, 0.014, 0.804, 0.626, 192.0, 0.0, 112.0, 25.0, 32.0, 19.0, 144.0, 0.0, 0.0, 0.0, 1.6541565869542017E9, 0.0, 2022-06-02 09:56:26.954
79.0, 23927.028349283737, 401.6384961174126, -74544.23004916073, -54367.802067733064, -39328.49786621307, -40059.84694479072, -8628.242746382088, -46459.374899789684, 0.014, 0.804, 0.626, 192.0, 0.0, 0.0, 0.0, 0.0, 0.0, 0.0, 0.0, 0.0, 0.0, 1.6541565869542072E9, 0.0, 2022-06-02 09:56:26.954
80.0, 23932.30336097519, 408.65694387637905, -74529.81317398706, -54352.33466056999, -39320.11596204233, -40052.31440690928, -8617.648019510272, -46437.09021056774, 0.014, 0.804, 0.626, 192.0, 0.0, 0.0, 0.0, 0.0, 0.0, 0.0, 0.0, 0.0, 0.0, 1.6541565869542124E9, 0.0, 2022-06-02 09:56:26.954
81.0, 23949.53655595023, 431.9251098543537, -74493.49158924718, -54319.70111366524, -39271.43386261867, -40025.6487757741, -8537.986402271557, -46365.207000399474, 0.014, 0.804, 0.626, 192.0, 0.0, 0.0, 0.0, 0.0, 0.0, 0.0, 0.0, 0.0, 0.0, 1.6541565869542177E9, 0.0, 2022-06-02 09:56:26.954
82.0, 23955.213899041883, 440.463476236281, -74489.35651652295, -54315.7672066411, -39261.88966773626, -40018.58562452622, -8524.128320709267, -46367.308064378274, 0.014, 0.804, 0.626, 192.0, 0.0, 0.0, 0.0, 0.0, 0.0, 0.0, 0.0, 0.0, 0.0, 1.654156586954223E9, 0.0, 2022-06-02 09:56:26.954
83.0, 23943.300419247204, 428.3935342304152, -74513.29523483459, -54330.16173007032, -39289.136444227275, -40032.44370608851, -8558.728821126082, -46434.94444310003, 0.014, 0.804, 0.626, 192.0, 0.0, 0.0, 0.0, 0.0, 0.0, 0.0, 0.0, 0.0, 0.0, 1.6541565869542282E9, 0.0, 2022-06-02 09:56:26.954
84.0, 23933.55505866469, 413.79784510109965, -74537.54687756859, -54353.34048907048, -39312.65047939426, -40062.5068023809, -8586.020301106013, -46446.07561183877, 0.014, 0.804, 0.626, 192.0, 0.0, 0.0, 0.0, 0.0, 0.0, 0.0, 0.0, 0.0, 0.0, 1.6541565869542336E9, 0.0, 2022-06-02 09:56:26.954
85.0, 23954.92332636396, 429.28760400862745, -74512.80349645657, -54336.353163284446, -39297.33953444237, -40057.74588081192, -8582.332263270888, -46437.850169879224, 0.014, 0.804, 0.626, 192.0, 0.0, 0.0, 0.0, 0.0, 0.0, 0.0, 0.0, 0.0, 0.0, 1.654156586954239E9, 0.0, 2022-06-02 09:56:26.954
86.0, 23958.633715943542, 441.33519427003796, -74492.77633342461, -54321.39984624385, -39286.09660698135, -40045.09479345021, -8581.996987104058, -46438.38661174615, 0.014, 0.804, 0.626, 192.0, 0.0, 0.0, 0.0, 0.0, 0.0, 0.0, 0.0, 0.0, 0.0, 1.6541565869542468E9, 0.0, 2022-06-02 09:56:26.954
87.0, 23941.467576201867, 432.03686857663024, -74489.06594384504, -54318.717636909205, -39287.1247872263, -40041.719680037466, -8586.199115061656, -46443.12518157067, 0.014, 0.804, 0.626, 192.0, 0.0, 0.0, 0.0, 0.0, 0.0, 0.0, 0.0, 0.0, 0.0, 1.6541565869542525E9, 0.0, 2022-06-02 09:56:26.954
88.0, 23935.11968077656, 421.95623182728673, -74498.72189744972, -54325.154939312335, -39284.44257789166, -40039.886836992126, -8558.192379259155, -46432.15047504312, 0.016, 0.804, 0.628, 192.0, 0.0, 128.0, 25.0, 32.0, 19.0, 160.0, 0.0, 0.0, 0.0, 1.6541565869542577E9, 0.0, 2022-06-02 09:56:26.954
89.0, 23942.004018068794, 415.42952244633705, -74523.6440925174, -54346.411448289335, -39305.78849384648, -40047.32996789575, -8573.950359100147, -46429.33415524175, 0.016, 0.804, 0.628, 192.0, 0.0, 0.0, 0.0, 0.0, 0.0, 0.0, 0.0, 0.0, 0.0, 1.6541565869542632E9, 0.0, 2022-06-02 09:56:26.954
90.0, 23940.64056165702, 416.36829571346, -74519.12904013741, -54348.24429133467, -39303.598022889855, -40054.16960169907, -8576.230237034588, -46428.842416863736, 0.016, 0.804, 0.628, 192.0, 0.0, 0.0, 0.0, 0.0, 0.0, 0.0, 0.0, 0.0, 0.0, 1.6541565869542687E9, 0.0, 2022-06-02 09:56:26.954
91.0, 23930.559924907677, 417.55293816959124, -74506.76852545363, -54344.42214303281, -39295.03730476348, -40051.576799342256, -8571.514018954518, -46426.115504040186, 0.016, 0.804, 0.628, 192.0, 0.0, 0.0, 0.0, 0.0, 0.0, 0.0, 0.0, 0.0, 0.0, 1.654156586954274E9, 0.0, 2022-06-02 09:56:26.954
92.0, 23927.050701028194, 420.68218239333424, -74497.17962708231, -54335.66025920633, -39275.61363883181, -40040.28916839232, -8567.893036352758, -46412.413884689086, 0.016, 0.804, 0.628, 192.0, 0.0, 0.0, 0.0, 0.0, 0.0, 0.0, 0.0, 0.0, 0.0, 1.6541565869542794E9, 0.0, 2022-06-02 09:56:26.954
93.0, 23930.06818652966, 413.6637346343678, -74514.72574647973, -54351.26177683613, -39291.28221169498, -40051.10741270869, -8591.541181986473, -46415.72194286847, 0.016, 0.804, 0.628, 192.0, 0.0, 0.0, 0.0, 0.0, 0.0, 0.0, 0.0, 0.0, 0.0, 1.6541565869542851E9, 0.0, 2022-06-02 09:56:26.954
94.0, 23930.090538274115, 399.5150803941584, -74542.08428169302, -54376.98863470419, -39323.15579928825, -40075.962552542995, -8601.979446647101, -46451.685899697055, 0.016, 0.804, 0.628, 192.0, 0.0, 0.0, 0.0, 0.0, 0.0, 0.0, 0.0, 0.0, 0.0, 1.6541565869542909E9, 0.0, 2022-06-02 09:56:26.954
95.0, 23934.31501797617, 410.1992142437952, -74525.63339777391, -54361.94591068577, -39311.73405787159, -40064.51845938188, -8603.901696670258, -46451.417678763595, 0.016, 0.804, 0.628, 192.0, 0.0, 0.0, 0.0, 0.0, 0.0, 0.0, 0.0, 0.0, 0.0, 1.6541565869542992E9, 0.0, 2022-06-02 09:56:26.954
96.0, 23945.557945437187, 424.45962720628114, -74496.55377823756, -54338.11895109641, -39289.06938899391, -40046.033566717335, -8599.341940801376, -46434.22918727746, 0.016, 0.804, 0.628, 192.0, 0.0, 0.0, 0.0, 0.0, 0.0, 0.0, 0.0, 0.0, 0.0, 1.6541565869543047E9, 0.0, 2022-06-02 09:56:26.954
97.0, 23945.870869859562, 426.270118507161, -74487.59072871099, -54327.59127945796, -39278.362903399815, -40030.27558687635, -8591.138850586278, -46428.417733719085, 0.016, 0.804, 0.628, 192.0, 0.0, 0.0, 0.0, 0.0, 0.0, 0.0, 0.0, 0.0, 0.0, 1.6541565869543102E9, 0.0, 2022-06-02 09:56:26.954
98.0, 23936.706654632886, 423.1632260278733, -74503.72868820772, -54331.033448104085, -39288.13061572678, -40028.50979906438, -8567.468353208107, -46426.85311160721, 0.016, 0.8, 0.618, 192.0, 0.0, 128.0, 25.0, 0.0, 19.0, 80.0, 0.0, 0.0, 0.0, 1.654156586954316E9, 0.0, 2022-06-02 09:56:26.954
99.0, 23930.671683629953, 411.0709322775522, -74530.32726410952, -54356.80500946105, -39317.61256666334, -40055.466002877474, -8583.785126660481, -46448.37784151767, 0.016, 0.8, 0.618, 192.0, 0.0, 0.0, 0.0, 0.0, 0.0, 0.0, 0.0, 0.0, 0.0, 1.6541565869543211E9, 0.0, 2022-06-02 09:56:26.954
100.0, 23955.057436830695, 433.2662145216721, -74503.97455739672, -54333.2239190607, -39292.8244820624, -40040.69149979252, -8556.873626336292, -46423.880329594656, 0.016, 0.8, 0.618, 192.0, 0.0, 0.0, 0.0, 0.0, 0.0, 0.0, 0.0, 0.0, 0.0, 1.6541565869543266E9, 0.0, 2022-06-02 09:56:26.954
101.0, 23946.004980326295, 434.07087732206315, -74495.0338596146, -54326.965430613214, -39286.36482791482, -40032.80133399979, -8555.2195972466, -46412.816216089275, 0.016, 0.8, 0.618, 192.0, 0.0, 0.0, 0.0, 0.0, 0.0, 0.0, 0.0, 0.0, 0.0, 1.6541565869543319E9, 0.0, 2022-06-02 09:56:26.954
102.0, 23938.673608144953, 435.43433373383687, -74492.32929853551, -54325.62432594589, -39282.9226592687, -40034.790639256316, -8562.372155472298, -46426.026097062364, 0.016, 0.8, 0.618, 192.0, 0.0, 0.0, 0.0, 0.0, 0.0, 0.0, 0.0, 0.0, 0.0, 1.6541565869543374E9, 0.0, 2022-06-02 09:56:26.954
103.0, 23936.79606161071, 426.9183190963649, -74513.67521449033, -54342.05285812055, -39292.37744717329, -40048.760479540884, -8570.351728242842, -46461.72183295749, 0.016, 0.8, 0.618, 192.0, 0.0, 0.0, 0.0, 0.0, 0.0, 0.0, 0.0, 0.0, 0.0, 1.6541565869543428E9, 0.0, 2022-06-02 09:56:26.954
104.0, 23935.320846476658, 411.8979468223985, -74544.78884277212, -54369.32198635602, -39320.00420332005, -40075.24729672042, -8623.012438179545, -46491.44965308305, 0.016, 0.8, 0.618, 192.0, 0.0, 0.0, 0.0, 0.0, 0.0, 0.0, 0.0, 0.0, 0.0, 1.6541565869543483E9, 0.0, 2022-06-02 09:56:26.954
105.0, 23936.907820332985, 417.0835515360298, -74535.28935137861, -54361.67768975231, -39323.89340685528, -40077.84009907724, -8641.162054677256, -46462.14651610214, 0.016, 0.8, 0.618, 192.0, 0.0, 0.0, 0.0, 0.0, 0.0, 0.0, 0.0, 0.0, 0.0, 1.654156587433645E9, 0.0, 2022-06-02 09:56:27.433
106.0, 23941.91461109097, 431.8357028765324, -74499.90653990586, -54332.151035326846, -39286.09660698135, -40054.92956101055, -8573.726841655594, -46426.115504040186, 0.016, 0.8, 0.618, 192.0, 0.0, 0.0, 0.0, 0.0, 0.0, 0.0, 0.0, 0.0, 0.0, 1.6541565874338253E9, 0.0, 2022-06-02 09:56:27.433
107.0, 23908.83402929712, 407.1146735089628, -74514.0328424016, -54347.77490470111, -39298.7253425986, -40070.709892595994, -8576.207885290132, -46450.74712642993, 0.012, 0.802, 0.62, 192.0, 0.0, 96.0, 25.0, 16.0, 19.0, 96.0, 0.0, 0.0, 0.0, 1.6541565874338417E9, 0.0, 2022-06-02 09:56:27.433
108.0, 23922.848573070594, 407.89698456489856, -74520.11251689345, -54349.71950646872, -39299.59706063236, -40076.18606998755, -8601.107728613344, -46464.44874578104, 0.012, 0.802, 0.62, 192.0, 0.0, 0.0, 0.0, 0.0, 0.0, 0.0, 0.0, 0.0, 0.0, 1.6541565874338472E9, 0.0, 2022-06-02 09:56:27.433
109.0, 23921.26159921427, 395.13413848091824, -74549.32624689654, -54373.09943116897, -39321.83704636539, -40094.53685218535, -8624.174728891221, -46453.362280531204, 0.012, 0.802, 0.62, 192.0, 0.0, 0.0, 0.0, 0.0, 0.0, 0.0, 0.0, 0.0, 0.0, 1.6541565874338524E9, 0.0, 2022-06-02 09:56:27.433
110.0, 23922.245075970302, 394.6424001029015, -74541.86076424847, -54372.562989302045, -39320.8312178649, -40091.11703528369, -8621.984257934602, -46480.139670388664, 0.012, 0.802, 0.62, 192.0, 0.0, 0.0, 0.0, 0.0, 0.0, 0.0, 0.0, 0.0, 0.0, 1.654156587433858E9, 0.0, 2022-06-02 09:56:27.433
111.0, 23923.764994593264, 410.66860087735665, -74512.80349645657, -54348.24429133467, -39297.13836874227, -40053.029662731846, -8585.953245872646, -46421.13106502665, 0.012, 0.802, 0.62, 192.0, 0.0, 0.0, 0.0, 0.0, 0.0, 0.0, 0.0, 0.0, 0.0, 1.654156587433863E9, 0.0, 2022-06-02 09:56:27.433
112.0, 23921.663930614464, 424.12435103945154, -74499.34774629447, -54337.448398762754, -39287.75063607105, -40040.89266549262, -8594.469260510119, -46420.14758827062, 0.012, 0.802, 0.62, 192.0, 0.0, 0.0, 0.0, 0.0, 0.0, 0.0, 0.0, 0.0, 0.0, 1.6541565874338682E9, 0.0, 2022-06-02 09:56:27.433
113.0, 23919.36170093557, 411.4062084443818, -74518.21261861475, -54355.62036700492, -39295.52904314149, -40054.75074705491, -8587.227295306599, -46452.15528633062, 0.012, 0.802, 0.62, 192.0, 0.0, 0.0, 0.0, 0.0, 0.0, 0.0, 0.0, 0.0, 0.0, 1.654156587433874E9, 0.0, 2022-06-02 09:56:27.433
114.0, 23921.485116658823, 400.36444668346013, -74546.4428718618, -54381.72720452872, -39321.6805841542, -40079.1588520001, -8611.031903151501, -46484.18533613507, 0.012, 0.802, 0.62, 192.0, 0.0, 0.0, 0.0, 0.0, 0.0, 0.0, 0.0, 0.0, 0.0, 1.65415658743388E9, 0.0, 2022-06-02 09:56:27.433
115.0, 23935.946695321407, 416.7035718802896, -74526.1921913853, -54361.99061417468, -39308.291889225475, -40066.44070940503, -8603.432310036696, -46448.19902756203, 0.012, 0.802, 0.62, 192.0, 0.0, 0.0, 0.0, 0.0, 0.0, 0.0, 0.0, 0.0, 0.0, 1.654156587433885E9, 0.0, 2022-06-02 09:56:27.433
116.0, 23941.892259346518, 425.21958651776157, -74503.79574344108, -54342.54459649856, -39290.70106633915, -40053.096717965214, -8588.03195810699, -46435.123257055675, 0.012, 0.802, 0.62, 192.0, 0.0, 0.0, 0.0, 0.0, 0.0, 0.0, 0.0, 0.0, 0.0, 1.6541565874338903E9, 0.0, 2022-06-02 09:56:27.433
117.0, 23934.605590654086, 424.19140627281746, -74501.62762422892, -54338.923613896804, -39286.342476170365, -40038.79160151382, -8584.612141205329, -46434.832684377754, 0.01, 0.808, 0.616, 192.0, 0.0, 80.0, 25.0, 64.0, 19.0, 64.0, 0.0, 0.0, 0.0, 1.6541565874338956E9, 0.0, 2022-06-02 09:56:27.433
118.0, 23933.376244709045, 419.60929865947946, -74519.6431302599, -54348.75838145714, -39287.14713897075, -40039.819781758764, -8578.979501602591, -46447.372013017186, 0.01, 0.808, 0.616, 192.0, 0.0, 0.0, 0.0, 0.0, 0.0, 0.0, 0.0, 0.0, 0.0, 1.6541565874339008E9, 0.0, 2022-06-02 09:56:27.433
119.0, 23953.02342808526, 421.1962725158063, -74523.30881635056, -54355.10627688245, -39295.976078030595, -40043.1501916826, -8565.009661318023, -46425.64611740662, 0.01, 0.808, 0.616, 192.0, 0.0, 0.0, 0.0, 0.0, 0.0, 0.0, 0.0, 0.0, 0.0, 1.654156587433906E9, 0.0, 2022-06-02 09:56:27.433
120.0, 23951.749378651308, 416.90473758038735, -74520.51484829365, -54349.697154724265, -39298.94886004315, -40044.35718588319, -8558.84057984836, -46393.07962573524, 0.01, 0.808, 0.616, 192.0, 0.0, 0.0, 0.0, 0.0, 0.0, 0.0, 0.0, 0.0, 0.0, 1.654156587433912E9, 0.0, 2022-06-02 09:56:27.433
121.0, 23945.535593692734, 419.16226377037333, -74511.14946736688, -54339.23653831918, -39293.40562741824, -40046.86058126218, -8572.385736988275, -46405.37308518566, 0.01, 0.808, 0.616, 192.0, 0.0, 0.0, 0.0, 0.0, 0.0, 0.0, 0.0, 0.0, 0.0, 1.6541565874339173E9, 0.0, 2022-06-02 09:56:27.433
122.0, 23926.02252078325, 414.2225282457505, -74510.56832201104, -54339.50475925264, -39294.00912451853, -40054.48252612144, -8566.283710751977, -46393.14668096861, 0.01, 0.808, 0.616, 192.0, 0.0, 0.0, 0.0, 0.0, 0.0, 0.0, 0.0, 0.0, 0.0, 1.6541565874339225E9, 0.0, 2022-06-02 09:56:27.433
123.0, 23931.811622597175, 424.0796475505409, -74513.56345576805, -54336.1743493288, -39287.48241513758, -40046.3017876508, -8569.636472420272, -46416.526605668856, 0.01, 0.808, 0.616, 192.0, 0.0, 0.0, 0.0, 0.0, 0.0, 0.0, 0.0, 0.0, 0.0, 1.6541565874339278E9, 0.0, 2022-06-02 09:56:27.433
124.0, 23940.64056165702, 423.5655574280688, -74530.3943193429, -54350.16654135782, -39299.328839698894, -40052.56027609829, -8590.691815697171, -46448.64606245114, 0.01, 0.808, 0.616, 192.0, 0.0, 0.0, 0.0, 0.0, 0.0, 0.0, 0.0, 0.0, 0.0, 1.654156587433933E9, 0.0, 2022-06-02 09:56:27.433
125.0, 23928.30239871769, 410.5568421550801, -74536.76456651266, -54361.789448474585, -39306.57080490241, -40074.24146821994, -8605.533374015497, -46458.48083001147, 0.01, 0.808, 0.616, 192.0, 0.0, 0.0, 0.0, 0.0, 0.0, 0.0, 0.0, 0.0, 0.0, 1.6541565874339385E9, 0.0, 2022-06-02 09:56:27.433
126.0, 23941.78050062424, 433.71324941077825, -74502.54404575158, -54329.334715525474, -39277.96057199962, -40045.69829055051, -8585.796783661459, -46434.13978029964, 0.01, 0.808, 0.616, 192.0, 0.0, 0.0, 0.0, 0.0, 0.0, 0.0, 0.0, 0.0, 0.0, 1.6541565874339435E9, 0.0, 2022-06-02 09:56:27.433
127.0, 23943.45688145839, 441.26813903667204, -74489.15535082285, -54309.97810482718, -39266.78469977197, -40023.458304817475, -8535.50535863702, -46401.26036420588, 0.016, 0.808, 0.616, 192.0, 0.0, 128.0, 25.0, 64.0, 19.0, 64.0, 0.0, 0.0, 0.0, 1.6541565874339488E9, 0.0, 2022-06-02 09:56:27.433
128.0, 23937.153689521994, 427.3877057299263, -74513.71991797924, -54323.70207592274, -39282.94501101315, -40029.71679326496, -8558.21473100361, -46424.55088192831, 0.016, 0.808, 0.616, 192.0, 0.0, 0.0, 0.0, 0.0, 0.0, 0.0, 0.0, 0.0, 0.0, 1.6541565874339583E9, 0.0, 2022-06-02 09:56:27.433
129.0, 23942.49575644681, 422.42561846084817, -74529.25438037567, -54340.93527089778, -39299.194729232164, -40049.83336327474, -8594.782184932494, -46459.71017595651, 0.016, 0.808, 0.616, 192.0, 0.0, 0.0, 0.0, 0.0, 0.0, 0.0, 0.0, 0.0, 0.0, 1.6541565874339633E9, 0.0, 2022-06-02 09:56:27.433
130.0, 23954.766864152774, 429.8016941310995, -74517.94439768129, -54332.53101498259, -39298.702990854144, -40052.00148248691, -8602.962923403134, -46451.14945783013, 0.016, 0.808, 0.616, 192.0, 0.0, 0.0, 0.0, 0.0, 0.0, 0.0, 0.0, 0.0, 0.0, 1.6541565874339683E9, 0.0, 2022-06-02 09:56:27.433
131.0, 23961.74060842283, 438.2953570241162, -74492.70927819125, -54309.53106993808, -39271.61267657431, -40034.701232278494, -8567.401297974742, -46417.66654463608, 0.016, 0.808, 0.616, 192.0, 0.0, 0.0, 0.0, 0.0, 0.0, 0.0, 0.0, 0.0, 0.0, 1.6541565874339736E9, 0.0, 2022-06-02 09:56:27.433
132.0, 23955.727989164352, 443.0786303375519, -74477.10776056144, -54298.33284596597, -39251.09377516434, -40010.0919616332, -8525.40237014322, -46384.854183775686, 0.016, 0.808, 0.616, 192.0, 0.0, 0.0, 0.0, 0.0, 0.0, 0.0, 0.0, 0.0, 0.0, 1.6541565874339788E9, 0.0, 2022-06-02 09:56:27.433
133.0, 23930.58227665213, 421.2856794936275, -74515.55276102458, -54331.70400043774, -39288.26472619352, -40026.051107174295, -8567.915388097214, -46400.858032805685, 0.016, 0.808, 0.616, 192.0, 0.0, 0.0, 0.0, 0.0, 0.0, 0.0, 0.0, 0.0, 0.0, 1.654156587433984E9, 0.0, 2022-06-02 09:56:27.433
134.0, 23930.135241763026, 410.95917355527564, -74540.56436307007, -54359.978957173706, -39308.001316547554, -40050.54861909731, -8599.744272201571, -46409.41875093207, 0.016, 0.808, 0.616, 192.0, 0.0, 0.0, 0.0, 0.0, 0.0, 0.0, 0.0, 0.0, 0.0, 1.6541565874339893E9, 0.0, 2022-06-02 09:56:27.433
135.0, 23947.055512315692, 428.1029615524962, -74511.37298481143, -54343.01398313213, -39280.68748482317, -40046.3017876508, -8577.861914379826, -46434.22918727746, 0.016, 0.808, 0.616, 192.0, 0.0, 0.0, 0.0, 0.0, 0.0, 0.0, 0.0, 0.0, 0.0, 1.6541565874339943E9, 0.0, 2022-06-02 09:56:27.433
136.0, 23941.378169224045, 429.89110110892074, -74498.78895268308, -54334.386209772376, -39267.67876955018, -40037.80812475779, -8577.616045190816, -46437.9619286015, 0.016, 0.808, 0.616, 192.0, 0.0, 0.0, 0.0, 0.0, 0.0, 0.0, 0.0, 0.0, 0.0, 1.6541565874339995E9, 0.0, 2022-06-02 09:56:27.433
137.0, 23927.698901617397, 415.98831605771977, -74502.65580447386, -54337.26958480711, -39268.081100950374, -40027.21339788597, -8562.416858961209, -46400.299239194304, 0.014, 0.812, 0.614, 192.0, 0.0, 112.0, 25.0, 96.0, 19.0, 48.0, 0.0, 0.0, 0.0, 1.6541565874340048E9, 0.0, 2022-06-02 09:56:27.434
138.0, 23932.236305741826, 413.41786544535944, -74512.46822028974, -54343.952756399245, -39267.34349338335, -40030.364993854164, -8551.688021622662, -46411.922146311066, 0.014, 0.812, 0.614, 192.0, 0.0, 0.0, 0.0, 0.0, 0.0, 0.0, 0.0, 0.0, 0.0, 1.65415658743401E9, 0.0, 2022-06-02 09:56:27.434
139.0, 23929.867020829563, 394.3741791694378, -74545.74996778369, -54375.24519863668, -39302.59219438937, -40063.91496228158, -8594.60337097685, -46468.0697283828, 0.014, 0.812, 0.614, 192.0, 0.0, 0.0, 0.0, 0.0, 0.0, 0.0, 0.0, 0.0, 0.0, 1.6541565874340153E9, 0.0, 2022-06-02 09:56:27.434
140.0, 23933.040968542216, 397.36931292644897, -74541.81606075956, -54371.355995101454, -39314.88565383979, -40067.89357279463, -8634.344772618386, -46474.01529240791, 0.014, 0.812, 0.614, 192.0, 0.0, 0.0, 0.0, 0.0, 0.0, 0.0, 0.0, 0.0, 0.0, 1.6541565874340203E9, 0.0, 2022-06-02 09:56:27.434
141.0, 23933.55505866469, 403.73956009621145, -74523.30881635056, -54354.592186759975, -39305.92260431321, -40051.912075509084, -8600.526583257506, -46437.15726580111, 0.014, 0.812, 0.614, 192.0, 0.0, 0.0, 0.0, 0.0, 0.0, 0.0, 0.0, 0.0, 0.0, 1.654156587434028E9, 0.0, 2022-06-02 09:56:27.434
142.0, 23928.436509184423, 407.15937699787344, -74508.91429292134, -54343.99745988816, -39282.05094123494, -40048.04522371831, -8531.437341146153, -46410.24576547692, 0.014, 0.812, 0.614, 192.0, 0.0, 0.0, 0.0, 0.0, 0.0, 0.0, 0.0, 0.0, 0.0, 1.6541565874340332E9, 0.0, 2022-06-02 09:56:27.434
