%OpenBCI Raw EEG Data
%Number of channels = 8
%Sample Rate = 250 Hz
%Board = OpenBCI_GUI$BoardCytonSerial
Sample Index, EXG Channel 0, EXG Channel 1, EXG Channel 2, EXG Channel 3, EXG Channel 4, EXG Channel 5, EXG Channel 6, EXG Channel 7, Accel Channel 0, Accel Channel 1, Accel Channel 2, Other, Other, Other, Other, Other, Other, Other, Analog Channel 0, Analog Channel 1, Analog Channel 2, Timestamp, Other, Timestamp (Formatted)
0.0, 0.0, 0.0, 0.0, 0.0, 0.0, 0.0, 0.0, 0.0, 0.0, 0.0, 0.0, 192.0, 0.0, 0.0, 0.0, 0.0, 0.0, 0.0, 0.0, 0.0, 0.0, 1.654609090384014E9, 0.0, 2022-06-07 15:38:10.384
1.0, 39140.89967499968, 14187.166295905865, -19515.35278741751, -21999.860942347164, -6043.2858518702815, -6431.043914680948, 15544.69949539894, 6892.808603383137, 0.032, 0.926, 0.45, 192.0, 1.0, 0.0, 28.0, 240.0, 14.0, 16.0, 0.0, 0.0, 0.0, 1.654609090399962E9, 0.0, 2022-06-07 15:38:10.399
2.0, 39044.943636053045, 14166.580339262528, -19558.424598982885, -22016.535343710824, -6086.178849480016, -6413.31898132789, 15525.812271334205, 6879.643425898961, 0.032, 0.926, 0.45, 192.0, 0.0, 0.0, 0.0, 0.0, 0.0, 0.0, 0.0, 0.0, 0.0, 1.654609090459551E9, 0.0, 2022-06-07 15:38:10.459
3.0, 38970.33351306123, 14162.400563049385, -19562.44791298484, -22041.32342831176, -6104.35081772218, -6464.280958685989, 15507.886172281049, 6875.642463641461, 0.032, 0.926, 0.45, 192.0, 0.0, 0.0, 0.0, 0.0, 0.0, 0.0, 0.0, 0.0, 0.0, 1.654609090459557E9, 0.0, 2022-06-07 15:38:10.459
4.0, 39042.26142671841, 14191.323720374552, -19514.14579321692, -22031.622771218154, -6079.696843587976, -6516.405226755765, 15512.73650082785, 6885.879562601992, 0.032, 0.926, 0.45, 192.0, 0.0, 0.0, 0.0, 0.0, 0.0, 0.0, 0.0, 0.0, 0.0, 1.654609090459559E9, 0.0, 2022-06-07 15:38:10.459
5.0, 39158.691663586105, 14225.410130668895, -19472.638603763415, -21995.949387067485, -6030.970040675407, -6497.138023035291, 15536.384646461565, 6903.179812810399, 0.032, 0.926, 0.45, 192.0, 0.0, 0.0, 0.0, 0.0, 0.0, 0.0, 0.0, 0.0, 0.0, 1.654609090459562E9, 0.0, 2022-06-07 15:38:10.459
6.0, 39160.85978279827, 14215.642418341926, -19485.736726014224, -21974.134084479105, -6020.352962059136, -6421.589126776354, 15547.627573922584, 6909.058321602145, 0.032, 0.926, 0.45, 192.0, 0.0, 0.0, 0.0, 0.0, 0.0, 0.0, 0.0, 0.0, 0.0, 1.654609090459595E9, 0.0, 2022-06-07 15:38:10.459
7.0, 39044.63071163067, 14164.680440983826, -19534.24001148224, -21997.648119646088, -6069.549151605267, -6396.331655541856, 15523.621800377585, 6891.847478371558, 0.032, 0.926, 0.45, 192.0, 0.0, 0.0, 0.0, 0.0, 0.0, 0.0, 0.0, 0.0, 0.0, 1.654609090459597E9, 0.0, 2022-06-07 15:38:10.459
8.0, 38969.68531247203, 14144.69798144078, -19551.383799479463, -22030.572239228757, -6101.020407798339, -6446.399563121744, 15504.153430957012, 6881.945655577857, 0.026000000000000002, 0.928, 0.45, 192.0, 0.0, 208.0, 29.0, 0.0, 14.0, 16.0, 0.0, 0.0, 0.0, 1.654609090459599E9, 0.0, 2022-06-07 15:38:10.459
9.0, 39048.02817678788, 14191.524886074649, -19502.724051800258, -22023.531439725335, -6063.402421880058, -6497.607409668853, 15546.733504144373, 6904.252696544254, 0.026000000000000002, 0.928, 0.45, 192.0, 0.0, 0.0, 0.0, 0.0, 0.0, 0.0, 0.0, 0.0, 0.0, 1.654609090459602E9, 0.0, 2022-06-07 15:38:10.459
10.0, 39174.24847772699, 14225.72305509127, -19463.921423425847, -21975.05050600177, -6011.993409632852, -6473.892208801772, 15582.69746097296, 6926.604440999561, 0.026000000000000002, 0.928, 0.45, 192.0, 0.0, 0.0, 0.0, 0.0, 0.0, 0.0, 0.0, 0.0, 0.0, 1.654609090459604E9, 0.0, 2022-06-07 15:38:10.459
11.0, 39185.96079182158, 14215.687121830837, -19483.009813190678, -21952.92227899102, -6010.741711943354, -6404.043007378938, 15557.730562416384, 6927.252641588765, 0.026000000000000002, 0.928, 0.45, 192.0, 0.0, 0.0, 0.0, 0.0, 0.0, 0.0, 0.0, 0.0, 0.0, 1.654609090459614E9, 0.0, 2022-06-07 15:38:10.459
12.0, 39068.52472645339, 14185.221694138252, -19534.82115683808, -21977.77741882532, -6066.978700992907, -6385.513411225487, 15528.315666713199, 6902.352798265553, 0.026000000000000002, 0.928, 0.45, 192.0, 0.0, 0.0, 0.0, 0.0, 0.0, 0.0, 0.0, 0.0, 0.0, 1.654609090459616E9, 0.0, 2022-06-07 15:38:10.459
13.0, 38996.26153662938, 14189.312063373574, -19543.270116242187, -21999.950349324983, -6089.285741959303, -6428.629926279775, 15514.97167527338, 6902.84453664357, 0.026000000000000002, 0.928, 0.45, 192.0, 0.0, 0.0, 0.0, 0.0, 0.0, 0.0, 0.0, 0.0, 0.0, 1.654609090459618E9, 0.0, 2022-06-07 15:38:10.459
14.0, 39063.048549061845, 14222.079720745054, -19491.816400506068, -21993.691860877498, -6056.33927063218, -6479.1225170043135, 15525.812271334205, 6918.043722873178, 0.026000000000000002, 0.928, 0.45, 192.0, 0.0, 0.0, 0.0, 0.0, 0.0, 0.0, 0.0, 0.0, 0.0, 1.65460909045962E9, 0.0, 2022-06-07 15:38:10.459
15.0, 39178.249439984495, 14261.038811330654, -19431.243173032188, -21951.514119090334, -5995.989560602851, -6451.451057368643, 15567.744143932361, 6945.223444130832, 0.026000000000000002, 0.928, 0.45, 192.0, 0.0, 0.0, 0.0, 0.0, 0.0, 0.0, 0.0, 0.0, 0.0, 1.654609090459622E9, 0.0, 2022-06-07 15:38:10.459
16.0, 39188.21831801156, 14249.661773402904, -19448.833995918514, -21936.359636349636, -5987.451194220924, -6383.6805681801525, 15596.197914623966, 6955.952281469379, 0.026000000000000002, 0.928, 0.45, 192.0, 0.0, 0.0, 0.0, 0.0, 0.0, 0.0, 0.0, 0.0, 0.0, 1.654609090459625E9, 0.0, 2022-06-07 15:38:10.459
17.0, 39082.4275115046, 14207.238162426731, -19493.783354018135, -21954.86688075863, -6038.81550297922, -6367.162629027681, 15574.069687613213, 6938.853196961069, 0.026000000000000002, 0.928, 0.45, 192.0, 0.0, 0.0, 0.0, 0.0, 0.0, 0.0, 0.0, 0.0, 0.0, 1.654609090519112E9, 0.0, 2022-06-07 15:38:10.519
18.0, 39006.31982163427, 14195.078813443044, -19506.9038280134, -21977.39743916958, -6072.700747573465, -6422.9525831881265, 15550.622707679595, 6916.926135650413, 0.034, 0.928, 0.444, 192.0, 1.0, 16.0, 29.0, 0.0, 13.0, 224.0, 0.0, 0.0, 0.0, 1.654609090519117E9, 0.0, 2022-06-07 15:38:10.519
19.0, 39071.00577008793, 14224.784281824146, -19466.827150205034, -21973.463532145444, -6036.177997133494, -6473.75809833504, 15555.003649592836, 6933.354667825064, 0.034, 0.928, 0.444, 192.0, 0.0, 0.0, 0.0, 0.0, 0.0, 0.0, 0.0, 0.0, 0.0, 1.65460909051912E9, 0.0, 2022-06-07 15:38:10.519
20.0, 39193.40392272519, 14269.308956779118, -19413.451184445763, -21932.805708981243, -5975.51536268179, -6447.293632899957, 15592.666339000029, 6968.625720575538, 0.034, 0.928, 0.444, 192.0, 0.0, 0.0, 0.0, 0.0, 0.0, 0.0, 0.0, 0.0, 0.0, 1.654609090519122E9, 0.0, 2022-06-07 15:38:10.519
21.0, 39203.19398679662, 14261.374087497485, -19431.13141430991, -21916.95832216243, -5972.542580669235, -6377.645597177219, 15613.811089254748, 6967.843409519603, 0.034, 0.928, 0.444, 192.0, 0.0, 0.0, 0.0, 0.0, 0.0, 0.0, 0.0, 0.0, 0.0, 1.654609090519124E9, 0.0, 2022-06-07 15:38:10.519
22.0, 39087.367247029215, 14216.737653820235, -19488.530694071138, -21944.741540520376, -6026.47734003989, -6363.49694293701, 15585.290263329776, 6940.596633028583, 0.034, 0.928, 0.444, 192.0, 0.0, 0.0, 0.0, 0.0, 0.0, 0.0, 0.0, 0.0, 0.0, 1.654609090519134E9, 0.0, 2022-06-07 15:38:10.519
23.0, 39015.17111243858, 14215.553011364105, -19495.57149357456, -21970.96013676645, -6049.05260193975, -6412.201394105125, 15564.704306686439, 6933.824054458625, 0.034, 0.928, 0.444, 192.0, 0.0, 0.0, 0.0, 0.0, 0.0, 0.0, 0.0, 0.0, 0.0, 1.654609090519144E9, 0.0, 2022-06-07 15:38:10.519
24.0, 39080.102930081244, 14249.795883869636, -19453.639620976403, -21969.39551465458, -6024.532738272279, -6461.576397606897, 15573.108562601634, 6946.721011009337, 0.034, 0.928, 0.444, 192.0, 0.0, 0.0, 0.0, 0.0, 0.0, 0.0, 0.0, 0.0, 0.0, 1.654609090519146E9, 0.0, 2022-06-07 15:38:10.519
25.0, 39200.73529490653, 14285.290454064663, -19407.863248331934, -21933.789185737274, -5975.13538302605, -6444.007926465026, 15577.780077192794, 6970.860895021069, 0.034, 0.928, 0.444, 192.0, 0.0, 0.0, 0.0, 0.0, 0.0, 0.0, 0.0, 0.0, 0.0, 1.654609090519148E9, 0.0, 2022-06-07 15:38:10.519
26.0, 39212.581719467846, 14283.390555785962, -19420.581390927004, -21909.157563347526, -5966.3958509440245, -6364.636881904231, 15593.873333200614, 6977.4770113798395, 0.034, 0.928, 0.444, 192.0, 0.0, 0.0, 0.0, 0.0, 0.0, 0.0, 0.0, 0.0, 0.0, 1.65460909051915E9, 0.0, 2022-06-07 15:38:10.519
27.0, 39100.107741368745, 14238.932936064355, -19470.649298506894, -21930.034092668786, -6012.485148010868, -6340.854625803784, 15592.979263422403, 6970.011528731768, 0.034, 0.928, 0.444, 192.0, 0.0, 0.0, 0.0, 0.0, 0.0, 0.0, 0.0, 0.0, 0.0, 1.654609090519152E9, 0.0, 2022-06-07 15:38:10.519
28.0, 39026.88342653315, 14221.47622364476, -19485.37909810294, -21958.376104638115, -6039.374296590602, -6392.487155495543, 15596.622597768617, 6964.512999595761, 0.042, 0.92, 0.434, 192.0, 1.0, 80.0, 28.0, 192.0, 13.0, 144.0, 0.0, 0.0, 0.0, 1.654609090519155E9, 0.0, 2022-06-07 15:38:10.519
29.0, 39090.83176741979, 14250.689953647847, -19448.610478473962, -21960.521872105823, -6017.357828302125, -6442.644470053252, 15592.241655855378, 6964.0436129622, 0.042, 0.92, 0.434, 192.0, 0.0, 0.0, 0.0, 0.0, 0.0, 0.0, 0.0, 0.0, 0.0, 1.654609090519165E9, 0.0, 2022-06-07 15:38:10.519
30.0, 39207.48552173204, 14275.142762081954, -19415.105213535455, -21917.695929729456, -5973.146077769527, -6422.751417488029, 15578.89766441556, 6974.817153789659, 0.042, 0.92, 0.434, 192.0, 0.0, 0.0, 0.0, 0.0, 0.0, 0.0, 0.0, 0.0, 0.0, 1.654609090519167E9, 0.0, 2022-06-07 15:38:10.519
31.0, 39217.99084162603, 14270.784171913168, -19428.38214974191, -21900.753307432333, -5962.931330553452, -6360.077126035349, 15632.117167963645, 6986.328302184142, 0.042, 0.92, 0.434, 192.0, 0.0, 0.0, 0.0, 0.0, 0.0, 0.0, 0.0, 0.0, 0.0, 1.654609090519169E9, 0.0, 2022-06-07 15:38:10.519
32.0, 39104.1310553707, 14232.272116216674, -19465.039010648612, -21924.58026702169, -5997.308313525715, -6337.725381580041, 15624.003484726369, 6975.152429956488, 0.042, 0.92, 0.434, 192.0, 0.0, 0.0, 0.0, 0.0, 0.0, 0.0, 0.0, 0.0, 0.0, 1.65460909057875E9, 0.0, 2022-06-07 15:38:10.578
33.0, 39030.77263006838, 14223.465528901283, -19473.42091481935, -21947.7813777663, -6024.778607461287, -6372.102364552304, 15592.107545388646, 6971.129115954533, 0.042, 0.92, 0.434, 192.0, 0.0, 0.0, 0.0, 0.0, 0.0, 0.0, 0.0, 0.0, 0.0, 1.654609090578769E9, 0.0, 2022-06-07 15:38:10.578
34.0, 39095.30211631085, 14249.52766293617, -19436.831109146013, -21950.217717911928, -6007.992447375352, -6426.931193701172, 15587.480734286397, 6975.867685779058, 0.042, 0.92, 0.434, 192.0, 0.0, 0.0, 0.0, 0.0, 0.0, 0.0, 0.0, 0.0, 0.0, 1.654609090578773E9, 0.0, 2022-06-07 15:38:10.578
35.0, 39209.20660605509, 14274.449858003838, -19403.996396541166, -21930.23525836888, -5966.731127110855, -6422.326734343378, 15603.082251916201, 6983.690796338416, 0.042, 0.92, 0.434, 192.0, 0.0, 0.0, 0.0, 0.0, 0.0, 0.0, 0.0, 0.0, 0.0, 1.654609090578776E9, 0.0, 2022-06-07 15:38:10.578
36.0, 39213.967527624074, 14261.284680519662, -19428.069225319534, -21926.211944366925, -5967.602845144612, -6362.245245247513, 15607.507897318352, 6973.81132528917, 0.042, 0.92, 0.434, 192.0, 0.0, 0.0, 0.0, 0.0, 0.0, 0.0, 0.0, 0.0, 0.0, 1.654609090578779E9, 0.0, 2022-06-07 15:38:10.578
37.0, 39099.21367159053, 14227.019456269678, -19480.23819687822, -21952.67640980201, -6019.86122368112, -6346.599024128798, 15582.94333016197, 6956.064040191655, 0.04, 0.918, 0.432, 192.0, 1.0, 64.0, 28.0, 176.0, 13.0, 128.0, 0.0, 0.0, 0.0, 1.654609090578783E9, 0.0, 2022-06-07 15:38:10.578
38.0, 39022.48013287546, 14213.004912496199, -19495.280920896643, -21980.750200837876, -6052.405363608046, -6390.296684538924, 15562.692649685461, 6946.899824964979, 0.04, 0.918, 0.432, 192.0, 0.0, 0.0, 0.0, 0.0, 0.0, 0.0, 0.0, 0.0, 0.0, 1.654609090578786E9, 0.0, 2022-06-07 15:38:10.578
39.0, 39079.56648821432, 14235.624877884971, -19459.42872279033, -21977.196273469483, -6023.057523138228, -6444.3208508874, 15572.505065501342, 6956.600482058583, 0.04, 0.918, 0.432, 192.0, 0.0, 0.0, 0.0, 0.0, 0.0, 0.0, 0.0, 0.0, 0.0, 1.654609090578798E9, 0.0, 2022-06-07 15:38:10.578
40.0, 39197.22607102705, 14261.597604942037, -19425.498774707172, -21948.54133707778, -5977.32585398267, -6425.8806617117725, 15597.203743124455, 6967.172857185943, 0.04, 0.918, 0.432, 192.0, 0.0, 0.0, 0.0, 0.0, 0.0, 0.0, 0.0, 0.0, 0.0, 1.654609090578801E9, 0.0, 2022-06-07 15:38:10.578
41.0, 39208.40194325471, 14245.414941956395, -19452.700847709282, -21939.5782875512, -5982.310292996203, -6363.943977826117, 15601.718795504428, 6960.065002449156, 0.04, 0.918, 0.432, 192.0, 0.0, 0.0, 0.0, 0.0, 0.0, 0.0, 0.0, 0.0, 0.0, 1.654609090578804E9, 0.0, 2022-06-07 15:38:10.578
42.0, 39093.15634884314, 14208.646322327415, -19510.591865848528, -21971.094247233184, -6038.971965190407, -6356.657309133686, 15569.398173022053, 6937.109760893555, 0.04, 0.918, 0.432, 192.0, 0.0, 0.0, 0.0, 0.0, 0.0, 0.0, 0.0, 0.0, 0.0, 1.654609090578818E9, 0.0, 2022-06-07 15:38:10.578
43.0, 39003.77172276637, 14202.231371668742, -19520.583095620048, -21980.8396078157, -6070.644387083577, -6404.98178064606, 15546.085303555168, 6929.510167778751, 0.04, 0.918, 0.432, 192.0, 0.0, 0.0, 0.0, 0.0, 0.0, 0.0, 0.0, 0.0, 0.0, 1.654609090578829E9, 0.0, 2022-06-07 15:38:10.578
44.0, 39068.30120900884, 14237.10009301902, -19474.024411919643, -21967.96500300944, -6035.641555266566, -6444.432609609677, 15554.310745514722, 6943.94939469688, 0.04, 0.918, 0.432, 192.0, 0.0, 0.0, 0.0, 0.0, 0.0, 0.0, 0.0, 0.0, 0.0, 1.654609090578832E9, 0.0, 2022-06-07 15:38:10.578
45.0, 39184.17265226515, 14260.055334574621, -19450.353914541472, -21945.43444459849, -5994.6261041910775, -6436.631850794774, 15577.355394048143, 6952.688926778905, 0.04, 0.918, 0.432, 192.0, 0.0, 0.0, 0.0, 0.0, 0.0, 0.0, 0.0, 0.0, 0.0, 1.654609090578835E9, 0.0, 2022-06-07 15:38:10.578
46.0, 39194.18623378113, 14256.903738606423, -19456.724161711238, -21929.00591242384, -5993.128537312572, -6375.209257031591, 15599.081289658701, 6954.030031446223, 0.04, 0.918, 0.432, 192.0, 0.0, 0.0, 0.0, 0.0, 0.0, 0.0, 0.0, 0.0, 0.0, 1.654609090578838E9, 0.0, 2022-06-07 15:38:10.578
47.0, 39077.8230521468, 14206.209982181786, -19504.37808088995, -21951.00002896786, -6040.6483460245545, -6351.561111397876, 15604.758632750349, 6940.104894650566, 0.038, 0.922, 0.436, 192.0, 1.0, 48.0, 28.0, 208.0, 13.0, 160.0, 0.0, 0.0, 0.0, 1.654609090638992E9, 0.0, 2022-06-07 15:38:10.638
48.0, 38986.02443766886, 14190.295540129608, -19516.045691495623, -21973.64234610109, -6067.984529493396, -6391.280161294957, 15582.719812717416, 6936.685077748904, 0.038, 0.922, 0.436, 192.0, 0.0, 0.0, 0.0, 0.0, 0.0, 0.0, 0.0, 0.0, 0.0, 1.654609090639023E9, 0.0, 2022-06-07 15:38:10.639
49.0, 39039.82508657278, 14208.400453138407, -19477.53363579913, -21972.6365176006, -6038.971965190407, -6449.975842234593, 15567.297109043255, 6946.631604031516, 0.038, 0.922, 0.436, 192.0, 0.0, 0.0, 0.0, 0.0, 0.0, 0.0, 0.0, 0.0, 0.0, 1.654609090639026E9, 0.0, 2022-06-07 15:38:10.639
50.0, 39170.87336431425, 14235.736636607247, -19436.85346089047, -21947.446101599468, -5989.306389010714, -6435.268394383001, 15583.368013306621, 6959.685022793416, 0.038, 0.922, 0.436, 192.0, 0.0, 0.0, 0.0, 0.0, 0.0, 0.0, 0.0, 0.0, 0.0, 1.654609090639029E9, 0.0, 2022-06-07 15:38:10.639
51.0, 39181.31162897487, 14220.604505611003, -19459.696943723793, -21943.512194575334, -5998.023569348285, -6370.850666862806, 15585.46907728542, 6957.785124514714, 0.038, 0.922, 0.436, 192.0, 0.0, 0.0, 0.0, 0.0, 0.0, 0.0, 0.0, 0.0, 0.0, 1.654609090639032E9, 0.0, 2022-06-07 15:38:10.639
52.0, 39068.368264242206, 14193.76006052018, -19508.75902280319, -21959.337229649693, -6047.6891455279765, -6356.634957389231, 15567.36416427662, 6941.177778384421, 0.038, 0.922, 0.436, 192.0, 0.0, 0.0, 0.0, 0.0, 0.0, 0.0, 0.0, 0.0, 0.0, 1.654609090639036E9, 0.0, 2022-06-07 15:38:10.639
53.0, 38981.64349575561, 14174.381098077429, -19529.948476546822, -21998.631596402123, -6080.6803203440095, -6410.748530715529, 15532.763663859805, 6923.944583409379, 0.038, 0.922, 0.436, 192.0, 0.0, 0.0, 0.0, 0.0, 0.0, 0.0, 0.0, 0.0, 0.0, 1.654609090639039E9, 0.0, 2022-06-07 15:38:10.639
54.0, 39042.19437148504, 14200.979673979244, -19493.29161564012, -22000.509142936367, -6048.963194961929, -6468.483086643588, 15547.180539033478, 6934.874586448024, 0.038, 0.922, 0.436, 192.0, 0.0, 0.0, 0.0, 0.0, 0.0, 0.0, 0.0, 0.0, 0.0, 1.654609090639043E9, 0.0, 2022-06-07 15:38:10.639
55.0, 39164.52546888894, 14243.716209377792, -19449.75041744118, -21968.322630920724, -5990.42397623348, -6446.9583567331265, 15602.65756877155, 6956.242854147298, 0.038, 0.922, 0.436, 192.0, 0.0, 0.0, 0.0, 0.0, 0.0, 0.0, 0.0, 0.0, 0.0, 1.654609090639046E9, 0.0, 2022-06-07 15:38:10.639
56.0, 39195.61674542627, 14239.29056397564, -19463.69790598129, -21950.262421400836, -5999.409377504513, -6383.345292013323, 15631.826595285725, 6957.159275669966, 0.038, 0.922, 0.436, 192.0, 0.0, 0.0, 0.0, 0.0, 0.0, 0.0, 0.0, 0.0, 0.0, 1.654609090639057E9, 0.0, 2022-06-07 15:38:10.639
57.0, 39082.606325460234, 14206.299389159607, -19505.607426834995, -21968.47909313191, -6032.422904065002, -6358.758373112485, 15588.1289348756, 6947.615080787549, 0.04, 0.928, 0.432, 192.0, 1.0, 64.0, 29.0, 0.0, 13.0, 128.0, 0.0, 0.0, 0.0, 1.654609090639061E9, 0.0, 2022-06-07 15:38:10.639
58.0, 38988.32666734775, 14197.693967544314, -19527.020398023178, -21995.25648298937, -6063.067145713228, -6399.393844532233, 15527.488652168353, 6931.722990479826, 0.04, 0.928, 0.432, 192.0, 0.0, 0.0, 0.0, 0.0, 0.0, 0.0, 0.0, 0.0, 0.0, 1.654609090639064E9, 0.0, 2022-06-07 15:38:10.639
59.0, 39047.08940352075, 14215.821232297569, -19479.679403266837, -21989.355622453168, -6047.3985728500575, -6454.80381903694, 15535.669390638996, 6934.204034114366, 0.04, 0.928, 0.432, 192.0, 0.0, 0.0, 0.0, 0.0, 0.0, 0.0, 0.0, 0.0, 0.0, 1.65460909063908E9, 0.0, 2022-06-07 15:38:10.639
60.0, 39179.299971973895, 14247.828930357568, -19434.99826610068, -21958.085531960194, -5994.201421046427, -6439.5599293184205, 15573.175617835, 6955.728764024826, 0.04, 0.928, 0.432, 192.0, 0.0, 0.0, 0.0, 0.0, 0.0, 0.0, 0.0, 0.0, 0.0, 1.654609090639083E9, 0.0, 2022-06-07 15:38:10.639
61.0, 39203.082228074345, 14230.86395631599, -19450.353914541472, -21927.284828100783, -5990.088700066651, -6366.626187160753, 15588.419507553519, 6959.483857093318, 0.04, 0.928, 0.432, 192.0, 0.0, 0.0, 0.0, 0.0, 0.0, 0.0, 0.0, 0.0, 0.0, 1.654609090639086E9, 0.0, 2022-06-07 15:38:10.639
62.0, 39089.91534589712, 14199.012720467177, -19507.32851115805, -21952.788168524286, -6043.442314081468, -6353.729230610041, 15565.240748553366, 6938.3838103275075, 0.04, 0.928, 0.432, 192.0, 0.0, 0.0, 0.0, 0.0, 0.0, 0.0, 0.0, 0.0, 0.0, 1.654609090698654E9, 0.0, 2022-06-07 15:38:10.698
63.0, 39007.616222812685, 14188.842676740012, -19524.67346485537, -21986.651061374076, -6075.114735974638, -6403.193641089635, 15539.715056385407, 6924.771597954225, 0.04, 0.928, 0.432, 192.0, 0.0, 0.0, 0.0, 0.0, 0.0, 0.0, 0.0, 0.0, 0.0, 1.654609090698661E9, 0.0, 2022-06-07 15:38:10.698
64.0, 39067.54124969736, 14210.635627583937, -19485.28969112512, -21987.45572417447, -6045.677488526999, -6457.4636766271215, 15561.373896762598, 6929.5772230121165, 0.04, 0.928, 0.432, 192.0, 0.0, 0.0, 0.0, 0.0, 0.0, 0.0, 0.0, 0.0, 0.0, 1.654609090698691E9, 0.0, 2022-06-07 15:38:10.698
65.0, 39203.66337343018, 14246.0631425456, -19438.8874696359, -21955.224508669915, -5989.239333777348, -6439.403467107233, 15622.90824924806, 6953.1136099235555, 0.04, 0.928, 0.432, 192.0, 0.0, 0.0, 0.0, 0.0, 0.0, 0.0, 0.0, 0.0, 0.0, 1.654609090698696E9, 0.0, 2022-06-07 15:38:10.698
66.0, 39223.981109140055, 14239.692895375836, -19455.964202399755, -21942.796938752766, -5990.491031466846, -6374.963387842583, 15580.819914438716, 6949.80555174417, 0.04, 0.928, 0.432, 192.0, 0.0, 0.0, 0.0, 0.0, 0.0, 0.0, 0.0, 0.0, 0.0, 1.654609090698699E9, 0.0, 2022-06-07 15:38:10.698
67.0, 39118.056192166354, 14207.416976382374, -19514.123441472464, -21969.239052443394, -6041.631822780589, -6352.902216065195, 15558.021135094303, 6933.645240502982, 0.042, 0.924, 0.436, 192.0, 1.0, 80.0, 28.0, 224.0, 13.0, 160.0, 0.0, 0.0, 0.0, 1.654609090698704E9, 0.0, 2022-06-07 15:38:10.698
68.0, 39039.065127261296, 14193.201266908798, -19524.29348519963, -21992.864846332654, -6066.978700992907, -6390.609608961297, 15546.84526286665, 6932.795874213681, 0.042, 0.924, 0.436, 192.0, 0.0, 0.0, 0.0, 0.0, 0.0, 0.0, 0.0, 0.0, 0.0, 1.654609090698708E9, 0.0, 2022-06-07 15:38:10.698
69.0, 39101.11356986923, 14225.410130668895, -19467.497702538694, -21988.68507011951, -6036.468569811413, -6442.376249119789, 15561.776228162793, 6943.859987719058, 0.042, 0.924, 0.436, 192.0, 0.0, 0.0, 0.0, 0.0, 0.0, 0.0, 0.0, 0.0, 0.0, 1.654609090698712E9, 0.0, 2022-06-07 15:38:10.698
70.0, 39223.60112948431, 14262.134046808964, -19434.32771376702, -21959.091360460683, -5990.848659378131, -6438.062362439914, 15583.055088884246, 6950.677269777927, 0.042, 0.924, 0.436, 192.0, 0.0, 0.0, 0.0, 0.0, 0.0, 0.0, 0.0, 0.0, 0.0, 1.654609090698716E9, 0.0, 2022-06-07 15:38:10.698
71.0, 39243.80710647191, 14262.40226774243, -19448.23049881822, -21943.087511430684, -5987.786470387754, -6371.8788471077505, 15585.938463918981, 6947.548025554183, 0.042, 0.924, 0.436, 192.0, 0.0, 0.0, 0.0, 0.0, 0.0, 0.0, 0.0, 0.0, 0.0, 1.654609090698733E9, 0.0, 2022-06-07 15:38:10.698
72.0, 39130.34965161677, 14221.655037600403, -19500.24300816572, -21973.374125167626, -6043.330555359192, -6353.058678276382, 15556.3224025157, 6925.889185176991, 0.042, 0.924, 0.436, 192.0, 0.0, 0.0, 0.0, 0.0, 0.0, 0.0, 0.0, 0.0, 0.0, 1.654609090698737E9, 0.0, 2022-06-07 15:38:10.698
73.0, 39045.45772617552, 14197.24693265521, -19514.928104272854, -22007.10290755068, -6077.528724375811, -6399.88558291025, 15535.937611572459, 6914.3109815491425, 0.042, 0.924, 0.436, 192.0, 0.0, 0.0, 0.0, 0.0, 0.0, 0.0, 0.0, 0.0, 0.0, 1.65460909069874E9, 0.0, 2022-06-07 15:38:10.698
74.0, 39103.61696524823, 14228.67348535937, -19466.402467060383, -21986.695764862987, -6039.016668679317, -6440.565757818909, 15548.946326845447, 6928.571394511628, 0.042, 0.924, 0.436, 192.0, 0.0, 0.0, 0.0, 0.0, 0.0, 0.0, 0.0, 0.0, 0.0, 1.654609090698744E9, 0.0, 2022-06-07 15:38:10.698
75.0, 39229.16671385369, 14261.999936342232, -19427.33161775251, -21951.983505723896, -5989.306389010714, -6430.619231536297, 15569.55463523324, 6942.809455729659, 0.042, 0.924, 0.436, 192.0, 0.0, 0.0, 0.0, 0.0, 0.0, 0.0, 0.0, 0.0, 0.0, 1.654609090698748E9, 0.0, 2022-06-07 15:38:10.698
76.0, 39258.33574036786, 14258.9153956074, -19440.005056858667, -21937.410168339036, -5983.830211619164, -6373.6446349197195, 15584.150324362556, 6946.385734842508, 0.042, 0.924, 0.436, 192.0, 0.0, 0.0, 0.0, 0.0, 0.0, 0.0, 0.0, 0.0, 0.0, 1.654609090698752E9, 0.0, 2022-06-07 15:38:10.698
77.0, 39150.10859371527, 14223.9572672793, -19486.80960974808, -21961.86297677314, -6025.829139450686, -6347.671907862653, 15591.548751777264, 6942.1389033959995, 0.042, 0.918, 0.43, 192.0, 1.0, 80.0, 28.0, 176.0, 13.0, 112.0, 0.0, 0.0, 0.0, 1.654609090759003E9, 0.0, 2022-06-07 15:38:10.759
78.0, 39057.72883388148, 14200.689101301325, -19504.713357056782, -21995.83762834521, -6063.335366646692, -6388.486193238044, 15578.964719648924, 6925.866833432536, 0.042, 0.918, 0.43, 192.0, 0.0, 0.0, 0.0, 0.0, 0.0, 0.0, 0.0, 0.0, 0.0, 1.654609090759021E9, 0.0, 2022-06-07 15:38:10.759
79.0, 39109.942508929074, 14226.9076975474, -19473.152693885888, -21996.239959745402, -6040.134255902083, -6437.503568828532, 15570.962795133924, 6931.410066057452, 0.042, 0.918, 0.43, 192.0, 0.0, 0.0, 0.0, 0.0, 0.0, 0.0, 0.0, 0.0, 0.0, 1.654609090759025E9, 0.0, 2022-06-07 15:38:10.759
80.0, 39231.69246097714, 14262.58108169807, -19430.058530576054, -21964.992220996886, -5974.688348136944, -6428.22759487958, 15618.549659079274, 6946.698659264882, 0.042, 0.918, 0.43, 192.0, 0.0, 0.0, 0.0, 0.0, 0.0, 0.0, 0.0, 0.0, 0.0, 1.654609090759028E9, 0.0, 2022-06-07 15:38:10.759
81.0, 39254.84886823283, 14251.539319937148, -19440.407388258864, -21949.39070336708, -5967.915769566986, -6368.92841683965, 15606.390310095587, 6943.614118530049, 0.042, 0.918, 0.43, 192.0, 0.0, 0.0, 0.0, 0.0, 0.0, 0.0, 0.0, 0.0, 0.0, 1.654609090759032E9, 0.0, 2022-06-07 15:38:10.759
82.0, 39137.278692397915, 14210.300351417107, -19501.76292678868, -21981.800732827276, -6024.264517338815, -6356.143219011214, 15548.298126256244, 6920.569469996628, 0.042, 0.918, 0.43, 192.0, 0.0, 0.0, 0.0, 0.0, 0.0, 0.0, 0.0, 0.0, 0.0, 1.654609090759035E9, 0.0, 2022-06-07 15:38:10.759
83.0, 39050.15159251113, 14209.741557805724, -19513.877572283458, -22003.996015071396, -6054.037040953283, -6392.062472350893, 15534.395341205043, 6912.74635943727, 0.042, 0.918, 0.43, 192.0, 0.0, 0.0, 0.0, 0.0, 0.0, 0.0, 0.0, 0.0, 0.0, 1.654609090759038E9, 0.0, 2022-06-07 15:38:10.759
84.0, 39099.41483729063, 14242.509215177204, -19472.52684504114, -22000.73266038092, -6026.522043528801, -6453.775638791995, 15540.117387785602, 6925.0845223766, 0.042, 0.918, 0.43, 192.0, 0.0, 0.0, 0.0, 0.0, 0.0, 0.0, 0.0, 0.0, 0.0, 1.654609090759042E9, 0.0, 2022-06-07 15:38:10.759
85.0, 39231.446591788124, 14269.39836375694, -19430.505565465162, -21975.519892635333, -5975.51536268179, -6442.197435164147, 15570.694574200461, 6943.3682493410415, 0.042, 0.918, 0.43, 192.0, 0.0, 0.0, 0.0, 0.0, 0.0, 0.0, 0.0, 0.0, 0.0, 1.654609090759045E9, 0.0, 2022-06-07 15:38:10.759
86.0, 39247.29397860694, 14250.309973992107, -19451.069170364044, -21968.68025883201, -5978.7787173722645, -6378.1596872996915, 15578.562388248729, 6933.645240502982, 0.042, 0.918, 0.43, 192.0, 0.0, 0.0, 0.0, 0.0, 0.0, 0.0, 0.0, 0.0, 0.0, 1.654609090759057E9, 0.0, 2022-06-07 15:38:10.759
87.0, 39134.93175923011, 14210.322703161562, -19496.040880208122, -21975.810465313254, -6029.651287752544, -6355.7408876110185, 15557.618803694108, 6918.155481595455, 0.044, 0.922, 0.434, 192.0, 1.0, 96.0, 28.0, 208.0, 13.0, 144.0, 0.0, 0.0, 0.0, 1.65460909075906E9, 0.0, 2022-06-07 15:38:10.759
88.0, 39053.99609255744, 14198.85625825599, -19506.456793124296, -21996.709346378964, -6059.5802735782, -6392.733024684551, 15539.335076729665, 6912.522841992717, 0.044, 0.922, 0.434, 192.0, 0.0, 0.0, 0.0, 0.0, 0.0, 0.0, 0.0, 0.0, 0.0, 1.654609090759064E9, 0.0, 2022-06-07 15:38:10.759
89.0, 39105.74038097148, 14232.003895283211, -19470.694001995802, -21988.88623581961, -6033.316973843214, -6444.499664843043, 15548.901623356536, 6922.938754908891, 0.044, 0.922, 0.434, 192.0, 0.0, 0.0, 0.0, 0.0, 0.0, 0.0, 0.0, 0.0, 0.0, 1.654609090759067E9, 0.0, 2022-06-07 15:38:10.759
90.0, 39231.13366736575, 14270.024212601687, -19419.12852753741, -21948.429578355503, -5974.531885925757, -6432.072094925892, 15583.345661562165, 6947.413915087452, 0.044, 0.922, 0.434, 192.0, 0.0, 0.0, 0.0, 0.0, 0.0, 0.0, 0.0, 0.0, 0.0, 1.654609090759071E9, 0.0, 2022-06-07 15:38:10.759
91.0, 39260.63797004676, 14262.11169506451, -19428.38214974191, -21929.788223479776, -5974.330720225659, -6370.716556396074, 15590.542923276775, 6944.731705752815, 0.044, 0.922, 0.434, 192.0, 0.0, 0.0, 0.0, 0.0, 0.0, 0.0, 0.0, 0.0, 0.0, 1.654609090759074E9, 0.0, 2022-06-07 15:38:10.759
92.0, 39144.29714015689, 14222.280886445153, -19489.067135938065, -21959.136063949594, -6028.176072618494, -6352.2763672204455, 15572.259196312332, 6927.096179377578, 0.044, 0.922, 0.434, 192.0, 0.0, 0.0, 0.0, 0.0, 0.0, 0.0, 0.0, 0.0, 0.0, 1.654609090819159E9, 0.0, 2022-06-07 15:38:10.819
93.0, 39050.48686867796, 14205.919409503867, -19509.653092581404, -21990.361450953656, -6059.468514855924, -6394.051777607415, 15550.622707679595, 6919.518938007229, 0.044, 0.922, 0.434, 192.0, 0.0, 0.0, 0.0, 0.0, 0.0, 0.0, 0.0, 0.0, 0.0, 1.654609090819177E9, 0.0, 2022-06-07 15:38:10.819
94.0, 39103.50520652595, 14235.602526140516, -19472.75036248569, -21988.372145697136, -6032.020572664806, -6446.399563121744, 15558.89285312806, 6930.113664879044, 0.044, 0.922, 0.434, 192.0, 0.0, 0.0, 0.0, 0.0, 0.0, 0.0, 0.0, 0.0, 0.0, 1.654609090819181E9, 0.0, 2022-06-07 15:38:10.819
95.0, 39223.355260295306, 14268.079610834076, -19434.104196322467, -21962.175901195515, -5981.080947051161, -6433.614365293309, 15584.284434829287, 6948.464447076852, 0.044, 0.922, 0.434, 192.0, 0.0, 0.0, 0.0, 0.0, 0.0, 0.0, 0.0, 0.0, 0.0, 1.654609090819184E9, 0.0, 2022-06-07 15:38:10.819
96.0, 39246.95870244011, 14264.302166021129, -19447.55994648456, -21946.999066710363, -5972.520228924779, -6372.437640719133, 15590.878199443603, 6943.457656318862, 0.044, 0.922, 0.434, 192.0, 0.0, 0.0, 0.0, 0.0, 0.0, 0.0, 0.0, 0.0, 0.0, 1.654609090819187E9, 0.0, 2022-06-07 15:38:10.819
97.0, 39138.50803834296, 14226.415959169384, -19498.81249652058, -21975.832817057708, -6025.203290605938, -6347.180169484636, 15565.307803786733, 6923.98928689829, 0.042, 0.928, 0.432, 192.0, 1.0, 80.0, 29.0, 0.0, 13.0, 128.0, 0.0, 0.0, 0.0, 1.654609090819191E9, 0.0, 2022-06-07 15:38:10.819
98.0, 39036.67349060458, 14200.756156534691, -19519.711377586293, -22020.826878646243, -6063.022442224317, -6399.371492787778, 15534.149472016034, 6906.152594822955, 0.042, 0.928, 0.432, 192.0, 0.0, 0.0, 0.0, 0.0, 0.0, 0.0, 0.0, 0.0, 0.0, 1.654609090819194E9, 0.0, 2022-06-07 15:38:10.819
99.0, 39089.71418019703, 14228.069988259076, -19479.81351373357, -22009.22632327394, -6035.820369222209, -6452.479237613587, 15566.514797987318, 6920.390656040986, 0.042, 0.928, 0.432, 192.0, 0.0, 0.0, 0.0, 0.0, 0.0, 0.0, 0.0, 0.0, 0.0, 1.654609090819197E9, 0.0, 2022-06-07 15:38:10.819
100.0, 39225.27751031846, 14273.82400915909, -19426.817527630035, -21971.474226888924, -5981.975016829374, -6442.242138653057, 15632.76536855285, 6945.022278430734, 0.042, 0.928, 0.432, 192.0, 0.0, 0.0, 0.0, 0.0, 0.0, 0.0, 0.0, 0.0, 0.0, 1.654609090819201E9, 0.0, 2022-06-07 15:38:10.819
101.0, 39247.048109417934, 14265.956195110823, -19442.597859215482, -21955.604488325655, -5977.459964449402, -6392.1295275842585, 15615.42041485553, 6941.758923740259, 0.042, 0.928, 0.432, 192.0, 0.0, 0.0, 0.0, 0.0, 0.0, 0.0, 0.0, 0.0, 0.0, 1.654609090819204E9, 0.0, 2022-06-07 15:38:10.819
102.0, 39145.59354133529, 14227.421787669873, -19491.414069105875, -21975.832817057708, -6015.592040490155, -6373.152896541703, 15565.486617742376, 6927.386752055497, 0.042, 0.928, 0.432, 192.0, 0.0, 0.0, 0.0, 0.0, 0.0, 0.0, 0.0, 0.0, 0.0, 1.654609090819207E9, 0.0, 2022-06-07 15:38:10.819
103.0, 39060.83572636077, 14212.468470629272, -19504.847467523512, -21999.34685222469, -6051.667756041022, -6406.613457991298, 15519.822003820182, 6918.714275206838, 0.042, 0.928, 0.432, 192.0, 0.0, 0.0, 0.0, 0.0, 0.0, 0.0, 0.0, 0.0, 0.0, 1.654609090819211E9, 0.0, 2022-06-07 15:38:10.819
104.0, 39099.21367159053, 14242.263345988196, -19473.465618308262, -21989.221511986438, -6032.065276153717, -6445.393734621255, 15532.182518503967, 6929.666629989938, 0.042, 0.928, 0.432, 192.0, 0.0, 0.0, 0.0, 0.0, 0.0, 0.0, 0.0, 0.0, 0.0, 1.654609090819214E9, 0.0, 2022-06-07 15:38:10.819
105.0, 39221.03067887195, 14281.937692396366, -19421.095481049477, -21949.033075455794, -5976.4317842044575, -6425.210109378113, 15563.832588652682, 6946.877473220525, 0.042, 0.928, 0.432, 192.0, 0.0, 0.0, 0.0, 0.0, 0.0, 0.0, 0.0, 0.0, 0.0, 1.654609090819218E9, 0.0, 2022-06-07 15:38:10.819
106.0, 39246.981054184565, 14270.404192257429, -19437.23344054621, -21935.5773252937, -5971.737917868843, -6364.055736548393, 15571.141609089567, 6942.764752240748, 0.042, 0.928, 0.432, 192.0, 0.0, 0.0, 0.0, 0.0, 0.0, 0.0, 0.0, 0.0, 0.0, 1.654609090819221E9, 0.0, 2022-06-07 15:38:10.819
107.0, 39147.359329147264, 14227.645305114425, -19491.570531317062, -21968.277927431816, -6024.689200483465, -6349.035364274427, 15548.566347189708, 6922.245850830776, 0.036000000000000004, 0.936, 0.426, 192.0, 1.0, 32.0, 29.0, 64.0, 13.0, 80.0, 0.0, 0.0, 0.0, 1.654609090879677E9, 0.0, 2022-06-07 15:38:10.879
108.0, 39057.237095503464, 14224.873688801968, -19505.450964623808, -21980.660793860054, -6053.00886070834, -6383.367643757778, 15539.916222085503, 6922.1787955974105, 0.036000000000000004, 0.936, 0.426, 192.0, 0.0, 0.0, 0.0, 0.0, 0.0, 0.0, 0.0, 0.0, 0.0, 1.654609090879684E9, 0.0, 2022-06-07 15:38:10.879
109.0, 39104.578090259805, 14252.187520526353, -19467.832978705523, -21975.095209490682, -6029.38306681908, -6433.077923426381, 15545.772379132794, 6928.660801489449, 0.036000000000000004, 0.936, 0.426, 192.0, 0.0, 0.0, 0.0, 0.0, 0.0, 0.0, 0.0, 0.0, 0.0, 1.654609090879688E9, 0.0, 2022-06-07 15:38:10.879
110.0, 39219.220187571074, 14277.422640016395, -19432.22664978822, -21955.403322625556, -5978.734013883354, -6433.256737382024, 15576.03664112528, 6940.641336517494, 0.036000000000000004, 0.936, 0.426, 192.0, 0.0, 0.0, 0.0, 0.0, 0.0, 0.0, 0.0, 0.0, 0.0, 1.654609090879691E9, 0.0, 2022-06-07 15:38:10.879
111.0, 39246.265798361994, 14272.304090536129, -19449.906879652368, -21948.474281844414, -5970.888551579542, -6377.377376243756, 15584.239731340378, 6944.888167964002, 0.036000000000000004, 0.936, 0.426, 192.0, 0.0, 0.0, 0.0, 0.0, 0.0, 0.0, 0.0, 0.0, 0.0, 1.654609090879695E9, 0.0, 2022-06-07 15:38:10.879
112.0, 39136.47402959753, 14226.86299405849, -19496.8008395196, -21971.451875144467, -6027.460816795924, -6360.121829524259, 15550.913280357514, 6928.549042767173, 0.036000000000000004, 0.936, 0.426, 192.0, 0.0, 0.0, 0.0, 0.0, 0.0, 0.0, 0.0, 0.0, 0.0, 1.654609090879698E9, 0.0, 2022-06-07 15:38:10.879
113.0, 39036.405269671115, 14204.33243564754, -19515.755118817702, -22003.101945293183, -6064.251788169359, -6404.98178064606, 15526.393416690044, 6912.74635943727, 0.036000000000000004, 0.936, 0.426, 192.0, 0.0, 0.0, 0.0, 0.0, 0.0, 0.0, 0.0, 0.0, 0.0, 1.654609090879702E9, 0.0, 2022-06-07 15:38:10.879
114.0, 39083.90272663865, 14232.272116216674, -19479.7464585002, -22001.760840625866, -6037.139122145071, -6455.094391714859, 15532.316628970699, 6922.4693682753295, 0.036000000000000004, 0.936, 0.426, 192.0, 0.0, 0.0, 0.0, 0.0, 0.0, 0.0, 0.0, 0.0, 0.0, 1.654609090879705E9, 0.0, 2022-06-07 15:38:10.879
115.0, 39209.81010315539, 14271.9688143693, -19433.94773411128, -21965.77453205282, -5978.219923760882, -6444.723182287596, 15568.83937941067, 6946.676307520427, 0.036000000000000004, 0.936, 0.426, 192.0, 0.0, 0.0, 0.0, 0.0, 0.0, 0.0, 0.0, 0.0, 0.0, 1.654609090879709E9, 0.0, 2022-06-07 15:38:10.879
116.0, 39236.74395522403, 14267.990203856256, -19431.690207921292, -21942.305200374747, -5965.457077676902, -6381.244228034524, 15586.072574385713, 6948.084467421111, 0.024, 0.9380000000000001, 0.424, 192.0, 0.0, 192.0, 29.0, 80.0, 13.0, 64.0, 0.0, 0.0, 0.0, 1.654609090879712E9, 0.0, 2022-06-07 15:38:10.879
117.0, 39124.761715502944, 14223.778453323657, -19493.246912151208, -21976.212796713447, -6023.14693011605, -6369.844838362317, 15585.1785046075, 6925.03981888769, 0.024, 0.9380000000000001, 0.424, 192.0, 0.0, 0.0, 0.0, 0.0, 0.0, 0.0, 0.0, 0.0, 0.0, 1.654609090879716E9, 0.0, 2022-06-07 15:38:10.879
118.0, 39030.124429479176, 14204.779470536647, -19519.80078456411, -22015.909494866075, -6062.038965468284, -6416.202356362624, 15544.69949539894, 6909.058321602145, 0.024, 0.9380000000000001, 0.424, 192.0, 0.0, 0.0, 0.0, 0.0, 0.0, 0.0, 0.0, 0.0, 0.0, 1.654609090879719E9, 0.0, 2022-06-07 15:38:10.879
119.0, 39076.63840969067, 14245.459645445306, -19479.925272455846, -21992.037831787806, -6035.842720966664, -6450.936967246172, 15529.567364402696, 6924.078693876111, 0.024, 0.9380000000000001, 0.424, 192.0, 0.0, 0.0, 0.0, 0.0, 0.0, 0.0, 0.0, 0.0, 0.0, 1.654609090879722E9, 0.0, 2022-06-07 15:38:10.879
120.0, 39200.86940537327, 14284.664605219914, -19436.451129490273, -21960.588927339188, -5983.584342430156, -6444.99140322106, 15564.525492730796, 6942.89886270748, 0.024, 0.9380000000000001, 0.424, 192.0, 0.0, 0.0, 0.0, 0.0, 0.0, 0.0, 0.0, 0.0, 0.0, 1.654609090879726E9, 0.0, 2022-06-07 15:38:10.879
121.0, 39237.883894191255, 14267.29729977814, -19446.956449384266, -21942.975752708408, -5975.895342337531, -6391.973065373071, 15579.814085938227, 6943.524711552229, 0.024, 0.9380000000000001, 0.424, 192.0, 0.0, 0.0, 0.0, 0.0, 0.0, 0.0, 0.0, 0.0, 0.0, 1.654609090879729E9, 0.0, 2022-06-07 15:38:10.879
122.0, 39128.69562252708, 14224.67252310187, -19504.28867391213, -21972.524758878324, -6027.773741218298, -6370.850666862806, 15566.470094498409, 6919.965972896335, 0.024, 0.9380000000000001, 0.424, 192.0, 0.0, 0.0, 0.0, 0.0, 0.0, 0.0, 0.0, 0.0, 0.0, 1.654609090879733E9, 0.0, 2022-06-07 15:38:10.879
123.0, 39022.94951950902, 14209.629799083448, -19527.400377678918, -22005.091250549707, -6068.655081827054, -6403.9312486566605, 15534.50709992732, 6908.276010546209, 0.024, 0.9380000000000001, 0.424, 192.0, 0.0, 0.0, 0.0, 0.0, 0.0, 0.0, 0.0, 0.0, 0.0, 1.654609090939374E9, 0.0, 2022-06-07 15:38:10.939
124.0, 39078.851232391746, 14234.127311006465, -19486.96607195927, -22001.492619692403, -6037.697915756455, -6455.787295792973, 15526.058140523213, 6918.803682184659, 0.024, 0.9380000000000001, 0.424, 192.0, 0.0, 0.0, 0.0, 0.0, 0.0, 0.0, 0.0, 0.0, 0.0, 1.654609090939392E9, 0.0, 2022-06-07 15:38:10.939
125.0, 39216.426219514164, 14273.242863803252, -19442.530803982118, -21969.10494197666, -5982.712624396399, -6449.841731767861, 15552.343792002654, 6932.080618391111, 0.024, 0.9380000000000001, 0.424, 192.0, 0.0, 0.0, 0.0, 0.0, 0.0, 0.0, 0.0, 0.0, 0.0, 1.654609090939396E9, 0.0, 2022-06-07 15:38:10.939
126.0, 39247.78571698496, 14274.896892892944, -19450.75624594167, -21951.91645049053, -5979.359862728103, -6389.447318249621, 15575.32138530271, 6934.539310281195, 0.02, 0.9380000000000001, 0.42, 192.0, 0.0, 160.0, 29.0, 80.0, 13.0, 32.0, 0.0, 0.0, 0.0, 1.654609090939399E9, 0.0, 2022-06-07 15:38:10.939
127.0, 39141.614930822245, 14238.083569775054, -19496.75613603069, -21971.854206544664, -6017.111959113116, -6360.010070801982, 15557.887024627571, 6921.932926408402, 0.02, 0.9380000000000001, 0.42, 192.0, 0.0, 0.0, 0.0, 0.0, 0.0, 0.0, 0.0, 0.0, 0.0, 1.654609090939415E9, 0.0, 2022-06-07 15:38:10.939
128.0, 39044.27308371939, 14220.67156084437, -19516.559781618093, -21998.944520824494, -6055.288738642781, -6399.393844532233, 15534.529451671775, 6912.813414670636, 0.02, 0.9380000000000001, 0.42, 192.0, 0.0, 0.0, 0.0, 0.0, 0.0, 0.0, 0.0, 0.0, 0.0, 1.654609090939425E9, 0.0, 2022-06-07 15:38:10.939
129.0, 39072.615095688714, 14237.301258719119, -19490.743516772214, -22003.750145882386, -6045.029287937795, -6457.173103949202, 15540.251498252333, 6916.099121105567, 0.02, 0.9380000000000001, 0.42, 192.0, 0.0, 0.0, 0.0, 0.0, 0.0, 0.0, 0.0, 0.0, 0.0, 1.654609090939428E9, 0.0, 2022-06-07 15:38:10.939
130.0, 39188.19596626711, 14268.861921890011, -19438.0381033466, -21978.380915925612, -5995.028435591274, -6452.345127146856, 15566.961832876425, 6935.053400403667, 0.02, 0.9380000000000001, 0.42, 192.0, 0.0, 0.0, 0.0, 0.0, 0.0, 0.0, 0.0, 0.0, 0.0, 1.654609090939432E9, 0.0, 2022-06-07 15:38:10.939
131.0, 39228.652623731214, 14277.243826060752, -19445.70475169477, -21956.945592992975, -5986.490069209346, -6391.660140950697, 15580.79756269426, 6939.411990572452, 0.02, 0.9380000000000001, 0.42, 192.0, 0.0, 0.0, 0.0, 0.0, 0.0, 0.0, 0.0, 0.0, 0.0, 1.654609090939435E9, 0.0, 2022-06-07 15:38:10.939
132.0, 39127.846256237775, 14236.541299407638, -19499.48304885424, -21972.25653794486, -6033.093456398661, -6368.436678461633, 15569.197007321956, 6921.441188030385, 0.02, 0.9380000000000001, 0.42, 192.0, 0.0, 0.0, 0.0, 0.0, 0.0, 0.0, 0.0, 0.0, 0.0, 1.654609090939439E9, 0.0, 2022-06-07 15:38:10.939
133.0, 39031.174961468576, 14217.47526138726, -19519.353749675007, -22004.420698216047, -6063.8271050247085, -6408.491004525543, 15572.303899801243, 6910.824109414114, 0.02, 0.9380000000000001, 0.42, 192.0, 0.0, 0.0, 0.0, 0.0, 0.0, 0.0, 0.0, 0.0, 0.0, 1.654609090939442E9, 0.0, 2022-06-07 15:38:10.939
134.0, 39077.28661027987, 14245.794921612136, -19479.299423611097, -22002.185523770517, -6041.788284991776, -6458.223635938602, 15537.524585428786, 6920.591821741084, 0.02, 0.9380000000000001, 0.42, 192.0, 0.0, 0.0, 0.0, 0.0, 0.0, 0.0, 0.0, 0.0, 0.0, 1.654609090939445E9, 0.0, 2022-06-07 15:38:10.939
135.0, 39204.31157401938, 14277.132067338476, -19444.43070226082, -21983.857093317165, -6002.85154615063, -6462.828095296395, 15567.61003346563, 6928.012600900245, 0.02, 0.9380000000000001, 0.42, 192.0, 0.0, 0.0, 0.0, 0.0, 0.0, 0.0, 0.0, 0.0, 0.0, 1.654609090939449E9, 0.0, 2022-06-07 15:38:10.939
136.0, 39244.164734383194, 14269.48777073476, -19458.445246034295, -21966.780360553308, -5998.761176915309, -6409.943867915138, 15577.534208003784, 6922.089388619589, 0.022, 0.934, 0.418, 192.0, 0.0, 176.0, 29.0, 48.0, 13.0, 16.0, 0.0, 0.0, 0.0, 1.654609090939452E9, 0.0, 2022-06-07 15:38:10.939
137.0, 39140.27382615493, 14234.775511595668, -19503.39460413392, -21975.028154257318, -6036.28975585577, -6380.730137912052, 15538.396303462543, 6908.074844846112, 0.022, 0.934, 0.418, 192.0, 0.0, 0.0, 0.0, 0.0, 0.0, 0.0, 0.0, 0.0, 0.0, 1.654609090939456E9, 0.0, 2022-06-07 15:38:10.939
138.0, 39038.61809237219, 14214.010740996688, -19524.651113110915, -22003.370166226647, -6067.5821980932, -6408.200431847624, 15512.378872916564, 6902.84453664357, 0.022, 0.934, 0.418, 192.0, 0.0, 0.0, 0.0, 0.0, 0.0, 0.0, 0.0, 0.0, 0.0, 1.654609090999665E9, 0.0, 2022-06-07 15:38:10.999
139.0, 39084.66268595013, 14243.157415766409, -19482.18279864583, -22002.07376504824, -6035.865072711119, -6451.026374223992, 15534.663562138507, 6926.090350877089, 0.022, 0.934, 0.418, 192.0, 0.0, 0.0, 0.0, 0.0, 0.0, 0.0, 0.0, 0.0, 0.0, 1.654609090999685E9, 0.0, 2022-06-07 15:38:10.999
140.0, 39204.73625716403, 14279.188427828363, -19439.625077202927, -21966.48978787539, -5987.339435498648, -6452.099257957847, 15558.132893816579, 6939.479045805818, 0.022, 0.934, 0.418, 192.0, 0.0, 0.0, 0.0, 0.0, 0.0, 0.0, 0.0, 0.0, 0.0, 1.654609090999688E9, 0.0, 2022-06-07 15:38:10.999
141.0, 39242.60011227133, 14274.516913237205, -19451.51620525315, -21947.11082543264, -5981.148002284527, -6392.174231073169, 15571.812161423226, 6938.3838103275075, 0.022, 0.934, 0.418, 192.0, 0.0, 0.0, 0.0, 0.0, 0.0, 0.0, 0.0, 0.0, 0.0, 1.654609090999692E9, 0.0, 2022-06-07 15:38:10.999
142.0, 39148.87924777022, 14243.984430311255, -19501.114726199477, -21967.54031986479, -6024.778607461287, -6362.245245247513, 15557.015306593814, 6929.264298589743, 0.022, 0.934, 0.418, 192.0, 0.0, 0.0, 0.0, 0.0, 0.0, 0.0, 0.0, 0.0, 0.0, 1.654609090999695E9, 0.0, 2022-06-07 15:38:10.999
143.0, 39053.482002434976, 14231.713322605292, -19513.117612971975, -21993.043660288295, -6060.876674756608, -6399.617361976786, 15534.618858649595, 6922.4693682753295, 0.022, 0.934, 0.418, 192.0, 0.0, 0.0, 0.0, 0.0, 0.0, 0.0, 0.0, 0.0, 0.0, 1.654609090999699E9, 0.0, 2022-06-07 15:38:10.999
144.0, 39087.94839238506, 14261.038811330654, -19465.866025193456, -21985.98050904042, -6036.379162833591, -6445.773714276996, 15547.515815200308, 6934.1593306254545, 0.022, 0.934, 0.418, 192.0, 0.0, 0.0, 0.0, 0.0, 0.0, 0.0, 0.0, 0.0, 0.0, 1.654609090999702E9, 0.0, 2022-06-07 15:38:10.999
145.0, 39212.35820202329, 14293.49354427976, -19423.64357991738, -21956.34209589268, -5988.56878144369, -6442.778580519985, 15577.645966726062, 6949.202054643876, 0.022, 0.934, 0.418, 192.0, 0.0, 0.0, 0.0, 0.0, 0.0, 0.0, 0.0, 0.0, 0.0, 1.654609090999706E9, 0.0, 2022-06-07 15:38:10.999
146.0, 39255.45236533313, 14288.263236077219, -19432.47251897723, -21933.409206081535, -5980.052766806218, -6386.7874606594405, 15589.738260476382, 6952.6442232899935, 0.02, 0.936, 0.422, 192.0, 0.0, 160.0, 29.0, 64.0, 13.0, 48.0, 0.0, 0.0, 0.0, 1.654609090999709E9, 0.0, 2022-06-07 15:38:10.999
147.0, 39145.01239597945, 14249.371200724985, -19483.43449633533, -21953.391665624582, -6025.00212490584, -6360.010070801982, 15565.330155531188, 6936.841539960092, 0.02, 0.936, 0.422, 192.0, 0.0, 0.0, 0.0, 0.0, 0.0, 0.0, 0.0, 0.0, 0.0, 1.654609090999713E9, 0.0, 2022-06-07 15:38:10.999
148.0, 39037.23228421596, 14226.035979513643, -19507.23910418023, -21982.583043883213, -6062.955386990951, -6398.1197950982805, 15539.111559285113, 6923.318734564631, 0.02, 0.936, 0.422, 192.0, 0.0, 0.0, 0.0, 0.0, 0.0, 0.0, 0.0, 0.0, 0.0, 1.654609090999716E9, 0.0, 2022-06-07 15:38:10.999
149.0, 39067.20597353053, 14247.091322790542, -19473.085638652523, -21979.677317104022, -6046.683317027488, -6451.249891668545, 15547.404056478032, 6927.27499333322, 0.02, 0.936, 0.422, 192.0, 0.0, 0.0, 0.0, 0.0, 0.0, 0.0, 0.0, 0.0, 0.0, 1.65460909099972E9, 0.0, 2022-06-07 15:38:10.999
150.0, 39192.68866690262, 14279.948387139844, -19427.443376474785, -21951.91645049053, -5993.888496624052, -6450.646394568253, 15585.402022052054, 6945.402258086474, 0.02, 0.936, 0.422, 192.0, 0.0, 0.0, 0.0, 0.0, 0.0, 0.0, 0.0, 0.0, 0.0, 1.65460909099973E9, 0.0, 2022-06-07 15:38:10.999
151.0, 39244.611769272306, 14288.598512244049, -19428.18098404181, -21933.409206081535, -5976.7223568823765, -6393.135356084747, 15630.507842362864, 6952.755982012271, 0.02, 0.936, 0.422, 192.0, 0.0, 0.0, 0.0, 0.0, 0.0, 0.0, 0.0, 0.0, 0.0, 1.654609090999734E9, 0.0, 2022-06-07 15:38:10.999
152.0, 39143.850105267775, 14251.405209470417, -19485.66967078086, -21961.52770060631, -6029.092494141161, -6370.850666862806, 15558.110542072123, 6932.5723567691275, 0.02, 0.936, 0.422, 192.0, 0.0, 0.0, 0.0, 0.0, 0.0, 0.0, 0.0, 0.0, 0.0, 1.654609090999738E9, 0.0, 2022-06-07 15:38:10.999
153.0, 39028.20217945602, 14231.489805160738, -19516.62683685146, -21988.662718375053, -6062.82127652422, -6403.439510278644, 15525.476995167375, 6918.937792651391, 0.02, 0.936, 0.422, 192.0, 0.0, 0.0, 0.0, 0.0, 0.0, 0.0, 0.0, 0.0, 0.0, 1.65460909105998E9, 0.0, 2022-06-07 15:38:11.059
154.0, 39078.09127308027, 14255.517930450194, -19480.931100956335, -21982.851264816676, -6024.778607461287, -6445.974879977093, 15541.50319594183, 6938.853196961069, 0.02, 0.936, 0.422, 192.0, 0.0, 0.0, 0.0, 0.0, 0.0, 0.0, 0.0, 0.0, 0.0, 1.654609091059987E9, 0.0, 2022-06-07 15:38:11.059
155.0, 39198.880100116745, 14286.229227331785, -19423.263600261642, -21953.749293535864, -5971.581455657656, -6446.377211377288, 15573.309728301732, 6956.3993163584855, 0.02, 0.936, 0.422, 192.0, 0.0, 0.0, 0.0, 0.0, 0.0, 0.0, 0.0, 0.0, 0.0, 1.65460909105999E9, 0.0, 2022-06-07 15:38:11.059
156.0, 39230.35135630982, 14275.925073137889, -19435.869984134435, -21940.11472941813, -5975.403603959514, -6397.561001486898, 15583.70328947345, 6949.224406388332, 0.03, 0.9380000000000001, 0.42, 192.0, 0.0, 240.0, 29.0, 80.0, 13.0, 32.0, 0.0, 0.0, 0.0, 1.654609091060006E9, 0.0, 2022-06-07 15:38:11.060
157.0, 39128.65091903817, 14242.933898321857, -19492.48695283973, -21960.946555250473, -6030.746523230854, -6370.046004062415, 15558.714039172417, 6926.470330532829, 0.03, 0.9380000000000001, 0.42, 192.0, 0.0, 0.0, 0.0, 0.0, 0.0, 0.0, 0.0, 0.0, 0.0, 1.654609091060009E9, 0.0, 2022-06-07 15:38:11.060
158.0, 39033.58894986975, 14221.900906789411, -19519.040825252632, -21991.143762009593, -6066.8222387817195, -6401.964295144594, 15537.926916828981, 6915.562679238639, 0.03, 0.9380000000000001, 0.42, 192.0, 0.0, 0.0, 0.0, 0.0, 0.0, 0.0, 0.0, 0.0, 0.0, 1.654609091060012E9, 0.0, 2022-06-07 15:38:11.060
159.0, 39069.687017165066, 14246.040790801144, -19481.311080612075, -21986.718116607444, -6039.150779146049, -6449.1264759452915, 15551.606184435628, 6934.136978881, 0.03, 0.9380000000000001, 0.42, 192.0, 0.0, 0.0, 0.0, 0.0, 0.0, 0.0, 0.0, 0.0, 0.0, 1.654609091060015E9, 0.0, 2022-06-07 15:38:11.060
160.0, 39180.68578013012, 14273.10875333652, -19435.534707967607, -21960.67833431701, -5988.501726210324, -6453.865045769817, 15576.193103336467, 6950.230234888821, 0.03, 0.9380000000000001, 0.42, 192.0, 0.0, 0.0, 0.0, 0.0, 0.0, 0.0, 0.0, 0.0, 0.0, 1.654609091060018E9, 0.0, 2022-06-07 15:38:11.060
161.0, 39229.83726618734, 14269.912453879411, -19444.967144127746, -21942.595773052668, -5982.8243831186755, -6394.521164240977, 15587.011347652835, 6950.654918033471, 0.03, 0.9380000000000001, 0.42, 192.0, 0.0, 0.0, 0.0, 0.0, 0.0, 0.0, 0.0, 0.0, 0.0, 1.65460909106004E9, 0.0, 2022-06-07 15:38:11.060
162.0, 39137.21163716455, 14233.367351694984, -19486.451981836795, -21958.130235449105, -6022.47637778239, -6365.68741389363, 15570.18048407799, 6943.927042952424, 0.03, 0.9380000000000001, 0.42, 192.0, 0.0, 0.0, 0.0, 0.0, 0.0, 0.0, 0.0, 0.0, 0.0, 1.654609091060043E9, 0.0, 2022-06-07 15:38:11.060
163.0, 39030.48205739046, 14209.450985127805, -19511.687101326836, -21998.16220976856, -6056.451029354457, -6407.440472536144, 15540.139739530057, 6925.710371221348, 0.03, 0.9380000000000001, 0.42, 192.0, 0.0, 0.0, 0.0, 0.0, 0.0, 0.0, 0.0, 0.0, 0.0, 1.654609091060046E9, 0.0, 2022-06-07 15:38:11.060
164.0, 39056.477136191985, 14233.948497050822, -19477.019545676656, -21992.909549821565, -6044.850473982153, -6456.614310337819, 15543.246632009344, 6933.354667825064, 0.03, 0.9380000000000001, 0.42, 192.0, 0.0, 0.0, 0.0, 0.0, 0.0, 0.0, 0.0, 0.0, 0.0, 1.65460909106005E9, 0.0, 2022-06-07 15:38:11.060
165.0, 39175.723692861044, 14267.20789280032, -19430.527917209616, -21960.901851761562, -5996.146022814039, -6452.680403313685, 15573.913225402026, 6948.106819165567, 0.03, 0.9380000000000001, 0.42, 192.0, 0.0, 0.0, 0.0, 0.0, 0.0, 0.0, 0.0, 0.0, 0.0, 1.654609091060053E9, 0.0, 2022-06-07 15:38:11.060
166.0, 39219.756629438, 14265.598567199537, -19438.909821380355, -21943.221621897417, -5986.735938398354, -6395.437585763644, 15597.673129758017, 6942.697697007382, 0.03, 0.936, 0.422, 192.0, 0.0, 240.0, 29.0, 64.0, 13.0, 48.0, 0.0, 0.0, 0.0, 1.654609091060057E9, 0.0, 2022-06-07 15:38:11.060
167.0, 39130.05907893885, 14236.831872085557, -19484.552083558094, -21956.878537759607, -6014.452101522935, -6362.848742347806, 15616.80622301176, 6934.494606792285, 0.03, 0.936, 0.422, 192.0, 0.0, 0.0, 0.0, 0.0, 0.0, 0.0, 0.0, 0.0, 0.0, 1.65460909106006E9, 0.0, 2022-06-07 15:38:11.060
168.0, 39034.930054537064, 14220.693912588826, -19509.51898211467, -21983.410058428057, -6040.134255902083, -6396.465766008588, 15574.069687613213, 6937.288574849198, 0.03, 0.936, 0.422, 192.0, 0.0, 0.0, 0.0, 0.0, 0.0, 0.0, 0.0, 0.0, 0.0, 1.654609091120128E9, 0.0, 2022-06-07 15:38:11.120
169.0, 39063.65204616213, 14241.39162795444, -19471.543368285103, -21981.532511893813, -6024.6221452500995, -6439.805798507428, 15551.293260013255, 6945.335202853108, 0.03, 0.936, 0.422, 192.0, 0.0, 0.0, 0.0, 0.0, 0.0, 0.0, 0.0, 0.0, 0.0, 1.65460909112014E9, 0.0, 2022-06-07 15:38:11.120
170.0, 39181.57984990834, 14264.279814276673, -19424.403539228864, -21951.357656879147, -5978.465792949891, -6443.046801453448, 15583.591530751173, 6957.47220009234, 0.03, 0.936, 0.422, 192.0, 0.0, 0.0, 0.0, 0.0, 0.0, 0.0, 0.0, 0.0, 0.0, 1.654609091120144E9, 0.0, 2022-06-07 15:38:11.120
171.0, 39226.14922835222, 14259.340078752051, -19437.501661479673, -21940.71822651842, -5971.983787057851, -6391.257809550501, 15582.563350506229, 6952.063077934155, 0.03, 0.936, 0.422, 192.0, 0.0, 0.0, 0.0, 0.0, 0.0, 0.0, 0.0, 0.0, 0.0, 1.654609091120158E9, 0.0, 2022-06-07 15:38:11.120
172.0, 39120.514884056436, 14223.845508557024, -19495.973824974757, -21969.954308265962, -6023.348095816147, -6369.68837615113, 15549.058085567724, 6931.253603846265, 0.03, 0.936, 0.422, 192.0, 0.0, 0.0, 0.0, 0.0, 0.0, 0.0, 0.0, 0.0, 0.0, 1.654609091120162E9, 0.0, 2022-06-07 15:38:11.120
173.0, 39016.71338280599, 14204.62300832546, -19517.476203140763, -21981.979546782917, -6057.322747388214, -6397.538649742442, 15526.907506812515, 6919.250717073765, 0.03, 0.936, 0.422, 192.0, 0.0, 0.0, 0.0, 0.0, 0.0, 0.0, 0.0, 0.0, 0.0, 1.654609091120165E9, 0.0, 2022-06-07 15:38:11.120
174.0, 39058.73466238197, 14233.05442727261, -19486.608444047983, -21987.120448007638, -6041.318898358214, -6452.434534124677, 15531.22139349239, 6922.961106653346, 0.03, 0.936, 0.422, 192.0, 0.0, 0.0, 0.0, 0.0, 0.0, 0.0, 0.0, 0.0, 0.0, 1.654609091120169E9, 0.0, 2022-06-07 15:38:11.120
175.0, 39194.14153029222, 14282.720003452303, -19436.294667279086, -21954.598659825166, -5988.725243654877, -6454.356784147833, 15561.731524673884, 6943.927042952424, 0.03, 0.936, 0.422, 192.0, 0.0, 0.0, 0.0, 0.0, 0.0, 0.0, 0.0, 0.0, 0.0, 1.654609091120172E9, 0.0, 2022-06-07 15:38:11.120
176.0, 39225.27751031846, 14282.340023796562, -19445.257716805663, -21935.599677038157, -5978.152868527516, -6400.243210821535, 15576.41662078102, 6946.050458675678, 0.03, 0.934, 0.428, 192.0, 0.0, 240.0, 29.0, 48.0, 13.0, 96.0, 0.0, 0.0, 0.0, 1.654609091120176E9, 0.0, 2022-06-07 15:38:11.120
177.0, 39125.186398647595, 14242.620973899482, -19499.66186280988, -21962.198252939972, -6029.941860430463, -6369.867190106773, 15560.256309539833, 6930.404237556963, 0.03, 0.934, 0.428, 192.0, 0.0, 0.0, 0.0, 0.0, 0.0, 0.0, 0.0, 0.0, 0.0, 1.654609091120179E9, 0.0, 2022-06-07 15:38:11.120
178.0, 39028.13512422265, 14221.208002711297, -19520.113708986486, -21988.528607908323, -6061.144895690071, -6403.037178878449, 15537.859861595614, 6916.434397272396, 0.03, 0.934, 0.428, 192.0, 0.0, 0.0, 0.0, 0.0, 0.0, 0.0, 0.0, 0.0, 0.0, 1.654609091120182E9, 0.0, 2022-06-07 15:38:11.120
179.0, 39065.775461885394, 14239.983468053755, -19489.692984782814, -21988.59566314169, -6038.167302390016, -6460.414106895221, 15539.849166852138, 6924.883356676502, 0.03, 0.934, 0.428, 192.0, 0.0, 0.0, 0.0, 0.0, 0.0, 0.0, 0.0, 0.0, 0.0, 1.654609091120186E9, 0.0, 2022-06-07 15:38:11.120
180.0, 39185.580812165834, 14276.461515004816, -19435.668818434337, -21957.39262788208, -5983.6513976635215, -6464.459772641632, 15568.638213710574, 6945.446961575385, 0.03, 0.934, 0.428, 192.0, 0.0, 0.0, 0.0, 0.0, 0.0, 0.0, 0.0, 0.0, 0.0, 1.654609091120189E9, 0.0, 2022-06-07 15:38:11.120
181.0, 39231.5583505104, 14273.131105080976, -19438.351027768975, -21937.588982294677, -5972.430821946958, -6401.159632344203, 15581.043431883269, 6944.262319119253, 0.03, 0.934, 0.428, 192.0, 0.0, 0.0, 0.0, 0.0, 0.0, 0.0, 0.0, 0.0, 0.0, 1.654609091120193E9, 0.0, 2022-06-07 15:38:11.120
182.0, 39133.61300630725, 14241.503386676715, -19492.57635981755, -21956.051523214763, -6020.196499847949, -6361.619396402764, 15570.068725355713, 6928.392580555986, 0.03, 0.934, 0.428, 192.0, 0.0, 0.0, 0.0, 0.0, 0.0, 0.0, 0.0, 0.0, 0.0, 1.654609091120196E9, 0.0, 2022-06-07 15:38:11.120
183.0, 39011.08074320325, 14211.596752595515, -19523.175897976864, -21991.97077655444, -6058.440334610979, -6395.906972397205, 15552.768475147304, 6918.960144395846, 0.03, 0.934, 0.428, 192.0, 0.0, 0.0, 0.0, 0.0, 0.0, 0.0, 0.0, 0.0, 0.0, 1.654609091179669E9, 0.0, 2022-06-07 15:38:11.179
184.0, 39033.119563236185, 14223.219659712275, -19490.8999789834, -21991.456686431968, -6038.837854723675, -6442.197435164147, 15582.049260383757, 6932.170025368932, 0.03, 0.934, 0.428, 192.0, 0.0, 0.0, 0.0, 0.0, 0.0, 0.0, 0.0, 0.0, 0.0, 1.654609091179687E9, 0.0, 2022-06-07 15:38:11.179
185.0, 39157.50702112997, 14252.768665882191, -19434.70769342276, -21961.147720950572, -5980.253932506315, -6441.124551430292, 15567.006536365336, 6955.505246580273, 0.03, 0.934, 0.428, 192.0, 0.0, 0.0, 0.0, 0.0, 0.0, 0.0, 0.0, 0.0, 0.0, 1.654609091179691E9, 0.0, 2022-06-07 15:38:11.179
186.0, 39203.708076919094, 14255.652040916926, -19437.501661479673, -21943.221621897417, -5960.338528196637, -6386.094556581325, 15590.31940583222, 6962.255473405776, 0.032, 0.93, 0.428, 192.0, 1.0, 0.0, 29.0, 16.0, 13.0, 96.0, 0.0, 0.0, 0.0, 1.654609091179694E9, 0.0, 2022-06-07 15:38:11.179
187.0, 39110.47895079601, 14217.207040453797, -19493.559836573582, -21955.53743309229, -6006.472528752391, -6354.9138730661725, 15573.220321323912, 6943.23413887431, 0.032, 0.93, 0.428, 192.0, 0.0, 0.0, 0.0, 0.0, 0.0, 0.0, 0.0, 0.0, 0.0, 1.654609091179697E9, 0.0, 2022-06-07 15:38:11.179
188.0, 38998.183786652546, 14193.983577964733, -19521.655979353905, -21986.651061374076, -6052.986508963884, -6388.061510093393, 15541.257326752822, 6926.135054365999, 0.032, 0.93, 0.428, 192.0, 0.0, 0.0, 0.0, 0.0, 0.0, 0.0, 0.0, 0.0, 0.0, 1.6546090911797E9, 0.0, 2022-06-07 15:38:11.179
189.0, 39021.87663577517, 14220.04571199962, -19490.296481883106, -21987.88040731912, -6040.022497179806, -6437.74943801754, 15541.525547686286, 6932.617060258039, 0.032, 0.93, 0.428, 192.0, 0.0, 0.0, 0.0, 0.0, 0.0, 0.0, 0.0, 0.0, 0.0, 1.654609091179704E9, 0.0, 2022-06-07 15:38:11.179
190.0, 39151.628512338226, 14261.172921797386, -19442.731969682216, -21959.91837500553, -5990.379272744569, -6438.956432218127, 15581.17754235, 6958.813304759658, 0.032, 0.93, 0.428, 192.0, 0.0, 0.0, 0.0, 0.0, 0.0, 0.0, 0.0, 0.0, 0.0, 1.654609091179707E9, 0.0, 2022-06-07 15:38:11.179
191.0, 39198.120140805266, 14261.910529364412, -19451.896184908892, -21941.053502685252, -5982.913790096497, -6383.457050735599, 15598.94717919197, 6958.679194292927, 0.032, 0.93, 0.428, 192.0, 0.0, 0.0, 0.0, 0.0, 0.0, 0.0, 0.0, 0.0, 0.0, 1.65460909117971E9, 0.0, 2022-06-07 15:38:11.179
192.0, 39099.63835473518, 14216.447081142316, -19517.14092697393, -21964.992220996886, -6021.805825448731, -6360.4347539466335, 15560.189254306468, 6931.700638735371, 0.032, 0.93, 0.428, 192.0, 0.0, 0.0, 0.0, 0.0, 0.0, 0.0, 0.0, 0.0, 0.0, 1.654609091179722E9, 0.0, 2022-06-07 15:38:11.179
193.0, 38986.359713835685, 14188.395641850906, -19533.0106655372, -21993.088363777206, -6065.458782369946, -6395.638751463742, 15524.605277133618, 6922.245850830776, 0.032, 0.93, 0.428, 192.0, 0.0, 0.0, 0.0, 0.0, 0.0, 0.0, 0.0, 0.0, 0.0, 1.654609091179725E9, 0.0, 2022-06-07 15:38:11.179
194.0, 39026.10111547722, 14217.743482320724, -19492.1516766729, -21991.30022422078, -6043.710535014932, -6447.785371277973, 15534.663562138507, 6936.6180225155385, 0.032, 0.93, 0.428, 192.0, 0.0, 0.0, 0.0, 0.0, 0.0, 0.0, 0.0, 0.0, 0.0, 1.654609091179729E9, 0.0, 2022-06-07 15:38:11.179
195.0, 39153.23783793901, 14257.306070006618, -19447.314077295552, -21966.892119275584, -5994.760214657809, -6460.2799964284895, 15560.345716517653, 6950.7666767557475, 0.032, 0.93, 0.428, 192.0, 0.0, 0.0, 0.0, 0.0, 0.0, 0.0, 0.0, 0.0, 0.0, 1.654609091179732E9, 0.0, 2022-06-07 15:38:11.179
196.0, 39207.53022522095, 14261.530549708672, -19451.069170364044, -21944.540374820277, -5984.6125226751, -6408.379245803267, 15574.114391102123, 6947.615080787549, 0.034, 0.93, 0.432, 192.0, 1.0, 16.0, 29.0, 16.0, 13.0, 128.0, 0.0, 0.0, 0.0, 1.654609091179736E9, 0.0, 2022-06-07 15:38:11.179
197.0, 39108.154369372656, 14216.201211953308, -19499.57245583206, -21965.036924485794, -6029.248956352349, -6377.444431477122, 15551.762646646815, 6927.297345077675, 0.034, 0.93, 0.432, 192.0, 0.0, 0.0, 0.0, 0.0, 0.0, 0.0, 0.0, 0.0, 0.0, 1.654609091179739E9, 0.0, 2022-06-07 15:38:11.179
198.0, 39000.08368493124, 14193.849467498001, -19523.48882239924, -21999.145686524593, -6068.968006249429, -6399.013864876493, 15525.097015511636, 6915.696789705371, 0.034, 0.93, 0.432, 192.0, 0.0, 0.0, 0.0, 0.0, 0.0, 0.0, 0.0, 0.0, 0.0, 1.654609091239351E9, 0.0, 2022-06-07 15:38:11.239
199.0, 39020.08849621874, 14215.485956130738, -19497.694909297814, -21997.73752662391, -6053.187674663982, -6460.302348172945, 15529.701474869427, 6914.1321675935, 0.034, 0.93, 0.432, 192.0, 0.0, 0.0, 0.0, 0.0, 0.0, 0.0, 0.0, 0.0, 0.0, 1.654609091239371E9, 0.0, 2022-06-07 15:38:11.239
200.0, 39148.09693671429, 14255.517930450194, -19448.94575464079, -21965.57336635272, -6001.756310672321, -6471.7911448229725, 15563.542015974763, 6937.2662231047425, 0.034, 0.93, 0.432, 192.0, 0.0, 0.0, 0.0, 0.0, 0.0, 0.0, 0.0, 0.0, 0.0, 1.654609091239375E9, 0.0, 2022-06-07 15:38:11.239
201.0, 39203.57396645236, 14261.262328775209, -19450.0409901191, -21940.11472941813, -5983.427880218969, -6409.541536514943, 15579.456458026942, 6945.268147619742, 0.034, 0.93, 0.432, 192.0, 0.0, 0.0, 0.0, 0.0, 0.0, 0.0, 0.0, 0.0, 0.0, 1.654609091239378E9, 0.0, 2022-06-07 15:38:11.239
202.0, 39110.61306126274, 14220.112767232988, -19503.640473322925, -21959.67250581652, -6024.823310950197, -6371.364756985278, 15583.882103429092, 6925.620964243528, 0.034, 0.93, 0.432, 192.0, 0.0, 0.0, 0.0, 0.0, 0.0, 0.0, 0.0, 0.0, 0.0, 1.654609091239381E9, 0.0, 2022-06-07 15:38:11.239
203.0, 39000.955402965, 14199.99619722321, -19533.457700426305, -21984.214721228447, -6065.257616669848, -6395.616399719286, 15516.1116142406, 6914.847423416069, 0.034, 0.93, 0.432, 192.0, 0.0, 0.0, 0.0, 0.0, 0.0, 0.0, 0.0, 0.0, 0.0, 1.654609091239385E9, 0.0, 2022-06-07 15:38:11.239
204.0, 39022.97187125348, 14217.899944531911, -19495.213865663274, -21984.997032284384, -6051.690107785476, -6446.9583567331265, 15521.028998020769, 6929.487816034296, 0.034, 0.93, 0.432, 192.0, 0.0, 0.0, 0.0, 0.0, 0.0, 0.0, 0.0, 0.0, 0.0, 1.654609091239388E9, 0.0, 2022-06-07 15:38:11.239
205.0, 39148.02988148092, 14255.339116494551, -19445.883565650412, -21957.549090093267, -6000.191688560449, -6450.311118401422, 15551.807350135727, 6948.933833710413, 0.036000000000000004, 0.932, 0.426, 192.0, 1.0, 32.0, 29.0, 32.0, 13.0, 80.0, 0.0, 0.0, 0.0, 1.654609091239392E9, 0.0, 2022-06-07 15:38:11.239
206.0, 39203.283393774436, 14256.702572906324, -19453.37140004294, -21938.77362475081, -5987.339435498648, -6392.084824095348, 15569.912263144526, 6951.325470367131, 0.036000000000000004, 0.932, 0.426, 192.0, 0.0, 0.0, 0.0, 0.0, 0.0, 0.0, 0.0, 0.0, 0.0, 1.654609091239395E9, 0.0, 2022-06-07 15:38:11.239
207.0, 39111.015392662935, 14216.089453231032, -19500.53358084364, -21956.14093019258, -6030.455950552935, -6358.44544869011, 15559.451646739442, 6939.523749294728, 0.036000000000000004, 0.932, 0.426, 192.0, 0.0, 0.0, 0.0, 0.0, 0.0, 0.0, 0.0, 0.0, 0.0, 1.654609091239398E9, 0.0, 2022-06-07 15:38:11.239
208.0, 39000.44131284253, 14190.742575018714, -19529.34497944653, -21996.172904512037, -6072.276064428815, -6391.50367873951, 15534.30593422722, 6927.65497298896, 0.036000000000000004, 0.932, 0.426, 192.0, 0.0, 0.0, 0.0, 0.0, 0.0, 0.0, 0.0, 0.0, 0.0, 1.654609091239402E9, 0.0, 2022-06-07 15:38:11.239
209.0, 39021.787228797344, 14212.133194462443, -19499.505400598693, -22005.67239590554, -6056.540436332279, -6453.529769602987, 15530.684951625462, 6931.231252101809, 0.036000000000000004, 0.932, 0.426, 192.0, 0.0, 0.0, 0.0, 0.0, 0.0, 0.0, 0.0, 0.0, 0.0, 1.654609091239405E9, 0.0, 2022-06-07 15:38:11.239
210.0, 39144.67711981262, 14256.121427550486, -19444.9894958722, -21963.226433184915, -6000.079929838173, -6462.917502274216, 15560.07749558419, 6953.0912581791, 0.036000000000000004, 0.932, 0.426, 192.0, 0.0, 0.0, 0.0, 0.0, 0.0, 0.0, 0.0, 0.0, 0.0, 1.654609091239408E9, 0.0, 2022-06-07 15:38:11.239
211.0, 39196.42140822666, 14251.427561214872, -19449.839824419003, -21944.540374820277, -5986.355958742614, -6405.115891112792, 15573.756763190839, 6955.66170879146, 0.036000000000000004, 0.932, 0.426, 192.0, 0.0, 0.0, 0.0, 0.0, 0.0, 0.0, 0.0, 0.0, 0.0, 1.654609091239412E9, 0.0, 2022-06-07 15:38:11.239
212.0, 39108.04261065038, 14214.077796230054, -19502.791107033623, -21965.05927623025, -6034.4792645548905, -6378.606722188798, 15550.622707679595, 6935.746304481781, 0.036000000000000004, 0.932, 0.426, 192.0, 0.0, 0.0, 0.0, 0.0, 0.0, 0.0, 0.0, 0.0, 0.0, 1.654609091239415E9, 0.0, 2022-06-07 15:38:11.239
213.0, 38992.59585053872, 14186.607502294482, -19531.15547074741, -21992.55192191028, -6079.272160443325, -6409.832109192862, 15523.018303277291, 6921.016504885734, 0.036000000000000004, 0.932, 0.426, 192.0, 0.0, 0.0, 0.0, 0.0, 0.0, 0.0, 0.0, 0.0, 0.0, 1.654609091299669E9, 0.0, 2022-06-07 15:38:11.299
214.0, 39006.208062911996, 14212.647284584915, -19499.371290131963, -21990.003823042374, -6061.077840456705, -6455.452019626144, 15532.160166759511, 6932.32648758012, 0.036000000000000004, 0.932, 0.426, 192.0, 0.0, 0.0, 0.0, 0.0, 0.0, 0.0, 0.0, 0.0, 0.0, 1.654609091299702E9, 0.0, 2022-06-07 15:38:11.299
215.0, 39136.07169819733, 14253.550976938126, -19450.97976338622, -21957.39262788208, -6008.975924131385, -6460.525865617498, 15551.002687335336, 6945.983403442312, 0.048, 0.9380000000000001, 0.422, 192.0, 1.0, 128.0, 29.0, 80.0, 13.0, 48.0, 0.0, 0.0, 0.0, 1.654609091299723E9, 0.0, 2022-06-07 15:38:11.299
216.0, 39191.79459712441, 14253.215700771298, -19453.974897143235, -21928.737691490376, -5990.5133832113015, -6401.3607980443, 15554.511911214819, 6944.217615630343, 0.048, 0.9380000000000001, 0.422, 192.0, 0.0, 0.0, 0.0, 0.0, 0.0, 0.0, 0.0, 0.0, 0.0, 1.654609091299727E9, 0.0, 2022-06-07 15:38:11.299
217.0, 39099.21367159053, 14214.10014797451, -19510.86008678199, -21947.423749855014, -6031.126502886594, -6365.195675515613, 15542.620783164595, 6933.5111300362505, 0.048, 0.9380000000000001, 0.422, 192.0, 0.0, 0.0, 0.0, 0.0, 0.0, 0.0, 0.0, 0.0, 0.0, 1.65460909129973E9, 0.0, 2022-06-07 15:38:11.299
218.0, 38986.67263825806, 14187.054537183589, -19525.56753463358, -21974.759933323854, -6065.525837603312, -6390.296684538924, 15535.468224938897, 6929.845443945581, 0.048, 0.9380000000000001, 0.422, 192.0, 0.0, 0.0, 0.0, 0.0, 0.0, 0.0, 0.0, 0.0, 0.0, 1.654609091299734E9, 0.0, 2022-06-07 15:38:11.299
219.0, 39007.459760601494, 14200.420880367861, -19496.264397652674, -21982.717154349943, -6051.712459529932, -6443.359725875822, 15536.764626117305, 6937.646202760483, 0.048, 0.9380000000000001, 0.422, 192.0, 0.0, 0.0, 0.0, 0.0, 0.0, 0.0, 0.0, 0.0, 0.0, 1.654609091299737E9, 0.0, 2022-06-07 15:38:11.299
220.0, 39128.203884149065, 14249.035924558155, -19449.638658718904, -21953.704590046953, -5999.744653671343, -6449.349993389845, 15561.798579907248, 6953.314775623653, 0.048, 0.9380000000000001, 0.422, 192.0, 0.0, 0.0, 0.0, 0.0, 0.0, 0.0, 0.0, 0.0, 0.0, 1.65460909129974E9, 0.0, 2022-06-07 15:38:11.299
221.0, 39195.70615240409, 14261.932881108867, -19446.777635428625, -21923.395624565557, -5975.537714426246, -6395.817565419384, 15593.627464011606, 6956.600482058583, 0.048, 0.9380000000000001, 0.422, 192.0, 0.0, 0.0, 0.0, 0.0, 0.0, 0.0, 0.0, 0.0, 0.0, 1.654609091299744E9, 0.0, 2022-06-07 15:38:11.299
222.0, 39113.04940140837, 14228.740540592737, -19497.404336619897, -21943.758063764344, -6023.19163360496, -6360.837085346829, 15608.42431884102, 6944.3070226081645, 0.048, 0.9380000000000001, 0.422, 192.0, 0.0, 0.0, 0.0, 0.0, 0.0, 0.0, 0.0, 0.0, 0.0, 1.654609091299747E9, 0.0, 2022-06-07 15:38:11.299
223.0, 39003.50350183291, 14213.273133429664, -19520.583095620048, -21972.927090278517, -6056.853360754652, -6385.267542036479, 15546.666448911006, 6937.377981827019, 0.048, 0.9380000000000001, 0.422, 192.0, 0.0, 0.0, 0.0, 0.0, 0.0, 0.0, 0.0, 0.0, 0.0, 1.654609091299764E9, 0.0, 2022-06-07 15:38:11.299
224.0, 39020.17790319656, 14235.513119162693, -19485.781429503135, -21971.11659897764, -6044.470494326412, -6437.838844995362, 15541.637306408562, 6948.956185454868, 0.048, 0.9380000000000001, 0.422, 192.0, 0.0, 0.0, 0.0, 0.0, 0.0, 0.0, 0.0, 0.0, 0.0, 1.654609091299767E9, 0.0, 2022-06-07 15:38:11.299
225.0, 39139.51386684345, 14264.34686951004, -19438.015751602146, -21943.95922946444, -5991.586266945156, -6448.522978844998, 15570.582815478185, 6966.770525785748, 0.04, 0.932, 0.426, 192.0, 1.0, 64.0, 29.0, 32.0, 13.0, 80.0, 0.0, 0.0, 0.0, 1.654609091299771E9, 0.0, 2022-06-07 15:38:11.299
226.0, 39205.47386473106, 14266.090305577554, -19434.8865073784, -21914.924313416996, -5963.713641609388, -6377.533838454943, 15595.415603568032, 6980.852124792591, 0.04, 0.932, 0.426, 192.0, 0.0, 0.0, 0.0, 0.0, 0.0, 0.0, 0.0, 0.0, 0.0, 1.654609091299774E9, 0.0, 2022-06-07 15:38:11.299
227.0, 39110.54600602937, 14220.58215386655, -19491.682290039338, -21935.800842738252, -6010.361732287613, -6339.669983347653, 15573.108562601634, 6962.0990111945885, 0.04, 0.932, 0.426, 192.0, 0.0, 0.0, 0.0, 0.0, 0.0, 0.0, 0.0, 0.0, 0.0, 1.654609091299778E9, 0.0, 2022-06-07 15:38:11.299
228.0, 38981.28586784433, 14191.636644796927, -19525.120499744477, -21973.44118040099, -6056.629843310099, -6375.321015753868, 15547.158187289024, 6950.029069188723, 0.04, 0.932, 0.426, 192.0, 0.0, 0.0, 0.0, 0.0, 0.0, 0.0, 0.0, 0.0, 0.0, 1.654609091359944E9, 0.0, 2022-06-07 15:38:11.359
229.0, 38995.926260462555, 14210.523868861661, -19498.18664767583, -21978.96206128145, -6045.185750148982, -6429.747513502541, 15547.627573922584, 6957.159275669966, 0.04, 0.932, 0.426, 192.0, 0.0, 0.0, 0.0, 0.0, 0.0, 0.0, 0.0, 0.0, 0.0, 1.654609091359951E9, 0.0, 2022-06-07 15:38:11.359
230.0, 39117.989136932985, 14242.48686343275, -19457.55117625608, -21954.375142380613, -5986.154793042516, -6437.32475487289, 15570.98514687838, 6972.403165388485, 0.04, 0.932, 0.426, 192.0, 0.0, 0.0, 0.0, 0.0, 0.0, 0.0, 0.0, 0.0, 0.0, 1.654609091359955E9, 0.0, 2022-06-07 15:38:11.359
231.0, 39178.98704755152, 14251.025229814677, -19457.32765881153, -21933.14098514807, -5973.101374280617, -6381.780669901451, 15583.055088884246, 6977.521714868751, 0.04, 0.932, 0.426, 192.0, 0.0, 0.0, 0.0, 0.0, 0.0, 0.0, 0.0, 0.0, 0.0, 1.654609091359959E9, 0.0, 2022-06-07 15:38:11.359
232.0, 39095.99502038897, 14217.207040453797, -19493.425726106852, -21948.653095800055, -6020.420017292502, -6349.594157885809, 15574.60612948014, 6954.18649365741, 0.04, 0.932, 0.426, 192.0, 0.0, 0.0, 0.0, 0.0, 0.0, 0.0, 0.0, 0.0, 0.0, 1.654609091359963E9, 0.0, 2022-06-07 15:38:11.359
233.0, 38984.21394636798, 14182.785353992625, -19528.696778857324, -21992.797791099285, -6064.609416080644, -6386.45218449261, 15538.776283118283, 6932.37119106903, 0.04, 0.932, 0.426, 192.0, 0.0, 0.0, 0.0, 0.0, 0.0, 0.0, 0.0, 0.0, 0.0, 1.654609091359967E9, 0.0, 2022-06-07 15:38:11.359
234.0, 38990.22656562645, 14194.005929709188, -19504.37808088995, -21992.440163188003, -6052.539474074778, -6443.538539831465, 15529.947344058437, 6934.539310281195, 0.04, 0.932, 0.426, 192.0, 0.0, 0.0, 0.0, 0.0, 0.0, 0.0, 0.0, 0.0, 0.0, 1.654609091359971E9, 0.0, 2022-06-07 15:38:11.359
235.0, 39111.64124150768, 14243.805616355612, -19453.550213998584, -21961.52770060631, -6002.650380450533, -6453.954452747638, 15569.84520791116, 6953.068906434644, 0.042, 0.926, 0.428, 192.0, 1.0, 80.0, 28.0, 240.0, 13.0, 96.0, 0.0, 0.0, 0.0, 1.654609091359982E9, 0.0, 2022-06-07 15:38:11.359
236.0, 39165.97833227853, 14239.648191886925, -19459.451074534783, -21946.753197521353, -5989.999293088829, -6405.942905657638, 15596.264969857333, 6950.230234888821, 0.042, 0.926, 0.428, 192.0, 0.0, 0.0, 0.0, 0.0, 0.0, 0.0, 0.0, 0.0, 0.0, 1.654609091359986E9, 0.0, 2022-06-07 15:38:11.359
237.0, 39078.73947366947, 14199.035072211633, -19513.542296116626, -21968.367334409635, -6037.787322734275, -6379.389033244734, 15543.045466309246, 6926.649144488471, 0.042, 0.926, 0.428, 192.0, 0.0, 0.0, 0.0, 0.0, 0.0, 0.0, 0.0, 0.0, 0.0, 1.65460909135999E9, 0.0, 2022-06-07 15:38:11.359
238.0, 38974.200364852, 14179.164371390865, -19540.498499929727, -21997.156381268072, -6078.467497642934, -6402.143109100236, 15510.344864171133, 6915.048589116167, 0.042, 0.926, 0.428, 192.0, 0.0, 0.0, 0.0, 0.0, 0.0, 0.0, 0.0, 0.0, 0.0, 1.654609091359994E9, 0.0, 2022-06-07 15:38:11.359
239.0, 38999.74840876441, 14203.706586802791, -19507.373214646963, -21996.21760800095, -6055.646366554066, -6449.059420711926, 15545.83943436616, 6929.46546428984, 0.042, 0.926, 0.428, 192.0, 0.0, 0.0, 0.0, 0.0, 0.0, 0.0, 0.0, 0.0, 0.0, 1.65460909136001E9, 0.0, 2022-06-07 15:38:11.360
240.0, 39125.36521260324, 14241.43633144335, -19456.590051244504, -21971.071895488727, -6005.824328163187, -6465.934987775682, 15579.836437682681, 6946.56454879815, 0.042, 0.926, 0.428, 192.0, 0.0, 0.0, 0.0, 0.0, 0.0, 0.0, 0.0, 0.0, 0.0, 1.654609091360013E9, 0.0, 2022-06-07 15:38:11.360
241.0, 39205.47386473106, 14258.982450840766, -19444.028370860622, -21934.459738070935, -5982.42205171848, -6400.444376521633, 15563.519664230307, 6958.813304759658, 0.042, 0.926, 0.428, 192.0, 0.0, 0.0, 0.0, 0.0, 0.0, 0.0, 0.0, 0.0, 0.0, 1.654609091360017E9, 0.0, 2022-06-07 15:38:11.360
242.0, 39123.64412828018, 14224.940744035333, -19494.58801681853, -21948.78720626679, -6030.14302613056, -6359.741849868518, 15549.572175690197, 6943.211787129854, 0.042, 0.926, 0.428, 192.0, 0.0, 0.0, 0.0, 0.0, 0.0, 0.0, 0.0, 0.0, 0.0, 1.654609091360033E9, 0.0, 2022-06-07 15:38:11.360
243.0, 38989.39955108161, 14188.172124406354, -19527.266267212184, -21981.286642704803, -6077.238151697892, -6386.876867637261, 15521.006646276313, 6929.309002078653, 0.042, 0.926, 0.428, 192.0, 0.0, 0.0, 0.0, 0.0, 0.0, 0.0, 0.0, 0.0, 0.0, 1.654609091420283E9, 0.0, 2022-06-07 15:38:11.420
244.0, 38994.42869358405, 14201.627874568449, -19504.534543101137, -21990.808485842765, -6067.91747426003, -6444.142036931758, 15512.915314783493, 6929.219595100832, 0.042, 0.926, 0.428, 192.0, 0.0, 0.0, 0.0, 0.0, 0.0, 0.0, 0.0, 0.0, 0.0, 1.65460909142029E9, 0.0, 2022-06-07 15:38:11.420
245.0, 39115.195168876075, 14240.922241320879, -19458.020562889644, -21968.97083150993, -6013.870956167097, -6461.911673773727, 15541.369085475098, 6948.777371499225, 0.04, 0.924, 0.432, 192.0, 1.0, 64.0, 28.0, 224.0, 13.0, 128.0, 0.0, 0.0, 0.0, 1.654609091420294E9, 0.0, 2022-06-07 15:38:11.420
246.0, 39184.485576687526, 14254.690915905347, -19442.240231304197, -21932.11280490313, -5985.953627342418, -6403.908896912205, 15569.956966633436, 6961.9201972389465, 0.04, 0.924, 0.432, 192.0, 0.0, 0.0, 0.0, 0.0, 0.0, 0.0, 0.0, 0.0, 0.0, 1.654609091420297E9, 0.0, 2022-06-07 15:38:11.420
247.0, 39099.70540996855, 14211.864973528978, -19492.375194117452, -21950.463587100934, -6026.09736038415, -6369.241341262024, 15555.785960648771, 6939.054362661167, 0.04, 0.924, 0.432, 192.0, 0.0, 0.0, 0.0, 0.0, 0.0, 0.0, 0.0, 0.0, 0.0, 1.6546090914203E9, 0.0, 2022-06-07 15:38:11.420
248.0, 38977.17314686455, 14173.062345154565, -19532.876555070467, -21996.508180678866, -6079.026291254318, -6411.016751648993, 15526.840451579148, 6914.758016438248, 0.04, 0.924, 0.432, 192.0, 0.0, 0.0, 0.0, 0.0, 0.0, 0.0, 0.0, 0.0, 0.0, 1.654609091420304E9, 0.0, 2022-06-07 15:38:11.420
249.0, 38991.67942901605, 14197.805726266592, -19497.18081917534, -21997.514009179355, -6065.4140788810355, -6460.257644684034, 15523.085358510658, 6927.207938099854, 0.04, 0.924, 0.432, 192.0, 0.0, 0.0, 0.0, 0.0, 0.0, 0.0, 0.0, 0.0, 0.0, 1.654609091420307E9, 0.0, 2022-06-07 15:38:11.420
250.0, 39113.8317124643, 14247.270136746185, -19445.816510417048, -21974.603471112667, -6014.206232333927, -6476.932046047694, 15551.673239668995, 6941.84833071808, 0.04, 0.924, 0.432, 192.0, 0.0, 0.0, 0.0, 0.0, 0.0, 0.0, 0.0, 0.0, 0.0, 1.65460909142031E9, 0.0, 2022-06-07 15:38:11.420
251.0, 39179.232916740526, 14239.134101764454, -19449.79512093009, -21952.743465035375, -5994.313179768704, -6423.310211099411, 15563.184388063479, 6939.635508017005, 0.04, 0.924, 0.432, 192.0, 0.0, 0.0, 0.0, 0.0, 0.0, 0.0, 0.0, 0.0, 0.0, 1.654609091420314E9, 0.0, 2022-06-07 15:38:11.420
252.0, 39111.21655836303, 14205.405319381396, -19504.266322167674, -21970.021363499327, -6032.869938954108, -6390.095518838825, 15535.624687150084, 6918.066074617634, 0.04, 0.924, 0.432, 192.0, 0.0, 0.0, 0.0, 0.0, 0.0, 0.0, 0.0, 0.0, 0.0, 1.654609091420317E9, 0.0, 2022-06-07 15:38:11.420
253.0, 38999.34607736422, 14189.960263962777, -19526.61806662298, -21991.859017832165, -6073.639520840588, -6407.552231258421, 15515.59752411813, 6912.6122489705385, 0.04, 0.924, 0.432, 192.0, 0.0, 0.0, 0.0, 0.0, 0.0, 0.0, 0.0, 0.0, 0.0, 1.65460909142032E9, 0.0, 2022-06-07 15:38:11.420
254.0, 38980.280039343845, 14194.184743664831, -19495.258569152185, -21990.406154442568, -6061.904855001552, -6457.307214415934, 15528.807405091216, 6926.380923555008, 0.04, 0.924, 0.432, 192.0, 0.0, 0.0, 0.0, 0.0, 0.0, 0.0, 0.0, 0.0, 0.0, 1.654609091420324E9, 0.0, 2022-06-07 15:38:11.420
255.0, 39090.54119474187, 14227.913526047889, -19448.342257540495, -21962.801750040264, -6011.121691599094, -6473.869857057316, 15557.46234148292, 6945.938699953402, 0.04, 0.93, 0.432, 192.0, 1.0, 64.0, 29.0, 16.0, 13.0, 128.0, 0.0, 0.0, 0.0, 1.654609091420327E9, 0.0, 2022-06-07 15:38:11.420
0.0, 39161.485631643016, 14234.95432555131, -19450.063341863555, -21941.76875850782, -5993.597923946134, -6415.487100540055, 15567.095943343156, 6944.865816219547, 0.04, 0.93, 0.432, 192.0, 0.0, 0.0, 0.0, 0.0, 0.0, 0.0, 0.0, 0.0, 0.0, 1.654609091420338E9, 0.0, 2022-06-07 15:38:11.420
1.0, 39085.66851445061, 14204.198325180809, -19501.114726199477, -21959.82896802771, -6037.966136689918, -6374.963387842583, 15537.613992406606, 6925.196281098876, 0.04, 0.93, 0.432, 192.0, 0.0, 0.0, 0.0, 0.0, 0.0, 0.0, 0.0, 0.0, 0.0, 1.654609091420341E9, 0.0, 2022-06-07 15:38:11.420
2.0, 38965.28201881433, 14172.034164909623, -19545.862918599, -21990.45085793148, -6088.458727414457, -6400.60083873282, 15505.941570513436, 6913.305153048654, 0.04, 0.93, 0.432, 192.0, 0.0, 0.0, 0.0, 0.0, 0.0, 0.0, 0.0, 0.0, 0.0, 1.654609091479049E9, 0.0, 2022-06-07 15:38:11.479
3.0, 38971.58521075072, 14195.90582798789, -19510.94949375981, -21986.44989567398, -6075.6288260971105, -6452.8815690137835, 15517.519774141287, 6928.057304389156, 0.04, 0.93, 0.432, 192.0, 0.0, 0.0, 0.0, 0.0, 0.0, 0.0, 0.0, 0.0, 0.0, 1.654609091479056E9, 0.0, 2022-06-07 15:38:11.479
4.0, 39093.6257354767, 14230.752197593714, -19460.7921792021, -21967.04858148677, -6024.711552227921, -6468.706604088141, 15548.052257067235, 6945.961051697856, 0.04, 0.93, 0.432, 192.0, 0.0, 0.0, 0.0, 0.0, 0.0, 0.0, 0.0, 0.0, 0.0, 1.65460909147906E9, 0.0, 2022-06-07 15:38:11.479
5.0, 39164.190192722104, 14232.942668550333, -19458.42289428984, -21942.81929049722, -6001.465737994402, -6412.223745849579, 15595.102679145657, 6951.370173856041, 0.04, 0.93, 0.432, 192.0, 0.0, 0.0, 0.0, 0.0, 0.0, 0.0, 0.0, 0.0, 0.0, 1.654609091479063E9, 0.0, 2022-06-07 15:38:11.479
6.0, 39088.97657263, 14193.827115753546, -19507.9543600028, -21957.370276137626, -6042.771761747809, -6370.73890814053, 15570.739277689372, 6934.740475981293, 0.04, 0.93, 0.432, 192.0, 0.0, 0.0, 0.0, 0.0, 0.0, 0.0, 0.0, 0.0, 0.0, 1.654609091479066E9, 0.0, 2022-06-07 15:38:11.479
7.0, 38979.073045143254, 14172.704717243281, -19535.648171382927, -21985.041735773295, -6084.413061668046, -6390.207277561102, 15510.97071301588, 6926.93971716639, 0.04, 0.93, 0.432, 192.0, 0.0, 0.0, 0.0, 0.0, 0.0, 0.0, 0.0, 0.0, 0.0, 1.654609091479069E9, 0.0, 2022-06-07 15:38:11.479
8.0, 38991.14298714912, 14189.200304651298, -19510.658921081893, -21990.897892820587, -6075.002977252362, -6445.416086365711, 15519.106747997612, 6935.947470181879, 0.04, 0.93, 0.432, 192.0, 0.0, 0.0, 0.0, 0.0, 0.0, 0.0, 0.0, 0.0, 0.0, 1.654609091479072E9, 0.0, 2022-06-07 15:38:11.479
9.0, 39126.102820170265, 14249.393552469439, -19451.873833164434, -21955.000991225363, -6008.350075286637, -6452.99332773606, 15556.121236815601, 6961.428458860929, 0.034, 0.93, 0.434, 192.0, 1.0, 16.0, 29.0, 16.0, 13.0, 144.0, 0.0, 0.0, 0.0, 1.654609091479076E9, 0.0, 2022-06-07 15:38:11.479
10.0, 39188.28537324493, 14249.147683280431, -19444.341295282997, -21928.313008345725, -5980.589208673145, -6403.707731212107, 15577.444801025964, 6959.908540237969, 0.034, 0.93, 0.434, 192.0, 0.0, 0.0, 0.0, 0.0, 0.0, 0.0, 0.0, 0.0, 0.0, 1.654609091479079E9, 0.0, 2022-06-07 15:38:11.479
11.0, 39103.102875125755, 14205.159450192386, -19487.636624292925, -21940.248839884858, -6017.089607368661, -6370.73890814053, 15566.60420496514, 6939.009659172257, 0.034, 0.93, 0.434, 192.0, 0.0, 0.0, 0.0, 0.0, 0.0, 0.0, 0.0, 0.0, 0.0, 1.654609091479082E9, 0.0, 2022-06-07 15:38:11.479
12.0, 38987.58905978073, 14174.694022499803, -19519.66667409738, -21974.089380990194, -6063.447125368968, -6399.751472443518, 15537.055198795224, 6919.340124051586, 0.034, 0.93, 0.434, 192.0, 0.0, 0.0, 0.0, 0.0, 0.0, 0.0, 0.0, 0.0, 0.0, 1.654609091479086E9, 0.0, 2022-06-07 15:38:11.479
13.0, 38998.56376630828, 14186.562798805571, -19497.136115686433, -21988.4392009305, -6051.935976974485, -6453.149789947247, 15535.64703889454, 6922.268202575231, 0.034, 0.93, 0.434, 192.0, 0.0, 0.0, 0.0, 0.0, 0.0, 0.0, 0.0, 0.0, 0.0, 1.654609091479089E9, 0.0, 2022-06-07 15:38:11.479
14.0, 39127.89095972669, 14228.092340003532, -19441.212051059254, -21970.133122221607, -5997.889458881553, -6470.405336666744, 15573.622652724107, 6939.903728950469, 0.034, 0.93, 0.434, 192.0, 0.0, 0.0, 0.0, 0.0, 0.0, 0.0, 0.0, 0.0, 0.0, 1.654609091479093E9, 0.0, 2022-06-07 15:38:11.479
15.0, 39204.04335308592, 14237.122444763476, -19434.93121086731, -21948.831909755696, -5973.816630103187, -6424.807777977918, 15591.548751777264, 6937.132112638011, 0.034, 0.93, 0.434, 192.0, 0.0, 0.0, 0.0, 0.0, 0.0, 0.0, 0.0, 0.0, 0.0, 1.654609091479096E9, 0.0, 2022-06-07 15:38:11.479
16.0, 39126.37104110373, 14195.972883221255, -19489.916502227366, -21963.561709351747, -6011.769892188298, -6397.136318342247, 15561.709172929428, 6913.729836193304, 0.034, 0.93, 0.434, 192.0, 0.0, 0.0, 0.0, 0.0, 0.0, 0.0, 0.0, 0.0, 0.0, 1.654609091479099E9, 0.0, 2022-06-07 15:38:11.479
17.0, 39014.27704266036, 14173.196455621297, -19513.408185649896, -22000.665605147555, -6058.48503809989, -6429.211071635613, 15534.775320860783, 6901.011693598234, 0.034, 0.93, 0.434, 192.0, 0.0, 0.0, 0.0, 0.0, 0.0, 0.0, 0.0, 0.0, 0.0, 1.654609091539414E9, 0.0, 2022-06-07 15:38:11.539
18.0, 39022.837760786744, 14188.66386278437, -19484.52973181364, -22011.64031167511, -6052.204197907949, -6468.751307577051, 15523.778262588772, 6905.2138215558325, 0.034, 0.93, 0.434, 192.0, 0.0, 0.0, 0.0, 0.0, 0.0, 0.0, 0.0, 0.0, 0.0, 1.654609091539433E9, 0.0, 2022-06-07 15:38:11.539
19.0, 39142.62075932274, 14228.494671403727, -19443.916612138346, -21992.015480043352, -6003.455043250924, -6467.9689965211155, 15545.951193088436, 6920.3012490631645, 0.026000000000000002, 0.93, 0.426, 192.0, 0.0, 208.0, 29.0, 16.0, 13.0, 80.0, 0.0, 0.0, 0.0, 1.654609091539437E9, 0.0, 2022-06-07 15:38:11.539
20.0, 39215.3533357803, 14231.825081327568, -19441.592030714994, -21970.7366193219, -5979.784545872753, -6418.79515871944, 15561.530358973785, 6918.870737418025, 0.026000000000000002, 0.93, 0.426, 192.0, 0.0, 0.0, 0.0, 0.0, 0.0, 0.0, 0.0, 0.0, 0.0, 1.654609091539441E9, 0.0, 2022-06-07 15:38:11.539
21.0, 39140.76556453294, 14191.524886074649, -19492.28578713963, -21985.712288106955, -6012.172223588494, -6375.008091331493, 15572.326251545699, 6912.075807103612, 0.026000000000000002, 0.93, 0.426, 192.0, 0.0, 0.0, 0.0, 0.0, 0.0, 0.0, 0.0, 0.0, 0.0, 1.654609091539444E9, 0.0, 2022-06-07 15:38:11.539
22.0, 39030.03502250135, 14174.582263777527, -19523.980560777254, -22014.322521009748, -6053.7911717642755, -6395.482289252554, 15547.046428566746, 6908.007789612746, 0.026000000000000002, 0.93, 0.426, 192.0, 0.0, 0.0, 0.0, 0.0, 0.0, 0.0, 0.0, 0.0, 0.0, 1.654609091539457E9, 0.0, 2022-06-07 15:38:11.539
23.0, 39041.14383949564, 14195.212923909776, -19493.246912151208, -22016.289474521815, -6043.375258848102, -6443.22561540909, 15520.64901836503, 6917.172004839422, 0.026000000000000002, 0.93, 0.426, 192.0, 0.0, 0.0, 0.0, 0.0, 0.0, 0.0, 0.0, 0.0, 0.0, 1.654609091539461E9, 0.0, 2022-06-07 15:38:11.539
24.0, 39157.10468972978, 14229.09816850402, -19451.873833164434, -21995.994090556396, -6002.04688335024, -6462.448115640655, 15540.117387785602, 6930.068961390133, 0.026000000000000002, 0.93, 0.426, 192.0, 0.0, 0.0, 0.0, 0.0, 0.0, 0.0, 0.0, 0.0, 0.0, 1.654609091539464E9, 0.0, 2022-06-07 15:38:11.539
25.0, 39232.31830982189, 14239.782302353658, -19442.262583048654, -21963.5840610962, -5971.290882979737, -6411.17321386018, 15591.705213988449, 6943.524711552229, 0.026000000000000002, 0.93, 0.426, 192.0, 0.0, 0.0, 0.0, 0.0, 0.0, 0.0, 0.0, 0.0, 0.0, 1.654609091539467E9, 0.0, 2022-06-07 15:38:11.539
26.0, 39158.08816648581, 14213.116671218477, -19484.127400413443, -21970.58015711071, -6006.338418285659, -6365.106268537792, 15591.302882588254, 6931.61123175755, 0.026000000000000002, 0.93, 0.426, 192.0, 0.0, 0.0, 0.0, 0.0, 0.0, 0.0, 0.0, 0.0, 0.0, 1.654609091539471E9, 0.0, 2022-06-07 15:38:11.539
27.0, 39042.88727556315, 14187.501572072695, -19521.164240975886, -22009.11456455166, -6056.428677610002, -6386.318074025879, 15530.416730691997, 6915.517975749729, 0.026000000000000002, 0.93, 0.426, 192.0, 0.0, 0.0, 0.0, 0.0, 0.0, 0.0, 0.0, 0.0, 0.0, 1.654609091539474E9, 0.0, 2022-06-07 15:38:11.539
28.0, 39048.519915165896, 14204.153621691898, -19499.773621532157, -22013.36139599817, -6053.5005990863565, -6450.735801546073, 15534.663562138507, 6912.522841992717, 0.032, 0.934, 0.422, 192.0, 1.0, 0.0, 29.0, 48.0, 13.0, 48.0, 0.0, 0.0, 0.0, 1.654609091539478E9, 0.0, 2022-06-07 15:38:11.539
29.0, 39164.212544466565, 14247.940689079845, -19451.627963975425, -21980.34786943768, -6004.751444429332, -6475.322720446911, 15548.901623356536, 6926.202109599365, 0.032, 0.934, 0.422, 192.0, 0.0, 0.0, 0.0, 0.0, 0.0, 0.0, 0.0, 0.0, 0.0, 1.654609091539481E9, 0.0, 2022-06-07 15:38:11.539
30.0, 39250.98201644207, 14263.788075898658, -19437.903992879867, -21947.557860321744, -5970.061537034695, -6418.616344763797, 15563.69847818595, 6937.7356097383035, 0.032, 0.934, 0.422, 192.0, 0.0, 0.0, 0.0, 0.0, 0.0, 0.0, 0.0, 0.0, 0.0, 1.654609091539485E9, 0.0, 2022-06-07 15:38:11.539
31.0, 39184.21735575407, 14231.646267371925, -19470.559891529072, -21957.59379358218, -6006.4278252634795, -6364.726288882052, 15551.226204779889, 6923.922231664924, 0.032, 0.934, 0.422, 192.0, 0.0, 0.0, 0.0, 0.0, 0.0, 0.0, 0.0, 0.0, 0.0, 1.654609091539488E9, 0.0, 2022-06-07 15:38:11.539
32.0, 39067.18362178608, 14207.729900804747, -19508.066118725077, -21986.651061374076, -6057.993299721873, -6387.413309504189, 15532.540146415253, 6911.785234425693, 0.032, 0.934, 0.422, 192.0, 0.0, 0.0, 0.0, 0.0, 0.0, 0.0, 0.0, 0.0, 0.0, 1.654609091599584E9, 0.0, 2022-06-07 15:38:11.599
33.0, 39061.88625835017, 14229.969886537778, -19484.775601002646, -21993.378936455123, -6049.365526362125, -6438.867025240305, 15533.233050493367, 6918.17783333991, 0.032, 0.934, 0.422, 192.0, 0.0, 0.0, 0.0, 0.0, 0.0, 0.0, 0.0, 0.0, 0.0, 1.654609091599593E9, 0.0, 2022-06-07 15:38:11.599
34.0, 39179.27762022944, 14275.858017904524, -19434.059492833556, -21966.780360553308, -5992.100357067628, -6454.043859725459, 15561.306841529233, 6937.4450370603845, 0.032, 0.934, 0.422, 192.0, 0.0, 0.0, 0.0, 0.0, 0.0, 0.0, 0.0, 0.0, 0.0, 1.654609091599597E9, 0.0, 2022-06-07 15:38:11.599
35.0, 39264.63893230426, 14288.956140155333, -19424.001207828667, -21936.605505538646, -5965.725298610366, -6398.432719520655, 15582.853923184148, 6951.772505256236, 0.032, 0.934, 0.422, 192.0, 0.0, 0.0, 0.0, 0.0, 0.0, 0.0, 0.0, 0.0, 0.0, 1.654609091599601E9, 0.0, 2022-06-07 15:38:11.599
36.0, 39193.068646558364, 14251.360505981507, -19471.632775262926, -21944.160395164537, -6003.365636273103, -6352.9245678096495, 15570.336946289177, 6937.132112638011, 0.032, 0.934, 0.422, 192.0, 0.0, 0.0, 0.0, 0.0, 0.0, 0.0, 0.0, 0.0, 0.0, 1.654609091599604E9, 0.0, 2022-06-07 15:38:11.599
37.0, 39069.195278787054, 14220.693912588826, -19506.501496613204, -21972.524758878324, -6043.19644489246, -6369.889541851228, 15553.304917014233, 6928.817263700636, 0.032, 0.934, 0.422, 192.0, 0.0, 0.0, 0.0, 0.0, 0.0, 0.0, 0.0, 0.0, 0.0, 1.654609091599608E9, 0.0, 2022-06-07 15:38:11.599
38.0, 39070.91636311011, 14223.309066690097, -19486.51903707016, -21978.850302559174, -6033.071104654206, -6419.085731397358, 15555.540091459763, 6939.121417894533, 0.032, 0.932, 0.422, 192.0, 1.0, 0.0, 29.0, 32.0, 13.0, 48.0, 0.0, 0.0, 0.0, 1.654609091599612E9, 0.0, 2022-06-07 15:38:11.599
39.0, 39188.84416685631, 14260.72588690828, -19441.52497548163, -21960.410113383547, -5980.209229017405, -6438.665859540208, 15573.08621085718, 6951.548987811683, 0.032, 0.932, 0.422, 192.0, 0.0, 0.0, 0.0, 0.0, 0.0, 0.0, 0.0, 0.0, 0.0, 1.654609091599615E9, 0.0, 2022-06-07 15:38:11.599
40.0, 39253.93244671017, 14271.924110880389, -19438.909821380355, -21939.935915462484, -5960.584397385645, -6396.868097408784, 15588.79948720926, 6955.952281469379, 0.032, 0.932, 0.422, 192.0, 0.0, 0.0, 0.0, 0.0, 0.0, 0.0, 0.0, 0.0, 0.0, 1.654609091599619E9, 0.0, 2022-06-07 15:38:11.599
41.0, 39175.522527160945, 14234.239069728741, -19483.121571912954, -21959.784264538797, -5998.3811972595695, -6348.767143340962, 15567.431219509986, 6943.122380152033, 0.032, 0.932, 0.422, 192.0, 0.0, 0.0, 0.0, 0.0, 0.0, 0.0, 0.0, 0.0, 0.0, 1.654609091599623E9, 0.0, 2022-06-07 15:38:11.599
42.0, 39051.69386287855, 14200.95732223479, -19519.644322352928, -21989.601491642177, -6043.598776292655, -6366.156800527192, 15540.184443018967, 6931.588880013094, 0.032, 0.932, 0.422, 192.0, 0.0, 0.0, 0.0, 0.0, 0.0, 0.0, 0.0, 0.0, 0.0, 1.654609091599627E9, 0.0, 2022-06-07 15:38:11.599
43.0, 39047.40232794313, 14208.869839771967, -19508.356691402994, -21999.74918362489, -6042.10120941415, -6425.7689029894955, 15533.680085382473, 6933.377019569519, 0.032, 0.932, 0.422, 192.0, 0.0, 0.0, 0.0, 0.0, 0.0, 0.0, 0.0, 0.0, 0.0, 1.654609091599638E9, 0.0, 2022-06-07 15:38:11.599
44.0, 39164.86074505577, 14252.612203671004, -19449.236327318707, -21977.15156998057, -5997.353017014625, -6442.979746220082, 15578.294167315265, 6946.51984530924, 0.032, 0.932, 0.422, 192.0, 0.0, 0.0, 0.0, 0.0, 0.0, 0.0, 0.0, 0.0, 0.0, 1.654609091599654E9, 0.0, 2022-06-07 15:38:11.599
45.0, 39242.801277971426, 14276.148590582443, -19435.713521923248, -21949.524813833814, -5967.826362589164, -6402.0537021224145, 15611.531211320307, 6948.37504009903, 0.032, 0.932, 0.422, 192.0, 0.0, 0.0, 0.0, 0.0, 0.0, 0.0, 0.0, 0.0, 0.0, 1.654609091599658E9, 0.0, 2022-06-07 15:38:11.599
46.0, 39175.18725099412, 14238.508252919704, -19479.27707186664, -21959.158415694048, -5998.694121681943, -6363.452239448099, 15552.097922813646, 6929.554871267662, 0.032, 0.932, 0.422, 192.0, 0.0, 0.0, 0.0, 0.0, 0.0, 0.0, 0.0, 0.0, 0.0, 1.654609091599661E9, 0.0, 2022-06-07 15:38:11.599
47.0, 39053.906685579626, 14209.272171172164, -19517.476203140763, -21987.701593363476, -6047.6891455279765, -6378.427908233155, 15526.59458239014, 6916.680266461404, 0.032, 0.932, 0.422, 192.0, 0.0, 0.0, 0.0, 0.0, 0.0, 0.0, 0.0, 0.0, 0.0, 1.654609091659922E9, 0.0, 2022-06-07 15:38:11.659
48.0, 39047.96112155451, 14222.459700400794, -19499.348938387506, -21999.68212839152, -6041.453008824946, -6430.194548391646, 15527.019265534791, 6921.575298497117, 0.034, 0.93, 0.43, 192.0, 1.0, 16.0, 29.0, 16.0, 13.0, 112.0, 0.0, 0.0, 0.0, 1.65460909165993E9, 0.0, 2022-06-07 15:38:11.659
49.0, 39169.28639045792, 14257.462532217805, -19446.934097639813, -21976.12338973563, -5987.89822911003, -6454.200321936646, 15556.165940304512, 6941.133074895511, 0.034, 0.93, 0.43, 192.0, 0.0, 0.0, 0.0, 0.0, 0.0, 0.0, 0.0, 0.0, 0.0, 1.654609091659934E9, 0.0, 2022-06-07 15:38:11.659
50.0, 39249.10446990782, 14267.096134078043, -19434.774748656124, -21951.20119466796, -5957.5892636286335, -6405.9876091465485, 15578.18240859299, 6946.966880198345, 0.034, 0.93, 0.43, 192.0, 0.0, 0.0, 0.0, 0.0, 0.0, 0.0, 0.0, 0.0, 0.0, 1.654609091659938E9, 0.0, 2022-06-07 15:38:11.659
51.0, 39172.259172470476, 14228.38291268145, -19486.027298692145, -21970.624860599622, -5996.123671069583, -6366.514428438477, 15558.758742661328, 6924.838653187591, 0.034, 0.93, 0.43, 192.0, 0.0, 0.0, 0.0, 0.0, 0.0, 0.0, 0.0, 0.0, 0.0, 1.654609091659941E9, 0.0, 2022-06-07 15:38:11.659
52.0, 39056.79006061436, 14205.986464737232, -19516.67154034037, -22002.87842784863, -6042.838816981175, -6387.301550781912, 15534.395341205043, 6910.153557080455, 0.034, 0.93, 0.43, 192.0, 0.0, 0.0, 0.0, 0.0, 0.0, 0.0, 0.0, 0.0, 0.0, 1.654609091659945E9, 0.0, 2022-06-07 15:38:11.659
53.0, 39046.57531339828, 14216.648246842415, -19493.872760995957, -22011.148573297094, -6038.971965190407, -6438.777618262484, 15531.847242337137, 6911.248792558765, 0.034, 0.93, 0.43, 192.0, 0.0, 0.0, 0.0, 0.0, 0.0, 0.0, 0.0, 0.0, 0.0, 1.654609091659949E9, 0.0, 2022-06-07 15:38:11.659
54.0, 39161.70914908757, 14254.86972986099, -19442.016713859644, -21986.02521252933, -5984.4113569750025, -6457.910711516227, 15557.797617649749, 6929.443112545385, 0.034, 0.93, 0.43, 192.0, 0.0, 0.0, 0.0, 0.0, 0.0, 0.0, 0.0, 0.0, 0.0, 1.654609091659953E9, 0.0, 2022-06-07 15:38:11.659
55.0, 39240.744917481534, 14273.466381247805, -19435.333542267508, -21961.617107584134, -5959.2879962072375, -6414.324809828378, 15570.918091645015, 6934.427551558919, 0.034, 0.93, 0.43, 192.0, 0.0, 0.0, 0.0, 0.0, 0.0, 0.0, 0.0, 0.0, 0.0, 1.654609091659956E9, 0.0, 2022-06-07 15:38:11.659
56.0, 39180.26109698547, 14252.321630993085, -19481.13226665643, -21970.35663966616, -5993.597923946134, -6368.637844161731, 15557.50704497183, 6924.5257287652175, 0.034, 0.93, 0.43, 192.0, 0.0, 0.0, 0.0, 0.0, 0.0, 0.0, 0.0, 0.0, 0.0, 1.65460909165996E9, 0.0, 2022-06-07 15:38:11.659
57.0, 39058.62290365969, 14210.345054906018, -19510.301293170607, -21992.127238765628, -6041.229491380393, -6388.106213582303, 15541.614954664106, 6913.774539682215, 0.034, 0.93, 0.43, 192.0, 0.0, 0.0, 0.0, 0.0, 0.0, 0.0, 0.0, 0.0, 0.0, 1.654609091659963E9, 0.0, 2022-06-07 15:38:11.659
58.0, 39033.879522547664, 14206.612313581982, -19503.036976222633, -22016.244771032903, -6045.00693619334, -6449.3052899009335, 15528.338018457654, 6909.058321602145, 0.034, 0.934, 0.43, 192.0, 1.0, 16.0, 29.0, 48.0, 13.0, 112.0, 0.0, 0.0, 0.0, 1.654609091659967E9, 0.0, 2022-06-07 15:38:11.659
59.0, 39157.30585542988, 14249.52766293617, -19450.644487219393, -21990.786134098307, -5992.770909401287, -6467.767830821018, 15550.2203762794, 6929.510167778751, 0.034, 0.934, 0.43, 192.0, 0.0, 0.0, 0.0, 0.0, 0.0, 0.0, 0.0, 0.0, 0.0, 1.654609091659971E9, 0.0, 2022-06-07 15:38:11.659
60.0, 39250.19970538613, 14267.744334667246, -19433.165423055343, -21950.62004931212, -5955.935234538942, -6406.166423102191, 15581.691632472472, 6949.291461621698, 0.034, 0.934, 0.43, 192.0, 0.0, 0.0, 0.0, 0.0, 0.0, 0.0, 0.0, 0.0, 0.0, 1.654609091659974E9, 0.0, 2022-06-07 15:38:11.659
61.0, 39174.42729168264, 14235.736636607247, -19477.08660091002, -21960.49952036137, -5990.446327977936, -6354.846817832807, 15571.745106189861, 6939.635508017005, 0.034, 0.934, 0.43, 192.0, 0.0, 0.0, 0.0, 0.0, 0.0, 0.0, 0.0, 0.0, 0.0, 1.654609091659978E9, 0.0, 2022-06-07 15:38:11.659
62.0, 39044.40719418612, 14203.550124591606, -19520.583095620048, -21995.92703532303, -6042.436485580979, -6377.600893688309, 15546.666448911006, 6922.804644442159, 0.034, 0.934, 0.43, 192.0, 0.0, 0.0, 0.0, 0.0, 0.0, 0.0, 0.0, 0.0, 0.0, 1.654609091719367E9, 0.0, 2022-06-07 15:38:11.719
63.0, 39032.73958358045, 14218.637552098937, -19500.1536011879, -22001.64908190359, -6037.4743983119015, -6427.624097779286, 15542.084341297668, 6931.544176524184, 0.034, 0.934, 0.43, 192.0, 0.0, 0.0, 0.0, 0.0, 0.0, 0.0, 0.0, 0.0, 0.0, 1.654609091719385E9, 0.0, 2022-06-07 15:38:11.719
64.0, 39142.62075932274, 14250.935822836856, -19449.28103080762, -21979.297337448283, -5991.809784389709, -6451.719278302107, 15558.2223007944, 6946.497493564784, 0.034, 0.934, 0.43, 192.0, 0.0, 0.0, 0.0, 0.0, 0.0, 0.0, 0.0, 0.0, 0.0, 1.654609091719396E9, 0.0, 2022-06-07 15:38:11.719
65.0, 39231.7595162105, 14268.303128278629, -19437.568716713038, -21952.47524410191, -5961.836095075142, -6406.658161480208, 15576.953062647948, 6950.006717444267, 0.034, 0.934, 0.43, 192.0, 0.0, 0.0, 0.0, 0.0, 0.0, 0.0, 0.0, 0.0, 0.0, 1.654609091719399E9, 0.0, 2022-06-07 15:38:11.719
66.0, 39168.50407940198, 14231.62391562747, -19482.495723068205, -21961.460645372947, -5991.675673922977, -6359.048945790404, 15566.760667176328, 6932.013563157745, 0.034, 0.934, 0.43, 192.0, 0.0, 0.0, 0.0, 0.0, 0.0, 0.0, 0.0, 0.0, 0.0, 1.654609091719402E9, 0.0, 2022-06-07 15:38:11.719
67.0, 39039.24394121694, 14193.983577964733, -19519.80078456411, -21993.803619599774, -6035.663907011021, -6380.663082678686, 15545.101826799135, 6915.830900172103, 0.034, 0.934, 0.43, 192.0, 0.0, 0.0, 0.0, 0.0, 0.0, 0.0, 0.0, 0.0, 0.0, 1.654609091719404E9, 0.0, 2022-06-07 15:38:11.719
68.0, 39025.47526663247, 14211.775566551158, -19505.80859253509, -22013.830782631732, -6030.321840086203, -6441.102199685836, 15551.516777457808, 6912.634600714994, 0.036000000000000004, 0.934, 0.432, 192.0, 1.0, 32.0, 29.0, 48.0, 13.0, 128.0, 0.0, 0.0, 0.0, 1.654609091719407E9, 0.0, 2022-06-07 15:38:11.719
69.0, 39141.72668954452, 14256.926090350878, -19461.753304213682, -21992.68603237701, -5985.484240708857, -6477.513191403532, 15587.41367905303, 6920.860042674547, 0.036000000000000004, 0.934, 0.432, 192.0, 0.0, 0.0, 0.0, 0.0, 0.0, 0.0, 0.0, 0.0, 0.0, 1.65460909171941E9, 0.0, 2022-06-07 15:38:11.719
70.0, 39235.939292423645, 14275.701555693337, -19440.07211209203, -21946.14970042106, -5943.12768496605, -6418.45988255261, 15578.2271120819, 6939.188473127899, 0.036000000000000004, 0.934, 0.432, 192.0, 0.0, 0.0, 0.0, 0.0, 0.0, 0.0, 0.0, 0.0, 0.0, 1.654609091719413E9, 0.0, 2022-06-07 15:38:11.719
71.0, 39171.32039920335, 14238.284735475152, -19473.264452608164, -21959.158415694048, -5978.465792949891, -6372.080012807848, 15566.939481131969, 6924.749246209771, 0.036000000000000004, 0.934, 0.432, 192.0, 0.0, 0.0, 0.0, 0.0, 0.0, 0.0, 0.0, 0.0, 0.0, 1.654609091719416E9, 0.0, 2022-06-07 15:38:11.719
72.0, 39044.20602848602, 14199.482107100739, -19516.850354296013, -21995.83762834521, -6037.228529122893, -6394.744681685529, 15509.316683926188, 6906.443167500874, 0.036000000000000004, 0.934, 0.432, 192.0, 0.0, 0.0, 0.0, 0.0, 0.0, 0.0, 0.0, 0.0, 0.0, 1.65460909171942E9, 0.0, 2022-06-07 15:38:11.719
73.0, 39031.9125690356, 14216.96117126479, -19493.693947040316, -21998.899817335587, -6031.081799397683, -6441.482179341577, 15510.791899060237, 6918.401350784463, 0.036000000000000004, 0.934, 0.432, 192.0, 0.0, 0.0, 0.0, 0.0, 0.0, 0.0, 0.0, 0.0, 0.0, 1.654609091719423E9, 0.0, 2022-06-07 15:38:11.719
74.0, 39140.787916277404, 14254.0650670606, -19448.789292429603, -21980.4372764155, -5982.444403462935, -6466.538484875976, 15544.721847143395, 6938.853196961069, 0.036000000000000004, 0.934, 0.432, 192.0, 0.0, 0.0, 0.0, 0.0, 0.0, 0.0, 0.0, 0.0, 0.0, 1.654609091719426E9, 0.0, 2022-06-07 15:38:11.719
75.0, 39227.22211208607, 14262.82695088708, -19436.1382050679, -21952.117616190626, -5951.867217048075, -6411.374379560278, 15575.187274835978, 6951.884263978513, 0.036000000000000004, 0.934, 0.432, 192.0, 0.0, 0.0, 0.0, 0.0, 0.0, 0.0, 0.0, 0.0, 0.0, 1.65460909171943E9, 0.0, 2022-06-07 15:38:11.719
76.0, 39162.26794269895, 14227.220621969775, -19479.589996289014, -21963.20408144046, -5990.178107044471, -6359.339518468323, 15565.710135186928, 6936.998002171279, 0.036000000000000004, 0.934, 0.432, 192.0, 0.0, 0.0, 0.0, 0.0, 0.0, 0.0, 0.0, 0.0, 0.0, 1.654609091719433E9, 0.0, 2022-06-07 15:38:11.719
77.0, 39038.61809237219, 14202.946627491312, -19517.789127563137, -21995.234131244913, -6043.375258848102, -6370.582445929343, 15541.190271519456, 6928.37022881153, 0.036000000000000004, 0.934, 0.432, 192.0, 0.0, 0.0, 0.0, 0.0, 0.0, 0.0, 0.0, 0.0, 0.0, 1.654609091779121E9, 0.0, 2022-06-07 15:38:11.779
78.0, 39027.66573758909, 14218.19051720983, -19499.70656629879, -22000.93382608102, -6036.893252956063, -6416.939963929649, 15548.119312300601, 6939.836673717103, 0.032, 0.934, 0.428, 192.0, 1.0, 0.0, 29.0, 48.0, 13.0, 96.0, 0.0, 0.0, 0.0, 1.654609091779142E9, 0.0, 2022-06-07 15:38:11.779
79.0, 39140.51969534394, 14250.980526325766, -19453.527862254126, -21981.711325849454, -5986.445365720435, -6440.722220030096, 15573.712059701928, 6957.762772770259, 0.032, 0.934, 0.428, 192.0, 0.0, 0.0, 0.0, 0.0, 0.0, 0.0, 0.0, 0.0, 0.0, 1.654609091779145E9, 0.0, 2022-06-07 15:38:11.779
80.0, 39215.19687356912, 14262.089343320054, -19446.777635428625, -21963.069970973727, -5959.399754929514, -6393.805908418407, 15594.275664600811, 6966.368194385553, 0.032, 0.934, 0.428, 192.0, 0.0, 0.0, 0.0, 0.0, 0.0, 0.0, 0.0, 0.0, 0.0, 1.654609091779149E9, 0.0, 2022-06-07 15:38:11.779
81.0, 39151.5391053604, 14236.876575574468, -19489.022432449154, -21959.136063949594, -5987.831173876664, -6344.654422361186, 15585.826705196705, 6956.041688447201, 0.032, 0.934, 0.428, 192.0, 0.0, 0.0, 0.0, 0.0, 0.0, 0.0, 0.0, 0.0, 0.0, 1.654609091779152E9, 0.0, 2022-06-07 15:38:11.779
82.0, 39034.795944070334, 14197.313987888574, -19528.652075368416, -21989.377974197625, -6037.407343078536, -6359.853608590795, 15554.46720772591, 6935.053400403667, 0.032, 0.934, 0.428, 192.0, 0.0, 0.0, 0.0, 0.0, 0.0, 0.0, 0.0, 0.0, 0.0, 1.654609091779155E9, 0.0, 2022-06-07 15:38:11.779
83.0, 39014.27704266036, 14200.309121645585, -19520.42663340886, -22006.521762194847, -6037.407343078536, -6424.27133611099, 15543.716018642906, 6932.684115491405, 0.032, 0.934, 0.428, 192.0, 0.0, 0.0, 0.0, 0.0, 0.0, 0.0, 0.0, 0.0, 0.0, 1.654609091779159E9, 0.0, 2022-06-07 15:38:11.779
84.0, 39119.7325730005, 14238.86588083099, -19471.856292707478, -21988.01451778585, -5986.065386064695, -6461.0399557399705, 15569.12995208859, 6944.128208652522, 0.032, 0.934, 0.428, 192.0, 0.0, 0.0, 0.0, 0.0, 0.0, 0.0, 0.0, 0.0, 0.0, 1.654609091779162E9, 0.0, 2022-06-07 15:38:11.779
85.0, 39204.3562775083, 14252.187520526353, -19445.905917394866, -21961.415941884035, -5952.157789725994, -6417.945792430138, 15604.691577516984, 6950.610214544561, 0.032, 0.934, 0.428, 192.0, 0.0, 0.0, 0.0, 0.0, 0.0, 0.0, 0.0, 0.0, 0.0, 1.654609091779166E9, 0.0, 2022-06-07 15:38:11.779
86.0, 39141.50317209997, 14214.9048107749, -19497.829019764547, -21980.59373862669, -5993.530868712767, -6379.545495455921, 15583.882103429092, 6926.604440999561, 0.032, 0.934, 0.428, 192.0, 0.0, 0.0, 0.0, 0.0, 0.0, 0.0, 0.0, 0.0, 0.0, 1.654609091779174E9, 0.0, 2022-06-07 15:38:11.779
87.0, 39028.89508353413, 14186.898074972401, -19532.653037625914, -22010.120393052148, -6034.434561065979, -6398.097443353826, 15545.59356517715, 6911.6734757034155, 0.032, 0.934, 0.428, 192.0, 0.0, 0.0, 0.0, 0.0, 0.0, 0.0, 0.0, 0.0, 0.0, 1.654609091779177E9, 0.0, 2022-06-07 15:38:11.779
88.0, 39014.90289150511, 14194.654130298393, -19514.27990368365, -22020.6480646906, -6032.3111453427255, -6447.338336388867, 15530.997876047835, 6913.036932115189, 0.032, 0.934, 0.428, 192.0, 1.0, 0.0, 29.0, 48.0, 13.0, 96.0, 0.0, 0.0, 0.0, 1.654609091779181E9, 0.0, 2022-06-07 15:38:11.779
89.0, 39125.43226783661, 14246.465473945795, -19468.347068827996, -22005.27006450535, -5989.172278543982, -6471.724089589607, 15548.70045765644, 6923.98928689829, 0.032, 0.934, 0.428, 192.0, 0.0, 0.0, 0.0, 0.0, 0.0, 0.0, 0.0, 0.0, 0.0, 1.654609091779184E9, 0.0, 2022-06-07 15:38:11.779
90.0, 39214.63807995774, 14261.530549708672, -19456.32183031104, -21978.067991503238, -5963.2219032313715, -6433.055571681925, 15566.738315431872, 6928.794911956181, 0.032, 0.934, 0.428, 192.0, 0.0, 0.0, 0.0, 0.0, 0.0, 0.0, 0.0, 0.0, 0.0, 1.654609091779188E9, 0.0, 2022-06-07 15:38:11.779
91.0, 39160.97154152054, 14229.746369093225, -19497.24787440871, -21975.16226472405, -5994.916676868997, -6379.858419878295, 15559.60810895063, 6921.195318841376, 0.032, 0.934, 0.428, 192.0, 0.0, 0.0, 0.0, 0.0, 0.0, 0.0, 0.0, 0.0, 0.0, 1.654609091779191E9, 0.0, 2022-06-07 15:38:11.779
92.0, 39042.93197905207, 14202.499592602206, -19531.937781803346, -22006.566465683754, -6042.011802436328, -6398.164498587192, 15544.945364587948, 6912.344028037075, 0.032, 0.934, 0.428, 192.0, 0.0, 0.0, 0.0, 0.0, 0.0, 0.0, 0.0, 0.0, 0.0, 1.654609091839282E9, 0.0, 2022-06-07 15:38:11.839
93.0, 39021.20608344151, 14209.33922640553, -19515.889229284436, -22014.657797176576, -6046.415096094024, -6444.6114235653195, 15573.354431790644, 6916.948487394869, 0.032, 0.934, 0.428, 192.0, 0.0, 0.0, 0.0, 0.0, 0.0, 0.0, 0.0, 0.0, 0.0, 1.654609091839291E9, 0.0, 2022-06-07 15:38:11.839
94.0, 39127.48862832649, 14249.81823561409, -19467.60946126097, -21987.947462552485, -5995.944857113941, -6460.9281970176935, 15590.2299988544, 6942.250662118276, 0.032, 0.934, 0.428, 192.0, 0.0, 0.0, 0.0, 0.0, 0.0, 0.0, 0.0, 0.0, 0.0, 1.654609091839294E9, 0.0, 2022-06-07 15:38:11.839
95.0, 39216.783847425446, 14272.169980069397, -19443.84955690498, -21951.335305134693, -5959.019775273773, -6409.519184770487, 15577.020117881313, 6959.349746626586, 0.032, 0.934, 0.428, 192.0, 0.0, 0.0, 0.0, 0.0, 0.0, 0.0, 0.0, 0.0, 0.0, 1.654609091839299E9, 0.0, 2022-06-07 15:38:11.839
96.0, 39153.34959666128, 14234.663752873392, -19485.75907775868, -21955.604488325655, -5997.889458881553, -6363.005204558994, 15562.580890963185, 6942.4294760739185, 0.032, 0.934, 0.428, 192.0, 0.0, 0.0, 0.0, 0.0, 0.0, 0.0, 0.0, 0.0, 0.0, 1.654609091839302E9, 0.0, 2022-06-07 15:38:11.839
97.0, 39030.951444024024, 14200.934970490334, -19530.753139347213, -21987.142799752095, -6048.650270539555, -6376.058623320892, 15543.090169798157, 6933.242909102787, 0.032, 0.934, 0.428, 192.0, 0.0, 0.0, 0.0, 0.0, 0.0, 0.0, 0.0, 0.0, 0.0, 1.654609091839306E9, 0.0, 2022-06-07 15:38:11.839
98.0, 39023.17303695357, 14214.278961930153, -19516.78329906265, -22001.96200632596, -6044.828122237697, -6425.433626822666, 15545.213585521411, 6940.283708606209, 0.034, 0.93, 0.428, 192.0, 1.0, 16.0, 29.0, 16.0, 13.0, 96.0, 0.0, 0.0, 0.0, 1.65460909183931E9, 0.0, 2022-06-07 15:38:11.839
99.0, 39147.98517799201, 14262.446971231338, -19468.23531010572, -21986.49459916289, -5996.7942234032425, -6452.814513780417, 15565.620728209107, 6950.453752333374, 0.034, 0.93, 0.428, 192.0, 0.0, 0.0, 0.0, 0.0, 0.0, 0.0, 0.0, 0.0, 0.0, 1.654609091839314E9, 0.0, 2022-06-07 15:38:11.839
100.0, 39235.089926134344, 14287.68209072138, -19443.60368771597, -21949.793034767277, -5961.545522397223, -6397.561001486898, 15597.874295458114, 6964.423592617941, 0.034, 0.93, 0.428, 192.0, 0.0, 0.0, 0.0, 0.0, 0.0, 0.0, 0.0, 0.0, 0.0, 1.654609091839318E9, 0.0, 2022-06-07 15:38:11.839
101.0, 39162.78203282142, 14249.997049569733, -19479.9476242003, -21943.5792498087, -5982.3549964851145, -6330.72928556553, 15600.936484448492, 6961.808438516669, 0.034, 0.93, 0.428, 192.0, 0.0, 0.0, 0.0, 0.0, 0.0, 0.0, 0.0, 0.0, 0.0, 1.654609091839323E9, 0.0, 2022-06-07 15:38:11.839
102.0, 39039.288644705855, 14213.295485174118, -19518.37027291897, -21978.15739848106, -6025.158587117027, -6338.462989147066, 15585.55848426324, 6954.834694246614, 0.034, 0.93, 0.428, 192.0, 0.0, 0.0, 0.0, 0.0, 0.0, 0.0, 0.0, 0.0, 0.0, 1.654609091839327E9, 0.0, 2022-06-07 15:38:11.839
103.0, 39033.29837719183, 14233.032075528155, -19501.38294713294, -21990.49556142039, -6025.5609185172225, -6389.626132205264, 15573.108562601634, 6956.511075080762, 0.034, 0.93, 0.428, 192.0, 0.0, 0.0, 0.0, 0.0, 0.0, 0.0, 0.0, 0.0, 0.0, 1.654609091839331E9, 0.0, 2022-06-07 15:38:11.839
104.0, 39144.05127096787, 14278.808448172624, -19449.95158314128, -21953.190499924483, -5977.012929560296, -6414.257754595013, 15590.140591876578, 6972.157296199477, 0.034, 0.93, 0.428, 192.0, 0.0, 0.0, 0.0, 0.0, 0.0, 0.0, 0.0, 0.0, 0.0, 1.654609091839335E9, 0.0, 2022-06-07 15:38:11.839
105.0, 39241.34841458183, 14301.271951350207, -19427.33161775251, -21913.493801771856, -5936.377458140548, -6357.439620189622, 15622.28240040331, 6990.821002819658, 0.034, 0.93, 0.428, 192.0, 0.0, 0.0, 0.0, 0.0, 0.0, 0.0, 0.0, 0.0, 0.0, 1.654609091839338E9, 0.0, 2022-06-07 15:38:11.839
106.0, 39187.32424823335, 14278.16024758342, -19473.13034214143, -21918.14296461856, -5967.178161999961, -6310.590363811299, 15615.688635788994, 6981.2321044483315, 0.034, 0.93, 0.428, 192.0, 0.0, 0.0, 0.0, 0.0, 0.0, 0.0, 0.0, 0.0, 0.0, 1.654609091839343E9, 0.0, 2022-06-07 15:38:11.839
107.0, 39063.607342673226, 14248.968869324788, -19513.072909483064, -21950.10595918965, -6019.414188792013, -6331.466893132555, 15592.062841899735, 6964.781220529226, 0.034, 0.93, 0.428, 192.0, 0.0, 0.0, 0.0, 0.0, 0.0, 0.0, 0.0, 0.0, 0.0, 1.654609091899587E9, 0.0, 2022-06-07 15:38:11.899
108.0, 39031.82316205778, 14259.653003174426, -19507.306159413598, -21972.547110622778, -6031.707648242432, -6398.991513132038, 15569.733449188883, 6951.303118622675, 0.036000000000000004, 0.922, 0.432, 192.0, 1.0, 32.0, 28.0, 208.0, 13.0, 128.0, 0.0, 0.0, 0.0, 1.654609091899594E9, 0.0, 2022-06-07 15:38:11.899
109.0, 39145.66059656866, 14297.82978270409, -19466.20130136029, -21960.208947683448, -5987.451194220924, -6439.492874085054, 15575.813123680726, 6957.695717536893, 0.036000000000000004, 0.922, 0.432, 192.0, 0.0, 0.0, 0.0, 0.0, 0.0, 0.0, 0.0, 0.0, 0.0, 1.654609091899597E9, 0.0, 2022-06-07 15:38:11.899
110.0, 39239.649682003226, 14306.993997930766, -19448.118740095942, -21929.274133357303, -5949.587339113634, -6399.617361976786, 15605.831516484204, 6971.620854332549, 0.036000000000000004, 0.922, 0.432, 192.0, 0.0, 0.0, 0.0, 0.0, 0.0, 0.0, 0.0, 0.0, 0.0, 1.6546090918996E9, 0.0, 2022-06-07 15:38:11.899
111.0, 39198.14249254972, 14290.409003544928, -19471.364554329462, -21934.705607259944, -5983.405528474514, -6347.984832285027, 15607.664359529539, 6961.651976305482, 0.036000000000000004, 0.922, 0.432, 192.0, 0.0, 0.0, 0.0, 0.0, 0.0, 0.0, 0.0, 0.0, 0.0, 1.654609091899603E9, 0.0, 2022-06-07 15:38:11.899
112.0, 39076.750168412946, 14266.649099188937, -19513.43053739435, -21953.078741202207, -6037.407343078536, -6358.601910901298, 15576.84130392567, 6946.810417987159, 0.036000000000000004, 0.922, 0.432, 192.0, 0.0, 0.0, 0.0, 0.0, 0.0, 0.0, 0.0, 0.0, 0.0, 1.654609091899606E9, 0.0, 2022-06-07 15:38:11.899
113.0, 39057.14768852564, 14279.791924928657, -19490.944682472313, -21956.520909848325, -6033.987526176873, -6402.7019027116185, 15565.285452042277, 6957.159275669966, 0.036000000000000004, 0.922, 0.432, 192.0, 0.0, 0.0, 0.0, 0.0, 0.0, 0.0, 0.0, 0.0, 0.0, 1.654609091899609E9, 0.0, 2022-06-07 15:38:11.899
114.0, 39162.111480487765, 14309.475041565305, -19445.637696461403, -21944.540374820277, -5989.887534366552, -6433.524958315487, 15579.523513260308, 6966.94933974139, 0.036000000000000004, 0.922, 0.432, 192.0, 0.0, 0.0, 0.0, 0.0, 0.0, 0.0, 0.0, 0.0, 0.0, 1.654609091899612E9, 0.0, 2022-06-07 15:38:11.899
115.0, 39263.23077240357, 14325.769463273224, -19431.086710821, -21916.645397740056, -5959.690327607433, -6399.684417210152, 15596.533190790797, 6970.503267109784, 0.036000000000000004, 0.922, 0.432, 192.0, 0.0, 0.0, 0.0, 0.0, 0.0, 0.0, 0.0, 0.0, 0.0, 1.654609091899615E9, 0.0, 2022-06-07 15:38:11.899
116.0, 39220.00249862701, 14307.061053164132, -19467.05066764959, -21913.225580838392, -5979.85160110612, -6340.541701381409, 15594.275664600811, 6966.278787407731, 0.036000000000000004, 0.922, 0.432, 192.0, 0.0, 0.0, 0.0, 0.0, 0.0, 0.0, 0.0, 0.0, 0.0, 1.654609091899618E9, 0.0, 2022-06-07 15:38:11.899
117.0, 39086.92021214011, 14264.97271835479, -19515.218676950775, -21947.20023241046, -6032.646421509555, -6346.509617150977, 15564.79371366426, 6949.984365699812, 0.04, 0.926, 0.438, 192.0, 1.0, 64.0, 28.0, 240.0, 13.0, 176.0, 0.0, 0.0, 0.0, 1.654609091899621E9, 0.0, 2022-06-07 15:38:11.899
118.0, 39044.16132499711, 14259.183616540864, -19512.71528157178, -21966.48978787539, -6043.062334425728, -6401.159632344203, 15548.722809400895, 6946.877473220525, 0.04, 0.926, 0.438, 192.0, 0.0, 0.0, 0.0, 0.0, 0.0, 0.0, 0.0, 0.0, 0.0, 1.654609091899624E9, 0.0, 2022-06-07 15:38:11.899
119.0, 39141.056137210864, 14293.135916368476, -19467.542406027605, -21956.16328193704, -5998.045921092739, -6431.692115270152, 15567.833550910182, 6957.718069281348, 0.04, 0.926, 0.438, 192.0, 0.0, 0.0, 0.0, 0.0, 0.0, 0.0, 0.0, 0.0, 0.0, 1.654609091899627E9, 0.0, 2022-06-07 15:38:11.899
120.0, 39236.78865871295, 14314.459480578838, -19446.352952283974, -21913.24793258285, -5958.237464217837, -6380.148992556214, 15595.907341946047, 6975.487706123317, 0.04, 0.926, 0.438, 192.0, 0.0, 0.0, 0.0, 0.0, 0.0, 0.0, 0.0, 0.0, 0.0, 1.65460909189963E9, 0.0, 2022-06-07 15:38:11.899
121.0, 39184.30676273188, 14284.642253475458, -19495.32562438555, -21920.266380341815, -5987.317083754192, -6324.984887240516, 15585.156152863045, 6967.575188586139, 0.04, 0.926, 0.438, 192.0, 0.0, 0.0, 0.0, 0.0, 0.0, 0.0, 0.0, 0.0, 0.0, 1.654609091899633E9, 0.0, 2022-06-07 15:38:11.899
122.0, 39054.510182679915, 14250.175863525375, -19524.360540432997, -21957.14675869307, -6034.993354677362, -6334.193805956103, 15566.492446242864, 6953.918272723946, 0.04, 0.926, 0.438, 192.0, 0.0, 0.0, 0.0, 0.0, 0.0, 0.0, 0.0, 0.0, 0.0, 1.654609091959916E9, 0.0, 2022-06-07 15:38:11.959
123.0, 39027.598682355725, 14253.461569960305, -19511.552990860106, -21968.210872198448, -6039.419000079513, -6382.652387935208, 15560.435123495476, 6956.309909380664, 0.04, 0.926, 0.438, 192.0, 0.0, 0.0, 0.0, 0.0, 0.0, 0.0, 0.0, 0.0, 0.0, 1.654609091959922E9, 0.0, 2022-06-07 15:38:11.959
124.0, 39137.41280286465, 14284.77636394219, -19471.230443862732, -21958.77843603831, -6003.142118828549, -6421.075036653881, 15572.929748645993, 6965.272958907242, 0.04, 0.926, 0.438, 192.0, 0.0, 0.0, 0.0, 0.0, 0.0, 0.0, 0.0, 0.0, 0.0, 1.654609091959924E9, 0.0, 2022-06-07 15:38:11.959
125.0, 39245.84111521734, 14312.201954388853, -19442.597859215482, -21924.647322255056, -5956.583435128145, -6375.209257031591, 15600.578856537208, 6980.986235259323, 0.04, 0.926, 0.438, 192.0, 0.0, 0.0, 0.0, 0.0, 0.0, 0.0, 0.0, 0.0, 0.0, 1.654609091959926E9, 0.0, 2022-06-07 15:38:11.959
126.0, 39194.7003239036, 14277.087363849565, -19486.96607195927, -21938.036017183786, -5980.455098206413, -6327.86826227525, 15585.223208096411, 6958.4556768483735, 0.04, 0.926, 0.438, 192.0, 0.0, 0.0, 0.0, 0.0, 0.0, 0.0, 0.0, 0.0, 0.0, 1.654609091959929E9, 0.0, 2022-06-07 15:38:11.959
127.0, 39067.69771190855, 14248.477130946772, -19528.987351535245, -21972.59181411169, -6031.417075564513, -6347.090762506815, 15554.98129784838, 6939.1437696389885, 0.038, 0.924, 0.44, 192.0, 1.0, 48.0, 28.0, 224.0, 13.0, 192.0, 0.0, 0.0, 0.0, 1.654609091959931E9, 0.0, 2022-06-07 15:38:11.959
128.0, 39027.08459223325, 14244.789093111647, -19517.230333951753, -21988.796828841787, -6039.91073845753, -6408.1557283587135, 15579.054126626746, 6938.339106838597, 0.038, 0.924, 0.44, 192.0, 0.0, 0.0, 0.0, 0.0, 0.0, 0.0, 0.0, 0.0, 0.0, 1.654609091959945E9, 0.0, 2022-06-07 15:38:11.959
129.0, 39131.26607313944, 14284.083459864076, -19460.881586179923, -21964.656944830054, -5988.8146506326975, -6438.330583373378, 15573.488542257375, 6957.449848347885, 0.038, 0.924, 0.44, 192.0, 0.0, 0.0, 0.0, 0.0, 0.0, 0.0, 0.0, 0.0, 0.0, 1.654609091959947E9, 0.0, 2022-06-07 15:38:11.959
130.0, 39227.60209174181, 14298.142707126464, -19448.56577498505, -21940.807633496242, -5961.254949719304, -6406.702864969118, 15575.611957980629, 6957.2263309033315, 0.038, 0.924, 0.44, 192.0, 0.0, 0.0, 0.0, 0.0, 0.0, 0.0, 0.0, 0.0, 0.0, 1.654609091959949E9, 0.0, 2022-06-07 15:38:11.959
131.0, 39184.70909413208, 14268.72781142328, -19491.637586550427, -21942.305200374747, -5989.395795988536, -6356.165570755669, 15571.789809678772, 6945.0893336641, 0.038, 0.924, 0.44, 192.0, 0.0, 0.0, 0.0, 0.0, 0.0, 0.0, 0.0, 0.0, 0.0, 1.654609091959952E9, 0.0, 2022-06-07 15:38:11.959
132.0, 39058.511144937416, 14241.861014588001, -19531.691912614337, -21966.221566941927, -6036.423866322501, -6364.301605737402, 15546.062951810713, 6928.973725911824, 0.038, 0.924, 0.44, 192.0, 0.0, 0.0, 0.0, 0.0, 0.0, 0.0, 0.0, 0.0, 0.0, 1.654609091959954E9, 0.0, 2022-06-07 15:38:11.959
133.0, 39027.9116067781, 14244.118540777987, -19530.373159691473, -21984.326479950727, -6051.265424640826, -6422.46084481011, 15528.494480668842, 6921.061208374645, 0.038, 0.924, 0.44, 192.0, 0.0, 0.0, 0.0, 0.0, 0.0, 0.0, 0.0, 0.0, 0.0, 1.654609091959957E9, 0.0, 2022-06-07 15:38:11.959
134.0, 39129.20971264955, 14285.871599420501, -19481.601653289992, -21973.374125167626, -6006.070197352195, -6452.1216097023025, 15548.275774511789, 6937.176816126921, 0.038, 0.924, 0.44, 192.0, 0.0, 0.0, 0.0, 0.0, 0.0, 0.0, 0.0, 0.0, 0.0, 1.654609091959959E9, 0.0, 2022-06-07 15:38:11.959
135.0, 39224.83047542936, 14300.221419360807, -19446.777635428625, -21928.022435667808, -5963.199551486916, -6404.914725412694, 15590.095888387668, 6957.919234981446, 0.038, 0.924, 0.44, 192.0, 0.0, 0.0, 0.0, 0.0, 0.0, 0.0, 0.0, 0.0, 0.0, 1.654609091959961E9, 0.0, 2022-06-07 15:38:11.959
136.0, 39183.25623074248, 14271.54413122465, -19485.222635891754, -21920.15462161954, -5983.6513976635215, -6343.670945605153, 15595.728527990404, 6956.354612869574, 0.038, 0.924, 0.44, 192.0, 0.0, 0.0, 0.0, 0.0, 0.0, 0.0, 0.0, 0.0, 0.0, 1.654609091959964E9, 0.0, 2022-06-07 15:38:11.959
137.0, 39069.41879623161, 14247.270136746185, -19523.041787510134, -21952.028209212807, -6033.048752909751, -6350.309413708379, 15559.116370572612, 6945.692830764393, 0.032, 0.922, 0.444, 192.0, 1.0, 0.0, 28.0, 208.0, 13.0, 224.0, 0.0, 0.0, 0.0, 1.654609092018786E9, 0.0, 2022-06-07 15:38:12.018
138.0, 39024.91647302109, 14254.400343227428, -19515.643360095426, -21968.68025883201, -6039.6425175240665, -6403.998303890026, 15549.527472201285, 6943.859987719058, 0.032, 0.922, 0.444, 192.0, 0.0, 0.0, 0.0, 0.0, 0.0, 0.0, 0.0, 0.0, 0.0, 1.654609092018793E9, 0.0, 2022-06-07 15:38:12.018
139.0, 39129.8355614943, 14294.477021035795, -19464.65903099287, -21950.731808034398, -5994.603752446622, -6431.692115270152, 15578.294167315265, 6962.23312166132, 0.032, 0.922, 0.444, 192.0, 0.0, 0.0, 0.0, 0.0, 0.0, 0.0, 0.0, 0.0, 0.0, 1.654609092018797E9, 0.0, 2022-06-07 15:38:12.018
140.0, 39231.20072259912, 14307.821012475611, -19437.076978335022, -21916.511287273323, -5952.984804270841, -6384.239361791535, 15607.127917662612, 6981.299159681697, 0.032, 0.922, 0.444, 192.0, 0.0, 0.0, 0.0, 0.0, 0.0, 0.0, 0.0, 0.0, 0.0, 1.6546090920188E9, 0.0, 2022-06-07 15:38:12.018
141.0, 39189.89469884571, 14285.893951164957, -19470.13520838442, -21915.19253435046, -5972.855505091608, -6325.118997707248, 15599.349510592165, 6973.654863077983, 0.032, 0.922, 0.444, 192.0, 0.0, 0.0, 0.0, 0.0, 0.0, 0.0, 0.0, 0.0, 0.0, 1.654609092018804E9, 0.0, 2022-06-07 15:38:12.018
142.0, 39073.84444163376, 14255.786151383658, -19510.748328059715, -21941.29937187426, -6019.257726580826, -6325.118997707248, 15576.349565547654, 6956.980461714324, 0.032, 0.922, 0.444, 192.0, 0.0, 0.0, 0.0, 0.0, 0.0, 0.0, 0.0, 0.0, 0.0, 1.654609092018807E9, 0.0, 2022-06-07 15:38:12.018
143.0, 39037.41109817161, 14248.052447802122, -19509.787203048134, -21966.176863453016, -6032.6240697651, -6388.240324049035, 15558.132893816579, 6945.826941231125, 0.032, 0.922, 0.444, 192.0, 0.0, 0.0, 0.0, 0.0, 0.0, 0.0, 0.0, 0.0, 0.0, 1.654609092018811E9, 0.0, 2022-06-07 15:38:12.018
144.0, 39141.54787558888, 14280.708346451325, -19467.408295560872, -21953.570479580223, -5989.194630288438, -6420.784463975962, 15569.420524766509, 6962.18841817241, 0.032, 0.922, 0.444, 192.0, 0.0, 0.0, 0.0, 0.0, 0.0, 0.0, 0.0, 0.0, 0.0, 1.654609092018814E9, 0.0, 2022-06-07 15:38:12.018
145.0, 39235.29109183444, 14302.523649039704, -19441.860251648457, -21913.516153516313, -5947.978013512852, -6366.693242394119, 15600.71296700394, 6984.942494027912, 0.032, 0.922, 0.444, 192.0, 0.0, 0.0, 0.0, 0.0, 0.0, 0.0, 0.0, 0.0, 0.0, 1.654609092018818E9, 0.0, 2022-06-07 15:38:12.018
146.0, 39183.85972784278, 14279.523703995194, -19468.391772316907, -21902.563798733212, -5966.261740477293, -6308.9586864660605, 15605.451536828465, 6981.81324980417, 0.032, 0.922, 0.444, 192.0, 0.0, 0.0, 0.0, 0.0, 0.0, 0.0, 0.0, 0.0, 0.0, 1.654609092018821E9, 0.0, 2022-06-07 15:38:12.018
147.0, 39055.62776990268, 14240.63166864296, -19521.164240975886, -21943.95922946444, -6023.19163360496, -6327.041247730404, 15573.399135279553, 6957.606310559072, 0.032, 0.924, 0.446, 192.0, 1.0, 0.0, 28.0, 224.0, 13.0, 240.0, 0.0, 0.0, 0.0, 1.654609092018825E9, 0.0, 2022-06-07 15:38:12.018
148.0, 39015.372278138675, 14241.324572721074, -19514.458717639296, -21964.16520645204, -6034.6580785105325, -6383.077071079859, 15558.445818238954, 6954.141790168499, 0.032, 0.924, 0.446, 192.0, 0.0, 0.0, 0.0, 0.0, 0.0, 0.0, 0.0, 0.0, 0.0, 1.654609092018829E9, 0.0, 2022-06-07 15:38:12.018
149.0, 39111.618889763224, 14275.522741737694, -19467.944737427802, -21953.30225864676, -5992.502688467824, -6424.025466921981, 15571.432181767486, 6961.719031538848, 0.032, 0.924, 0.446, 192.0, 0.0, 0.0, 0.0, 0.0, 0.0, 0.0, 0.0, 0.0, 0.0, 1.654609092018832E9, 0.0, 2022-06-07 15:38:12.018
150.0, 39211.30767003389, 14291.571294256604, -19450.689190708305, -21928.44711881246, -5956.494028150324, -6393.604742718308, 15589.80531570975, 6964.334185640119, 0.032, 0.924, 0.446, 192.0, 0.0, 0.0, 0.0, 0.0, 0.0, 0.0, 0.0, 0.0, 0.0, 1.654609092018843E9, 0.0, 2022-06-07 15:38:12.018
151.0, 39182.36216096427, 14272.035869602665, -19481.221673634253, -21928.916505446017, -5973.749574869821, -6341.100494992793, 15586.676071486007, 6954.208845401865, 0.032, 0.924, 0.446, 192.0, 0.0, 0.0, 0.0, 0.0, 0.0, 0.0, 0.0, 0.0, 0.0, 1.654609092018846E9, 0.0, 2022-06-07 15:38:12.018
152.0, 39059.628732160185, 14232.38387493895, -19527.62389512347, -21964.29931691877, -6029.405418563535, -6351.695221864608, 15560.189254306468, 6935.701600992871, 0.032, 0.924, 0.446, 192.0, 0.0, 0.0, 0.0, 0.0, 0.0, 0.0, 0.0, 0.0, 0.0, 1.654609092079164E9, 0.0, 2022-06-07 15:38:12.079
153.0, 39023.66477533159, 14235.982505796255, -19523.846450310524, -21984.326479950727, -6046.169226905015, -6413.251926094524, 15539.893870341048, 6929.3984090564745, 0.032, 0.924, 0.446, 192.0, 0.0, 0.0, 0.0, 0.0, 0.0, 0.0, 0.0, 0.0, 0.0, 1.654609092079171E9, 0.0, 2022-06-07 15:38:12.079
