%OpenBCI Raw EEG Data
%Number of channels = 8
%Sample Rate = 250 Hz
%Board = OpenBCI_GUI$BoardCytonSerial
Sample Index, EXG Channel 0, EXG Channel 1, EXG Channel 2, EXG Channel 3, EXG Channel 4, EXG Channel 5, EXG Channel 6, EXG Channel 7, Accel Channel 0, Accel Channel 1, Accel Channel 2, Other, Other, Other, Other, Other, Other, Other, Analog Channel 0, Analog Channel 1, Analog Channel 2, Timestamp, Other, Timestamp (Formatted)
0.0, 0.0, 0.0, 0.0, 0.0, 0.0, 0.0, 0.0, 0.0, 0.0, 0.0, 0.0, 192.0, 0.0, 0.0, 0.0, 0.0, 0.0, 0.0, 0.0, 0.0, 0.0, 1.654155331159426E9, 0.0, 2022-06-02 09:35:31.159
1.0, 24394.1574566552, -7281.103108060731, -62646.39647560078, -28889.60735673992, -13911.010493160546, -38030.129734293194, -7714.056398160029, -29324.460545117923, 0.0, 0.0, 0.0, 192.0, 0.0, 0.0, 28.0, 0.0, 16.0, 32.0, 0.0, 0.0, 0.0, 1.6541553316434605E9, 0.0, 2022-06-02 09:35:31.643
2.0, 24400.415945102686, -7275.53752369136, -62641.81436798744, -28886.031077627074, -13903.567362256928, -38028.453353459045, -7707.2167643567045, -29331.009606243326, 0.0, 0.0, 0.0, 192.0, 0.0, 0.0, 0.0, 0.0, 0.0, 0.0, 0.0, 0.0, 0.0, 1.6541553316434705E9, 0.0, 2022-06-02 09:35:31.643
3.0, 24409.758974285007, -7275.649282413636, -62649.481016335616, -28882.298336303036, -13903.969693657124, -38032.6778331611, -7704.914534677808, -29312.010623456317, 0.0, 0.0, 0.0, 192.0, 0.0, 0.0, 0.0, 0.0, 0.0, 0.0, 0.0, 0.0, 0.0, 1.654155331643476E9, 0.0, 2022-06-02 09:35:31.643
4.0, 24398.963081713093, -7291.4519657435385, -62673.8444177919, -28900.179731867283, -13914.385606573298, -38046.60296995675, -7716.7833109835765, -29316.391565369555, 0.0, 0.0, 0.0, 192.0, 0.0, 0.0, 0.0, 0.0, 0.0, 0.0, 0.0, 0.0, 0.0, 1.6541553316434815E9, 0.0, 2022-06-02 09:35:31.643
5.0, 24394.179808399655, -7295.028244856388, -62674.716135825656, -28900.29149058956, -13918.632438019806, -38042.646711188165, -7719.6219825294, -29331.546048110253, 0.0, 0.0, 0.0, 192.0, 0.0, 0.0, 0.0, 0.0, 0.0, 0.0, 0.0, 0.0, 0.0, 1.6541553316434867E9, 0.0, 2022-06-02 09:35:31.643
6.0, 24395.319747366877, -7283.20417203953, -62656.96885072814, -28885.159359593315, -13912.955094928158, -38029.95092033755, -7703.23815384366, -29306.579149553676, 0.0, 0.0, 0.0, 192.0, 0.0, 0.0, 0.0, 0.0, 0.0, 0.0, 0.0, 0.0, 0.0, 1.654155331643492E9, 0.0, 2022-06-02 09:35:31.643
7.0, 24411.614169074797, -7259.556026405815, -62634.14771963927, -28861.555917448513, -13887.295292293466, -38009.90140556114, -7683.14393557834, -29288.250719100324, 0.0, 0.0, 0.0, 192.0, 0.0, 0.0, 0.0, 0.0, 0.0, 0.0, 0.0, 0.0, 0.0, 1.6541553316434972E9, 0.0, 2022-06-02 09:35:31.643
8.0, 24412.038852219448, -7265.523942175382, -62646.597641300876, -28872.664734442802, -13890.64805396176, -38021.390202211165, -7696.0632438735065, -29312.3682513676, 0.012, 0.884, 0.514, 192.0, 0.0, 96.0, 27.0, 160.0, 16.0, 16.0, 0.0, 0.0, 0.0, 1.6541553316435025E9, 0.0, 2022-06-02 09:35:31.643
9.0, 24408.12729693977, -7277.236256269963, -62668.81527528945, -28888.713286961713, -13904.148507612766, -38039.092783819775, -7715.643372016356, -29334.965865011916, 0.012, 0.884, 0.514, 192.0, 0.0, 0.0, 0.0, 0.0, 0.0, 0.0, 0.0, 0.0, 0.0, 1.6541553316435091E9, 0.0, 2022-06-02 09:35:31.643
10.0, 24393.218683388077, -7293.664788444614, -62688.21658947666, -28907.064069159518, -13923.505118311063, -38058.85172591826, -7722.795930242054, -29350.165051241525, 0.012, 0.884, 0.514, 192.0, 0.0, 0.0, 0.0, 0.0, 0.0, 0.0, 0.0, 0.0, 0.0, 1.6541553316435146E9, 0.0, 2022-06-02 09:35:31.643
11.0, 24396.057354933902, -7281.125459805186, -62673.30797592497, -28894.90472017583, -13912.329246083409, -38045.15010656716, -7713.944639437752, -29300.208902383914, 0.012, 0.884, 0.514, 192.0, 0.0, 0.0, 0.0, 0.0, 0.0, 0.0, 0.0, 0.0, 0.0, 1.65415533164352E9, 0.0, 2022-06-02 09:35:31.643
12.0, 24404.103982937813, -7266.127439275675, -62655.51598733855, -28878.990278123652, -13896.995949387068, -38032.63312967219, -7702.0535113875285, -29291.69288774644, 0.012, 0.884, 0.514, 192.0, 0.0, 0.0, 0.0, 0.0, 0.0, 0.0, 0.0, 0.0, 0.0, 1.6541553316435251E9, 0.0, 2022-06-02 09:35:31.643
13.0, 24412.82116327538, -7267.334433476261, -62663.87553976483, -28884.064124115008, -13901.511001767041, -38034.42126922861, -7705.473328289191, -29309.37311761059, 0.012, 0.884, 0.514, 192.0, 0.0, 0.0, 0.0, 0.0, 0.0, 0.0, 0.0, 0.0, 0.0, 1.6541553316435316E9, 0.0, 2022-06-02 09:35:31.643
14.0, 24418.744375556038, -7272.721203889991, -62669.68699332321, -28890.25555732913, -13907.635379747795, -38041.596179198765, -7718.213822628716, -29305.640376286552, 0.012, 0.884, 0.514, 192.0, 0.0, 0.0, 0.0, 0.0, 0.0, 0.0, 0.0, 0.0, 0.0, 1.654155331643538E9, 0.0, 2022-06-02 09:35:31.643
15.0, 24402.517009081486, -7288.322721519795, -62682.85217080739, -28901.453781301236, -13924.510946811552, -38056.6836067061, -7725.455787832236, -29331.121364965602, 0.012, 0.884, 0.514, 192.0, 0.0, 0.0, 0.0, 0.0, 0.0, 0.0, 0.0, 0.0, 0.0, 1.6541553316435432E9, 0.0, 2022-06-02 09:35:31.643
16.0, 24403.053450948413, -7277.079794058775, -62667.138894455304, -28888.780342195078, -13915.771414729526, -38039.00337684195, -7700.6677032313, -29331.791917299262, 0.012, 0.884, 0.514, 192.0, 0.0, 0.0, 0.0, 0.0, 0.0, 0.0, 0.0, 0.0, 0.0, 1.65415533164355E9, 0.0, 2022-06-02 09:35:31.643
17.0, 24404.483962593553, -7269.033166054865, -62660.858054263364, -28877.135083333862, -13902.047443633968, -38031.537894193876, -7701.181793353772, -29303.673422774486, 0.012, 0.884, 0.514, 192.0, 0.0, 0.0, 0.0, 0.0, 0.0, 0.0, 0.0, 0.0, 0.0, 1.6541553316435564E9, 0.0, 2022-06-02 09:35:31.643
18.0, 24398.538398568442, -7279.940817349055, -62674.47026663664, -28892.446028285747, -13912.932743183703, -38048.54757172437, -7719.1302441513835, -29318.112649692615, 0.014, 0.876, 0.514, 192.0, 0.0, 112.0, 27.0, 96.0, 16.0, 16.0, 0.0, 0.0, 0.0, 1.6541553316435616E9, 0.0, 2022-06-02 09:35:31.643
19.0, 24404.729831782563, -7282.712433661513, -62680.862865550866, -28899.777400467086, -13918.94536244218, -38055.945999139076, -7719.353761595937, -29328.148582953047, 0.014, 0.876, 0.514, 192.0, 0.0, 0.0, 0.0, 0.0, 0.0, 0.0, 0.0, 0.0, 0.0, 1.6541553316435668E9, 0.0, 2022-06-02 09:35:31.643
20.0, 24402.561712570398, -7286.825154641289, -62680.66169985077, -28905.410040069826, -13925.025036934023, -38059.00818812945, -7731.557814068534, -29326.829830030183, 0.014, 0.876, 0.514, 192.0, 0.0, 0.0, 0.0, 0.0, 0.0, 0.0, 0.0, 0.0, 0.0, 1.6541553316435723E9, 0.0, 2022-06-02 09:35:31.643
21.0, 24399.63363404675, -7285.260532529418, -62673.710307325164, -28901.409077812325, -13920.867612465336, -38050.425118258616, -7725.008752943129, -29321.219542171904, 0.014, 0.876, 0.514, 192.0, 0.0, 0.0, 0.0, 0.0, 0.0, 0.0, 0.0, 0.0, 0.0, 1.6541553316435778E9, 0.0, 2022-06-02 09:35:31.643
22.0, 24408.55198008442, -7273.972901579488, -62665.10488570987, -28885.38287703787, -13904.32732156841, -38041.37266175421, -7699.3489503084365, -29306.333280364666, 0.014, 0.876, 0.514, 192.0, 0.0, 0.0, 0.0, 0.0, 0.0, 0.0, 0.0, 0.0, 0.0, 1.6541553316435945E9, 0.0, 2022-06-02 09:35:31.643
23.0, 24413.715233053594, -7273.078831801276, -62652.65496404827, -28885.5169875046, -13902.494478523075, -38042.46789723252, -7686.742566435643, -29297.571396538187, 0.014, 0.876, 0.514, 192.0, 0.0, 0.0, 0.0, 0.0, 0.0, 0.0, 0.0, 0.0, 0.0, 1.6541553316436E9, 0.0, 2022-06-02 09:35:31.643
24.0, 24412.59764583083, -7279.337320248762, -62658.10878969536, -28896.089362631963, -13908.797670459471, -38048.77108916892, -7715.285744105071, -29309.350765866133, 0.014, 0.876, 0.514, 192.0, 0.0, 0.0, 0.0, 0.0, 0.0, 0.0, 0.0, 0.0, 0.0, 1.6541553316436052E9, 0.0, 2022-06-02 09:35:31.643
25.0, 24405.176866671667, -7286.825154641289, -62675.744316070595, -28902.414906312813, -13926.455548579162, -38060.37164454122, -7747.159331698339, -29343.772452327306, 0.014, 0.876, 0.514, 192.0, 0.0, 0.0, 0.0, 0.0, 0.0, 0.0, 0.0, 0.0, 0.0, 1.6541553316436107E9, 0.0, 2022-06-02 09:35:31.643
26.0, 24392.525779309963, -7290.49084073196, -62675.20787420367, -28899.86680744491, -13929.651848036272, -38067.121871366726, -7731.714276279721, -29353.00372278735, 0.014, 0.876, 0.514, 192.0, 0.0, 0.0, 0.0, 0.0, 0.0, 0.0, 0.0, 0.0, 0.0, 1.6541553316436167E9, 0.0, 2022-06-02 09:35:31.643
27.0, 24403.03109920396, -7275.693985902547, -62646.55293781197, -28884.578214237477, -13907.724786725616, -38048.97225486902, -7722.1253779083945, -29323.5217718508, 0.008, 0.888, 0.514, 192.0, 0.0, 64.0, 27.0, 192.0, 16.0, 16.0, 0.0, 0.0, 0.0, 1.654155331643622E9, 0.0, 2022-06-02 09:35:31.643
28.0, 24408.082593450858, -7274.531695190871, -62650.6880105362, -28885.986374138163, -13903.723824468116, -38045.731251922996, -7718.14676739535, -29284.786198709753, 0.008, 0.888, 0.514, 192.0, 0.0, 0.0, 0.0, 0.0, 0.0, 0.0, 0.0, 0.0, 0.0, 1.6541553316436272E9, 0.0, 2022-06-02 09:35:31.643
29.0, 24400.237131147045, -7285.148773807142, -62666.06601072145, -28900.33619407847, -13914.94440018468, -38056.281275305904, -7708.647276001844, -29304.902768719527, 0.008, 0.888, 0.514, 192.0, 0.0, 0.0, 0.0, 0.0, 0.0, 0.0, 0.0, 0.0, 0.0, 1.6541553316436322E9, 0.0, 2022-06-02 09:35:31.643
30.0, 24396.77261075647, -7289.328550020284, -62669.41877238975, -28903.845417957953, -13921.672275265728, -38056.16951658363, -7713.587011526467, -29352.847260576164, 0.008, 0.888, 0.514, 192.0, 0.0, 0.0, 0.0, 0.0, 0.0, 0.0, 0.0, 0.0, 0.0, 1.6541553316436374E9, 0.0, 2022-06-02 09:35:31.643
31.0, 24390.536474053442, -7286.981616852477, -62671.475132879634, -28903.286624346572, -13922.499289810574, -38052.213257815034, -7716.090406905461, -29333.155373711037, 0.008, 0.888, 0.514, 192.0, 0.0, 0.0, 0.0, 0.0, 0.0, 0.0, 0.0, 0.0, 0.0, 1.6541553316436427E9, 0.0, 2022-06-02 09:35:31.643
32.0, 24393.621014788274, -7278.979692337477, -62662.26621416405, -28891.328441062982, -13914.854993206858, -38040.29977802036, -7710.48011904718, -29289.189492367448, 0.008, 0.888, 0.514, 192.0, 0.0, 0.0, 0.0, 0.0, 0.0, 0.0, 0.0, 0.0, 0.0, 1.654155331643648E9, 0.0, 2022-06-02 09:35:31.643
33.0, 24402.561712570398, -7273.570570179292, -62659.673411807235, -28882.968888636697, -13905.489612280086, -38037.50580996345, -7712.804700470531, -29305.394507097546, 0.008, 0.888, 0.514, 192.0, 0.0, 0.0, 0.0, 0.0, 0.0, 0.0, 0.0, 0.0, 0.0, 1.6541553316436532E9, 0.0, 2022-06-02 09:35:31.643
34.0, 24407.389689372743, -7278.331491748273, -62676.90660678227, -28894.860016686922, -13913.960923428647, -38049.9333798806, -7721.343066852459, -29336.48578363488, 0.008, 0.888, 0.514, 192.0, 0.0, 0.0, 0.0, 0.0, 0.0, 0.0, 0.0, 0.0, 0.0, 1.6541553316436584E9, 0.0, 2022-06-02 09:35:31.643
35.0, 24394.98447120005, -7295.944666379055, -62691.971682545154, -28916.78707799758, -13940.447740608186, -38067.457147533554, -7729.613212300923, -29338.363330169122, 0.008, 0.888, 0.514, 192.0, 0.0, 0.0, 0.0, 0.0, 0.0, 0.0, 0.0, 0.0, 0.0, 1.6541553316436636E9, 0.0, 2022-06-02 09:35:31.643
36.0, 24392.995165943525, -7294.201230311541, -62684.12622024134, -28915.73654600818, -13939.0395807075, -38061.77980444191, -7726.86394773292, -29321.107783449625, 0.008, 0.888, 0.514, 192.0, 0.0, 0.0, 0.0, 0.0, 0.0, 0.0, 0.0, 0.0, 0.0, 1.654155331643669E9, 0.0, 2022-06-02 09:35:31.643
37.0, 24411.144782441235, -7268.541427676849, -62659.315783895945, -28877.604469967424, -13908.060062892446, -38033.95188259505, -7704.243982344149, -29305.08158267517, 0.004, 0.89, 0.518, 192.0, 0.0, 32.0, 27.0, 208.0, 16.0, 48.0, 0.0, 0.0, 0.0, 1.654155331643674E9, 0.0, 2022-06-02 09:35:31.643
38.0, 24413.156439442213, -7270.776602122379, -62666.42363863273, -28880.15256883533, -13908.395339059274, -38042.19967629906, -7703.394616054848, -29323.76764103981, 0.004, 0.89, 0.518, 192.0, 0.0, 0.0, 0.0, 0.0, 0.0, 0.0, 0.0, 0.0, 0.0, 1.65415533164368E9, 0.0, 2022-06-02 09:35:31.643
39.0, 24408.0602417064, -7283.114765061709, -62686.92018829825, -28902.169037123807, -13921.873440965825, -38062.04802537537, -7728.965011711719, -29336.597542357154, 0.004, 0.89, 0.518, 192.0, 0.0, 0.0, 0.0, 0.0, 0.0, 0.0, 0.0, 0.0, 0.0, 1.654155331643685E9, 0.0, 2022-06-02 09:35:31.643
40.0, 24397.107886923302, -7294.201230311541, -62701.962912316674, -28918.329348364994, -13940.00070571908, -38071.68162723561, -7736.385790870881, -29336.91046677953, 0.004, 0.89, 0.518, 192.0, 0.0, 0.0, 0.0, 0.0, 0.0, 0.0, 0.0, 0.0, 0.0, 1.6541553316436908E9, 0.0, 2022-06-02 09:35:31.643
41.0, 24406.62973006126, -7280.052576071332, -62680.1923132172, -28900.403249311836, -13928.243688135588, -38052.16855432613, -7719.420816829303, -29318.313815392714, 0.004, 0.89, 0.518, 192.0, 0.0, 0.0, 0.0, 0.0, 0.0, 0.0, 0.0, 0.0, 0.0, 1.654155331643696E9, 0.0, 2022-06-02 09:35:31.643
42.0, 24417.447974377632, -7261.4559246845165, -62665.909548510266, -28877.269193800592, -13912.061025149946, -38030.44265871557, -7726.506319821635, -29304.165161152505, 0.004, 0.89, 0.518, 192.0, 0.0, 0.0, 0.0, 0.0, 0.0, 0.0, 0.0, 0.0, 0.0, 1.6541553316437013E9, 0.0, 2022-06-02 09:35:31.643
43.0, 24420.487811623552, -7261.522979917882, -62667.25065317758, -28880.19727232424, -13902.203905845156, -38032.96840583902, -7711.262430103116, -29298.934852949962, 0.004, 0.89, 0.518, 192.0, 0.0, 0.0, 0.0, 0.0, 0.0, 0.0, 0.0, 0.0, 0.0, 1.6541553316437087E9, 0.0, 2022-06-02 09:35:31.643
44.0, 24416.12922145477, -7274.956378335522, -62680.34877542839, -28894.837664942464, -13907.411862303241, -38049.59810371377, -7706.993246912151, -29310.781277511272, 0.004, 0.89, 0.518, 192.0, 0.0, 0.0, 0.0, 0.0, 0.0, 0.0, 0.0, 0.0, 0.0, 1.654155331643714E9, 0.0, 2022-06-02 09:35:31.643
45.0, 24409.244884162534, -7283.338282506262, -62689.71415635516, -28906.30410984804, -13918.878307208814, -38060.79632768587, -7724.069979676006, -29338.586847613675, 0.004, 0.89, 0.518, 192.0, 0.0, 0.0, 0.0, 0.0, 0.0, 0.0, 0.0, 0.0, 0.0, 1.6541553316437192E9, 0.0, 2022-06-02 09:35:31.643
46.0, 24413.759936542505, -7272.408279467617, -62676.61603410436, -28896.849321943442, -13909.289408837487, -38053.82258341582, -7710.010732413618, -29325.287559662767, 0.004, 0.89, 0.518, 192.0, 0.0, 0.0, 0.0, 0.0, 0.0, 0.0, 0.0, 0.0, 0.0, 1.6541553316437244E9, 0.0, 2022-06-02 09:35:31.643
47.0, 24419.861962778803, -7262.2829392293625, -62661.6403653193, -28887.39453403885, -13900.259304077543, -38040.79151639838, -7690.028272870573, -29308.52375132129, 0.006, 0.884, 0.518, 192.0, 0.0, 48.0, 27.0, 160.0, 16.0, 48.0, 0.0, 0.0, 0.0, 1.6541553316437297E9, 0.0, 2022-06-02 09:35:31.643
48.0, 24422.901800024727, -7264.316947974796, -62665.820141532444, -28892.021345141096, -13902.874458178814, -38048.167592068625, -7696.152650851328, -29334.675292334, 0.006, 0.884, 0.518, 192.0, 0.0, 0.0, 0.0, 0.0, 0.0, 0.0, 0.0, 0.0, 0.0, 1.6541553316437347E9, 0.0, 2022-06-02 09:35:31.643
49.0, 24416.643311577238, -7275.246951013441, -62683.1427434853, -28901.05144990104, -13912.530411783508, -38062.360949797745, -7717.319752850503, -29351.081472764192, 0.006, 0.884, 0.518, 192.0, 0.0, 0.0, 0.0, 0.0, 0.0, 0.0, 0.0, 0.0, 0.0, 1.65415533164374E9, 0.0, 2022-06-02 09:35:31.643
50.0, 24406.383860872254, -7286.087547074265, -62693.24573197911, -28910.126258149896, -13924.935629956202, -38069.982894657005, -7742.353706640448, -29321.174838682993, 0.006, 0.884, 0.518, 192.0, 0.0, 0.0, 0.0, 0.0, 0.0, 0.0, 0.0, 0.0, 0.0, 1.6541553316437452E9, 0.0, 2022-06-02 09:35:31.643
51.0, 24415.056337720915, -7271.961244578511, -62672.1456852133, -28888.355659050427, -13914.430310062207, -38043.92076062212, -7729.210880900727, -29300.253605872826, 0.006, 0.884, 0.518, 192.0, 0.0, 0.0, 0.0, 0.0, 0.0, 0.0, 0.0, 0.0, 0.0, 1.6541553316437504E9, 0.0, 2022-06-02 09:35:31.643
52.0, 24430.12141348379, -7258.572549649782, -62656.41005711676, -28868.753179163123, -13891.005681873046, -38021.79253361136, -7686.407290268814, -29297.37023083809, 0.006, 0.884, 0.518, 192.0, 0.0, 0.0, 0.0, 0.0, 0.0, 0.0, 0.0, 0.0, 0.0, 1.6541553316437557E9, 0.0, 2022-06-02 09:35:31.643
53.0, 24427.349797171333, -7269.301386988329, -62673.933824769716, -28878.409132767814, -13897.197115087167, -38032.364908738724, -7710.055435902529, -29308.07671643218, 0.006, 0.884, 0.518, 192.0, 0.0, 0.0, 0.0, 0.0, 0.0, 0.0, 0.0, 0.0, 0.0, 1.6541553316437607E9, 0.0, 2022-06-02 09:35:31.643
54.0, 24416.68801506615, -7287.607465697225, -62687.993072032106, -28898.704516733233, -13915.74906298507, -38057.55532473986, -7733.658878047333, -29323.18649568397, 0.006, 0.884, 0.518, 192.0, 0.0, 0.0, 0.0, 0.0, 0.0, 0.0, 0.0, 0.0, 0.0, 1.654155331643766E9, 0.0, 2022-06-02 09:35:31.643
55.0, 24405.512142838495, -7300.7279396924905, -62692.97751104564, -28914.90953146333, -13932.0881881819, -38077.56013602736, -7744.119494452417, -29359.5304321683, 0.006, 0.884, 0.518, 192.0, 0.0, 0.0, 0.0, 0.0, 0.0, 0.0, 0.0, 0.0, 0.0, 1.6541553316437712E9, 0.0, 2022-06-02 09:35:31.643
56.0, 24405.936825983146, -7294.201230311541, -62684.86382780837, -28908.6733947603, -13925.025036934023, -38067.54655451138, -7731.714276279721, -29339.90560053654, 0.006, 0.884, 0.518, 192.0, 0.0, 0.0, 0.0, 0.0, 0.0, 0.0, 0.0, 0.0, 0.0, 1.6541553316437764E9, 0.0, 2022-06-02 09:35:31.643
57.0, 24425.9639890151, -7272.363575978706, -62660.96981298564, -28883.57238573699, -13894.246684819065, -38039.04808033086, -7709.653104502333, -29310.446001344444, 0.008, 0.882, 0.516, 192.0, 0.0, 64.0, 27.0, 144.0, 16.0, 32.0, 0.0, 0.0, 0.0, 1.6541553316437817E9, 0.0, 2022-06-02 09:35:31.643
58.0, 24425.82987854837, -7276.208076025018, -62665.4401618767, -28885.13700784886, -13897.532391253995, -38044.77012691142, -7714.458729560224, -29324.862876518117, 0.008, 0.882, 0.516, 192.0, 0.0, 0.0, 0.0, 0.0, 0.0, 0.0, 0.0, 0.0, 0.0, 1.654155331643787E9, 0.0, 2022-06-02 09:35:31.643
59.0, 24417.246808677533, -7289.932047120577, -62674.559673614465, -28893.407153297325, -13912.306894338953, -38061.84685967527, -7719.219651129205, -29309.149600166038, 0.008, 0.882, 0.516, 192.0, 0.0, 0.0, 0.0, 0.0, 0.0, 0.0, 0.0, 0.0, 0.0, 1.654155331643792E9, 0.0, 2022-06-02 09:35:31.643
60.0, 24411.055375463413, -7295.944666379055, -62681.2428452066, -28905.208874369728, -13927.32726661292, -38071.949848169075, -7732.518939080112, -29333.691815577964, 0.008, 0.882, 0.516, 192.0, 0.0, 0.0, 0.0, 0.0, 0.0, 0.0, 0.0, 0.0, 0.0, 1.6541553316437979E9, 0.0, 2022-06-02 09:35:31.643
61.0, 24411.59181733034, -7283.606503439725, -62665.59662408789, -28891.48490327417, -13916.66548450774, -38056.05775786135, -7713.341142337459, -29338.81036505823, 0.008, 0.882, 0.516, 192.0, 0.0, 0.0, 0.0, 0.0, 0.0, 0.0, 0.0, 0.0, 0.0, 1.6541553316438046E9, 0.0, 2022-06-02 09:35:31.643
62.0, 24420.487811623552, -7271.58126492277, -62646.195309900686, -28879.10203684593, -13896.280693564499, -38040.61270244273, -7691.212915326705, -29320.83956251616, 0.008, 0.882, 0.516, 192.0, 0.0, 0.0, 0.0, 0.0, 0.0, 0.0, 0.0, 0.0, 0.0, 1.6541553316438107E9, 0.0, 2022-06-02 09:35:31.643
63.0, 24429.428509405676, -7270.374270722184, -62646.664696534244, -28879.6161269684, -13890.357481283841, -38039.517466964426, -7705.294514333548, -29309.775449010784, 0.008, 0.882, 0.516, 192.0, 0.0, 0.0, 0.0, 0.0, 0.0, 0.0, 0.0, 0.0, 0.0, 1.6541553316438165E9, 0.0, 2022-06-02 09:35:31.643
64.0, 24428.154459971724, -7279.180858037575, -62664.52374035404, -28895.687031231766, -13913.402129817265, -38053.979045627006, -7727.534500066579, -29321.241893916358, 0.008, 0.882, 0.516, 192.0, 0.0, 0.0, 0.0, 0.0, 0.0, 0.0, 0.0, 0.0, 0.0, 1.6541553316438243E9, 0.0, 2022-06-02 09:35:31.643
65.0, 24428.0650529939, -7277.370366736694, -62665.37310664334, -28897.408115554827, -13922.923972955225, -38054.56019098285, -7716.403331327836, -29334.831754545183, 0.008, 0.882, 0.516, 192.0, 0.0, 0.0, 0.0, 0.0, 0.0, 0.0, 0.0, 0.0, 0.0, 1.65415533164383E9, 0.0, 2022-06-02 09:35:31.643
66.0, 24421.672454079682, -7277.526828947882, -62657.97467922863, -28891.596661996446, -13913.446833306174, -38047.8323159018, -7697.270238074093, -29306.623853042587, 0.008, 0.882, 0.516, 192.0, 0.0, 0.0, 0.0, 0.0, 0.0, 0.0, 0.0, 0.0, 0.0, 1.6541553316438358E9, 0.0, 2022-06-02 09:35:31.643
67.0, 24429.69673033914, -7265.188666008552, -62640.227394131114, -28871.658905942313, -13898.292350565476, -38026.73226913599, -7686.1390693353505, -29291.201149368426, 0.004, 0.886, 0.518, 192.0, 0.0, 32.0, 27.0, 176.0, 16.0, 48.0, 0.0, 0.0, 0.0, 1.654155331643841E9, 0.0, 2022-06-02 09:35:31.643
68.0, 24438.905649054726, -7261.500628173427, -62630.86201320434, -28870.831891397465, -13897.55474299845, -38025.77114412441, -7686.407290268814, -29322.51594335031, 0.004, 0.886, 0.518, 192.0, 0.0, 0.0, 0.0, 0.0, 0.0, 0.0, 0.0, 0.0, 0.0, 1.6541553316438465E9, 0.0, 2022-06-02 09:35:31.643
69.0, 24416.799773788425, -7289.149736064642, -62663.92024325374, -28910.86386571692, -13921.672275265728, -38055.87894390571, -7721.723046508199, -29324.28173116228, 0.004, 0.886, 0.518, 192.0, 0.0, 0.0, 0.0, 0.0, 0.0, 0.0, 0.0, 0.0, 0.0, 1.6541553316438515E9, 0.0, 2022-06-02 09:35:31.643
70.0, 24413.603474331318, -7291.049634343342, -62671.475132879634, -28913.188447140274, -13932.0881881819, -38062.67387422012, -7737.950412982752, -29333.513001622323, 0.004, 0.886, 0.518, 192.0, 0.0, 0.0, 0.0, 0.0, 0.0, 0.0, 0.0, 0.0, 0.0, 1.6541553316438572E9, 0.0, 2022-06-02 09:35:31.643
71.0, 24411.502410352517, -7285.148773807142, -62659.740467040596, -28893.29539457505, -13930.85884223686, -38051.743871181476, -7715.1963371272495, -29337.737481324373, 0.004, 0.886, 0.518, 192.0, 0.0, 0.0, 0.0, 0.0, 0.0, 0.0, 0.0, 0.0, 0.0, 1.6541553316438627E9, 0.0, 2022-06-02 09:35:31.643
72.0, 24421.3148261684, -7267.9155788320995, -62640.808539486956, -28872.262403042605, -13909.267057093031, -38026.82167611381, -7705.249810844638, -29312.390603112057, 0.004, 0.886, 0.518, 192.0, 0.0, 0.0, 0.0, 0.0, 0.0, 0.0, 0.0, 0.0, 0.0, 1.6541553316438682E9, 0.0, 2022-06-02 09:35:31.643
73.0, 24423.88527678076, -7270.553084677826, -62640.62972553131, -28877.76093217861, -13903.790879701482, -38029.1239057927, -7700.041854386552, -29282.998059153328, 0.004, 0.886, 0.518, 192.0, 0.0, 0.0, 0.0, 0.0, 0.0, 0.0, 0.0, 0.0, 0.0, 1.6541553316438737E9, 0.0, 2022-06-02 09:35:31.643
74.0, 24421.426584890676, -7283.673558673091, -62660.67924030772, -28897.698688232744, -13918.788900230993, -38049.9333798806, -7701.159441609317, -29310.714222277908, 0.004, 0.886, 0.518, 192.0, 0.0, 0.0, 0.0, 0.0, 0.0, 0.0, 0.0, 0.0, 0.0, 1.6541553316438794E9, 0.0, 2022-06-02 09:35:31.643
75.0, 24418.20793368911, -7285.6405121851585, -62664.076705464926, -28898.570406266503, -13919.995894431579, -38053.554362482355, -7705.853307944931, -29330.160239954024, 0.004, 0.886, 0.518, 192.0, 0.0, 0.0, 0.0, 0.0, 0.0, 0.0, 0.0, 0.0, 0.0, 1.654155331643885E9, 0.0, 2022-06-02 09:35:31.643
76.0, 24412.172962686178, -7279.292616759851, -62654.778379771524, -28888.467417772703, -13915.346731584876, -38043.76429841093, -7703.394616054848, -29316.52567583629, 0.004, 0.886, 0.518, 192.0, 0.0, 0.0, 0.0, 0.0, 0.0, 0.0, 0.0, 0.0, 0.0, 1.6541553316438904E9, 0.0, 2022-06-02 09:35:31.643
77.0, 24420.331349412365, -7267.937930576555, -62640.24974587557, -28877.53741473406, -13899.924027910714, -38027.961615081025, -7705.1604038668165, -29305.394507097546, 0.004, 0.89, 0.516, 192.0, 0.0, 32.0, 27.0, 208.0, 16.0, 32.0, 0.0, 0.0, 0.0, 1.6541553316438956E9, 0.0, 2022-06-02 09:35:31.643
78.0, 24417.224456933076, -7277.929160348077, -62653.59373731539, -28893.34009806396, -13906.674254736216, -38043.04904258836, -7724.785235498576, -29330.629626587586, 0.004, 0.89, 0.516, 192.0, 0.0, 0.0, 0.0, 0.0, 0.0, 0.0, 0.0, 0.0, 0.0, 1.6541553316439013E9, 0.0, 2022-06-02 09:35:31.643
79.0, 24412.754108042016, -7291.764890165912, -62678.046545749494, -28918.82108674301, -13922.789862488493, -38067.14422311118, -7730.484930334679, -29363.889022337084, 0.004, 0.89, 0.516, 192.0, 0.0, 0.0, 0.0, 0.0, 0.0, 0.0, 0.0, 0.0, 0.0, 1.6541553316439097E9, 0.0, 2022-06-02 09:35:31.643
80.0, 24405.06510794939, -7303.521907749404, -62694.765650602065, -28930.35458688195, -13940.917127241746, -38082.54457504089, -7744.521825852612, -29357.630533889598, 0.004, 0.89, 0.516, 192.0, 0.0, 0.0, 0.0, 0.0, 0.0, 0.0, 0.0, 0.0, 0.0, 1.654155331643916E9, 0.0, 2022-06-02 09:35:31.643
81.0, 24408.328462639867, -7291.183744810074, -62672.54801661349, -28909.7239267497, -13931.819967248437, -38066.7865951999, -7736.542253082068, -29309.19430365495, 0.004, 0.89, 0.516, 192.0, 0.0, 0.0, 0.0, 0.0, 0.0, 0.0, 0.0, 0.0, 0.0, 1.6541553316439216E9, 0.0, 2022-06-02 09:35:31.643
82.0, 24421.471288379587, -7271.447154456038, -62651.76089427005, -28888.33330730597, -13910.51875478253, -38038.936321608584, -7702.075863131984, -29318.023242714793, 0.004, 0.89, 0.516, 192.0, 0.0, 0.0, 0.0, 0.0, 0.0, 0.0, 0.0, 0.0, 0.0, 1.6541553316439269E9, 0.0, 2022-06-02 09:35:31.643
83.0, 24431.417814662196, -7267.267378242896, -62651.693839036685, -28887.550996250036, -13897.331225553899, -38031.80611512734, -7690.944694393242, -29306.065059431203, 0.004, 0.89, 0.516, 192.0, 0.0, 0.0, 0.0, 0.0, 0.0, 0.0, 0.0, 0.0, 0.0, 1.654155331643932E9, 0.0, 2022-06-02 09:35:31.643
84.0, 24418.252637178022, -7290.714358176513, -62682.02515626254, -28909.34394709396, -13918.475975808618, -38058.22587707351, -7724.517014565113, -29316.32451013619, 0.004, 0.89, 0.516, 192.0, 0.0, 0.0, 0.0, 0.0, 0.0, 0.0, 0.0, 0.0, 0.0, 1.6541553316439376E9, 0.0, 2022-06-02 09:35:31.643
85.0, 24408.93195974016, -7302.963114138021, -62694.005691290586, -28921.77151701111, -13930.769435259037, -38074.16267087015, -7729.0544186895395, -29347.19226922897, 0.004, 0.89, 0.516, 192.0, 0.0, 0.0, 0.0, 0.0, 0.0, 0.0, 0.0, 0.0, 0.0, 1.6541553316439428E9, 0.0, 2022-06-02 09:35:31.643
86.0, 24411.055375463413, -7292.726015177491, -62686.249635964596, -28909.7239267497, -13922.141661899288, -38058.04706311787, -7723.511186064624, -29334.742347567364, 0.004, 0.89, 0.516, 192.0, 0.0, 0.0, 0.0, 0.0, 0.0, 0.0, 0.0, 0.0, 0.0, 1.6541553316439507E9, 0.0, 2022-06-02 09:35:31.643
87.0, 24422.767689557993, -7275.135192291164, -62669.955214256675, -28890.38966779586, -13900.616931988829, -38026.10642029124, -7700.6677032313, -29282.126341119572, 0.008, 0.89, 0.514, 192.0, 0.0, 64.0, 27.0, 208.0, 16.0, 16.0, 0.0, 0.0, 0.0, 1.654155331643956E9, 0.0, 2022-06-02 09:35:31.643
88.0, 24423.415890147196, -7276.342186491751, -62669.61993808985, -28893.116580619408, -13890.335129539388, -38036.8799611187, -7690.318845548492, -29314.558722324222, 0.008, 0.89, 0.514, 192.0, 0.0, 0.0, 0.0, 0.0, 0.0, 0.0, 0.0, 0.0, 0.0, 1.6541553316439624E9, 0.0, 2022-06-02 09:35:31.643
89.0, 24415.54807609893, -7290.066157587309, -62684.573255130446, -28911.66852851731, -13903.589714001384, -38051.877981648206, -7703.618133499401, -29317.866780503606, 0.008, 0.89, 0.514, 192.0, 0.0, 0.0, 0.0, 0.0, 0.0, 0.0, 0.0, 0.0, 0.0, 1.6541553316439676E9, 0.0, 2022-06-02 09:35:31.643
90.0, 24402.82993350386, -7305.578268239292, -62698.6995576262, -28921.7268135222, -13920.46528106514, -38066.831298688805, -7734.061209447528, -29318.827905515183, 0.008, 0.89, 0.514, 192.0, 0.0, 0.0, 0.0, 0.0, 0.0, 0.0, 0.0, 0.0, 0.0, 1.654155331643973E9, 0.0, 2022-06-02 09:35:31.643
91.0, 24408.48492485105, -7293.307160533329, -62684.796772575, -28904.113638891416, -13917.738368241593, -38058.73996719599, -7722.840633730964, -29327.85801027513, 0.008, 0.89, 0.514, 192.0, 0.0, 0.0, 0.0, 0.0, 0.0, 0.0, 0.0, 0.0, 0.0, 1.654155331643978E9, 0.0, 2022-06-02 09:35:31.643
92.0, 24413.73758479805, -7280.9466458495435, -62670.089324723405, -28892.267214330106, -13905.690777980182, -38044.41249900014, -7704.109871877417, -29319.878437504583, 0.008, 0.89, 0.514, 192.0, 0.0, 0.0, 0.0, 0.0, 0.0, 0.0, 0.0, 0.0, 0.0, 1.6541553316439836E9, 0.0, 2022-06-02 09:35:31.643
93.0, 24412.44118361964, -7285.193477296052, -62672.54801661349, -28892.58013875248, -13898.761737199038, -38044.72542342251, -7701.450014287236, -29301.75117275133, 0.008, 0.89, 0.514, 192.0, 0.0, 0.0, 0.0, 0.0, 0.0, 0.0, 0.0, 0.0, 0.0, 1.6541553316439888E9, 0.0, 2022-06-02 09:35:31.643
94.0, 24404.483962593553, -7299.7891664253675, -62681.86869405135, -28909.38865058287, -13908.283580336998, -38060.21518233004, -7698.924267163786, -29308.970786210393, 0.008, 0.89, 0.514, 192.0, 0.0, 0.0, 0.0, 0.0, 0.0, 0.0, 0.0, 0.0, 0.0, 1.654155331643994E9, 0.0, 2022-06-02 09:35:31.643
95.0, 24396.39263110073, -7312.3508468092505, -62684.3944411748, -28924.073746690006, -13926.455548579162, -38072.508641780456, -7724.6511250318445, -29332.12719346609, 0.008, 0.89, 0.514, 192.0, 0.0, 0.0, 0.0, 0.0, 0.0, 0.0, 0.0, 0.0, 0.0, 1.6541553316440015E9, 0.0, 2022-06-02 09:35:31.644
96.0, 24392.771648498972, -7305.712378706024, -62674.09028698091, -28918.284644876083, -13923.639228777794, -38067.233630089, -7727.400389599847, -29343.70539709394, 0.008, 0.89, 0.514, 192.0, 0.0, 0.0, 0.0, 0.0, 0.0, 0.0, 0.0, 0.0, 0.0, 1.6541553316440074E9, 0.0, 2022-06-02 09:35:31.644
97.0, 24406.20504691661, -7287.853334886234, -62658.17584492873, -28900.492656289658, -13906.294275080476, -38051.96738862603, -7724.852290731942, -29330.406109143034, 0.002, 0.888, 0.514, 192.0, 0.0, 16.0, 27.0, 192.0, 16.0, 16.0, 0.0, 0.0, 0.0, 1.6541553316440132E9, 0.0, 2022-06-02 09:35:31.644
98.0, 24411.03302371896, -7288.590942453259, -62653.101998937374, -28899.66564174481, -13901.935684911692, -38049.776917669406, -7704.266334088605, -29288.697753989432, 0.002, 0.888, 0.514, 192.0, 0.0, 0.0, 0.0, 0.0, 0.0, 0.0, 0.0, 0.0, 0.0, 1.6541553316440184E9, 0.0, 2022-06-02 09:35:31.644
99.0, 24418.006767989013, -7290.915523876611, -62649.57042331343, -28900.135028378372, -13904.796708201971, -38042.42319374361, -7702.545249765546, -29300.432419828467, 0.002, 0.888, 0.514, 192.0, 0.0, 0.0, 0.0, 0.0, 0.0, 0.0, 0.0, 0.0, 0.0, 1.6541553316440237E9, 0.0, 2022-06-02 09:35:31.644
100.0, 24406.45091610562, -7301.733768192979, -62664.23316767612, -28921.5256478221, -13927.237859635099, -38062.27154281992, -7734.999982714651, -29363.19611825897, 0.002, 0.888, 0.514, 192.0, 0.0, 0.0, 0.0, 0.0, 0.0, 0.0, 0.0, 0.0, 0.0, 1.654155331644029E9, 0.0, 2022-06-02 09:35:31.644
101.0, 24402.092325936836, -7295.989369867965, -62661.52860659702, -28910.796810483553, -13929.51773756954, -38064.37260679872, -7727.378037855392, -29350.05329251925, 0.002, 0.888, 0.514, 192.0, 0.0, 0.0, 0.0, 0.0, 0.0, 0.0, 0.0, 0.0, 0.0, 1.654155331644034E9, 0.0, 2022-06-02 09:35:31.644
102.0, 24415.59277958784, -7277.258608014418, -62638.37219934133, -28887.640403227855, -13908.41769080373, -38042.87022863272, -7704.176927110783, -29304.120457663594, 0.002, 0.888, 0.514, 192.0, 0.0, 0.0, 0.0, 0.0, 0.0, 0.0, 0.0, 0.0, 0.0, 1.6541553316440396E9, 0.0, 2022-06-02 09:35:31.644
103.0, 24425.315788425898, -7269.256683499419, -62626.54812652447, -28879.437313012757, -13892.592655729373, -38027.24635925846, -7681.936941377752, -29283.5121492758, 0.002, 0.888, 0.514, 192.0, 0.0, 0.0, 0.0, 0.0, 0.0, 0.0, 0.0, 0.0, 0.0, 1.6541553316440449E9, 0.0, 2022-06-02 09:35:31.644
104.0, 24420.711329068105, -7279.449078971038, -62634.8853272063, -28893.58596725297, -13902.427423289708, -38040.29977802036, -7699.0583776305175, -29299.203073883426, 0.002, 0.888, 0.514, 192.0, 0.0, 0.0, 0.0, 0.0, 0.0, 0.0, 0.0, 0.0, 0.0, 1.65415533164405E9, 0.0, 2022-06-02 09:35:31.644
105.0, 24401.421773603175, -7303.991294382965, -62662.80265603097, -28920.00572919914, -13938.458435351664, -38066.96540915554, -7746.712296809233, -29344.95709478344, 0.002, 0.888, 0.514, 192.0, 0.0, 0.0, 0.0, 0.0, 0.0, 0.0, 0.0, 0.0, 0.0, 1.6541553316440556E9, 0.0, 2022-06-02 09:35:31.644
106.0, 24404.372203871277, -7292.256628543929, -62649.68218203571, -28905.745316236655, -13934.189252160699, -38055.34250203878, -7749.282747421593, -29336.508135379332, 0.002, 0.888, 0.514, 192.0, 0.0, 0.0, 0.0, 0.0, 0.0, 0.0, 0.0, 0.0, 0.0, 1.654155331644061E9, 0.0, 2022-06-02 09:35:31.644
107.0, 24420.0631284789, -7270.888360844656, -62628.91741143673, -28888.24390032815, -13914.22914436211, -38033.638958172676, -7720.828976729987, -29301.482951817867, -0.006, 0.892, 0.514, 192.0, 255.0, 208.0, 27.0, 224.0, 16.0, 16.0, 0.0, 0.0, 0.0, 1.6541553316440694E9, 0.0, 2022-06-02 09:35:31.644
108.0, 24425.718119826095, -7268.742593376946, -62626.10109163536, -28886.52281600509, -13905.37785355781, -38026.48639994698, -7693.671607216788, -29298.577225038676, -0.006, 0.892, 0.514, 192.0, 0.0, 0.0, 0.0, 0.0, 0.0, 0.0, 0.0, 0.0, 0.0, 1.6541553316440744E9, 0.0, 2022-06-02 09:35:31.644
109.0, 24422.588875602352, -7278.219733025996, -62636.85228071836, -28895.463513787214, -13906.741309969582, -38038.55634195284, -7689.469479259191, -29319.721975293396, -0.006, 0.892, 0.514, 192.0, 0.0, 0.0, 0.0, 0.0, 0.0, 0.0, 0.0, 0.0, 0.0, 1.6541553316440809E9, 0.0, 2022-06-02 09:35:31.644
110.0, 24423.92998026967, -7281.259570271918, -62639.51213830854, -28898.10101963294, -13912.41865306123, -38047.966426368526, -7714.346970837948, -29318.269111903803, -0.006, 0.892, 0.514, 192.0, 0.0, 0.0, 0.0, 0.0, 0.0, 0.0, 0.0, 0.0, 0.0, 1.6541553316440864E9, 0.0, 2022-06-02 09:35:31.644
111.0, 24420.130183712266, -7278.8679336152, -62632.44898706067, -28900.96204292322, -13917.246629863577, -38045.26186528944, -7716.29157260556, -29322.69475730595, -0.006, 0.892, 0.514, 192.0, 0.0, 0.0, 0.0, 0.0, 0.0, 0.0, 0.0, 0.0, 0.0, 1.654155331644092E9, 0.0, 2022-06-02 09:35:31.644
112.0, 24414.385785387254, -7270.7318986334685, -62625.87757419081, -28888.936804406265, -13906.227219847111, -38030.93439709359, -7700.086557875462, -29307.361460609613, -0.006, 0.892, 0.514, 192.0, 0.0, 0.0, 0.0, 0.0, 0.0, 0.0, 0.0, 0.0, 0.0, 1.6541553316440978E9, 0.0, 2022-06-02 09:35:31.644
113.0, 24418.45380287812, -7267.58030266527, -62627.55395502496, -28877.313897289503, -13899.476993021608, -38022.306623733835, -7701.271200331593, -29292.788123224753, -0.006, 0.892, 0.514, 192.0, 0.0, 0.0, 0.0, 0.0, 0.0, 0.0, 0.0, 0.0, 0.0, 1.6541553316441035E9, 0.0, 2022-06-02 09:35:31.644
114.0, 24407.63555856175, -7289.082680831276, -62640.11563540884, -28896.20112135424, -13918.52067929753, -38041.86440013223, -7721.544232552556, -29311.13890542256, -0.006, 0.892, 0.514, 192.0, 0.0, 0.0, 0.0, 0.0, 0.0, 0.0, 0.0, 0.0, 0.0, 1.6541553316441092E9, 0.0, 2022-06-02 09:35:31.644
115.0, 24393.442200832633, -7302.583134482281, -62653.59373731539, -28913.143743651362, -13940.0901126969, -38060.01401662994, -7741.414933373325, -29330.18259169848, -0.006, 0.892, 0.514, 192.0, 0.0, 0.0, 0.0, 0.0, 0.0, 0.0, 0.0, 0.0, 0.0, 1.6541553316441147E9, 0.0, 2022-06-02 09:35:31.644
116.0, 24394.135104910747, -7294.983541367476, -62649.6374785468, -28905.588854025467, -13937.966696973646, -38049.86632464723, -7741.794913029064, -29328.528562608786, -0.004, 0.884, 0.51, 192.0, 255.0, 224.0, 27.0, 160.0, 15.0, 240.0, 0.0, 0.0, 0.0, 1.6541553316441212E9, 0.0, 2022-06-02 09:35:31.644
117.0, 24405.62390156077, -7281.751308649935, -62634.59475452838, -28891.23903408516, -13914.452661806663, -38036.0305948294, -7712.894107448353, -29317.531504336777, -0.004, 0.884, 0.51, 192.0, 0.0, 0.0, 0.0, 0.0, 0.0, 0.0, 0.0, 0.0, 0.0, 1.654155331644127E9, 0.0, 2022-06-02 09:35:31.644
118.0, 24409.513105095997, -7280.834887127267, -62639.176862141714, -28894.569444009, -13910.205830360155, -38037.81873438582, -7718.571450540001, -29322.627702072587, -0.004, 0.884, 0.51, 192.0, 0.0, 0.0, 0.0, 0.0, 0.0, 0.0, 0.0, 0.0, 0.0, 1.654155331644132E9, 0.0, 2022-06-02 09:35:31.644
119.0, 24413.134087697756, -7284.388814495661, -62646.955269212165, -28897.653984743833, -13920.889964209791, -38045.641844945174, -7723.287668620071, -29323.544123595253, -0.004, 0.884, 0.51, 192.0, 0.0, 0.0, 0.0, 0.0, 0.0, 0.0, 0.0, 0.0, 0.0, 1.6541553316441371E9, 0.0, 2022-06-02 09:35:31.644
120.0, 24408.954311484613, -7289.954398865033, -62655.963022227654, -28904.717135991712, -13932.646981793283, -38058.40469102916, -7719.264354618115, -29329.04265273126, -0.004, 0.884, 0.51, 192.0, 0.0, 0.0, 0.0, 0.0, 0.0, 0.0, 0.0, 0.0, 0.0, 1.6541553316441433E9, 0.0, 2022-06-02 09:35:31.644
121.0, 24410.697747552127, -7282.10893656122, -62649.54807156898, -28903.308976091026, -13927.170804401732, -38052.25796130395, -7738.866834505419, -29333.960036511427, -0.004, 0.884, 0.51, 192.0, 0.0, 0.0, 0.0, 0.0, 0.0, 0.0, 0.0, 0.0, 0.0, 1.6541553321242645E9, 0.0, 2022-06-02 09:35:32.124
122.0, 24410.83185801886, -7274.509343446415, -62646.97762095662, -28892.848359685944, -13919.526507798018, -38041.305606520844, -7740.409104872836, -29314.961053724415, -0.004, 0.884, 0.51, 192.0, 0.0, 0.0, 0.0, 0.0, 0.0, 0.0, 0.0, 0.0, 0.0, 1.6541553321243975E9, 0.0, 2022-06-02 09:35:32.124
123.0, 24421.136012212755, -7268.586131165759, -62636.785225485, -28887.260423572116, -13903.65676923475, -38036.209408785035, -7694.81154618401, -29292.497550546832, -0.004, 0.884, 0.51, 192.0, 0.0, 0.0, 0.0, 0.0, 0.0, 0.0, 0.0, 0.0, 0.0, 1.6541553321244047E9, 0.0, 2022-06-02 09:35:32.124
124.0, 24419.861962778803, -7281.326625505284, -62646.86586223434, -28899.66564174481, -13914.385606573298, -38049.62045545822, -7702.612304998912, -29318.202056670438, -0.004, 0.884, 0.51, 192.0, 0.0, 0.0, 0.0, 0.0, 0.0, 0.0, 0.0, 0.0, 0.0, 1.654155332124411E9, 0.0, 2022-06-02 09:35:32.124
125.0, 24415.68218656566, -7288.546238964348, -62652.43144660371, -28898.257481844128, -13926.544955556985, -38059.29876080737, -7733.860043747431, -29334.943513267463, -0.004, 0.884, 0.51, 192.0, 0.0, 0.0, 0.0, 0.0, 0.0, 0.0, 0.0, 0.0, 0.0, 1.6541553321244164E9, 0.0, 2022-06-02 09:35:32.124
126.0, 24406.67443355017, -7290.736709920969, -62656.09713269438, -28902.90664469083, -13934.010438205058, -38061.64569397517, -7737.659840304833, -29334.116498722615, -0.004, 0.884, 0.51, 192.0, 0.0, 0.0, 27.0, 208.0, 16.0, 16.0, 0.0, 0.0, 0.0, 1.6541553321244223E9, 0.0, 2022-06-02 09:35:32.124
127.0, 24409.40134637372, -7280.67842491608, -62645.21183314465, -28890.993164896154, -13921.873440965825, -38053.487307248986, -7715.308095849526, -29340.03971100327, -0.004, 0.884, 0.51, 192.0, 0.0, 0.0, 0.0, 0.0, 0.0, 0.0, 0.0, 0.0, 0.0, 1.6541553321244287E9, 0.0, 2022-06-02 09:35:32.124
128.0, 24415.995110988035, -7283.003006339432, -62650.01745820254, -28888.847397428442, -13919.2359351201, -38054.64959796066, -7710.949505680741, -29315.34103338016, -0.004, 0.884, 0.51, 192.0, 0.0, 0.0, 0.0, 0.0, 0.0, 0.0, 0.0, 0.0, 0.0, 1.6541553321244762E9, 0.0, 2022-06-02 09:35:32.124
129.0, 24422.49946862453, -7282.980654594977, -62659.740467040596, -28891.19433059625, -13921.381702587809, -38054.448432260564, -7724.740532009666, -29317.263283403314, -0.004, 0.884, 0.51, 192.0, 0.0, 0.0, 0.0, 0.0, 0.0, 0.0, 0.0, 0.0, 0.0, 1.6541553321244836E9, 0.0, 2022-06-02 09:35:32.124
130.0, 24421.65010233523, -7283.830020884278, -62661.841531019396, -28896.223473098693, -13926.746121257082, -38056.46008926154, -7729.3449913674585, -29345.314722694722, -0.004, 0.884, 0.51, 192.0, 0.0, 0.0, 0.0, 0.0, 0.0, 0.0, 0.0, 0.0, 0.0, 1.65415533212449E9, 0.0, 2022-06-02 09:35:32.124
131.0, 24406.607378316807, -7289.641474442658, -62656.72298153913, -28902.638423757366, -13933.921031227235, -38063.143260853685, -7733.569471069512, -29347.169917484513, -0.004, 0.884, 0.51, 192.0, 0.0, 0.0, 0.0, 0.0, 0.0, 0.0, 0.0, 0.0, 0.0, 1.6541553321244967E9, 0.0, 2022-06-02 09:35:32.124
132.0, 24413.26819816449, -7278.82323012629, -62641.09911216487, -28886.32165030499, -13918.94536244218, -38044.613664700235, -7725.791063999065, -29305.260396630812, -0.004, 0.884, 0.51, 192.0, 0.0, 0.0, 0.0, 0.0, 0.0, 0.0, 0.0, 0.0, 0.0, 1.6541553321245117E9, 0.0, 2022-06-02 09:35:32.124
133.0, 24423.840573291847, -7274.017605068399, -62636.96403944064, -28882.67831595878, -13905.444908791174, -38046.40180425666, -7711.553002781035, -29320.548989838244, -0.004, 0.884, 0.51, 192.0, 0.0, 0.0, 0.0, 0.0, 0.0, 0.0, 0.0, 0.0, 0.0, 1.6541553321245172E9, 0.0, 2022-06-02 09:35:32.124
134.0, 24422.588875602352, -7281.013701082909, -62647.89404247929, -28896.58110100998, -13912.41865306123, -38058.807022429355, -7726.9980581996515, -29333.021263244304, -0.004, 0.884, 0.51, 192.0, 0.0, 0.0, 0.0, 0.0, 0.0, 0.0, 0.0, 0.0, 0.0, 1.654155332124523E9, 0.0, 2022-06-02 09:35:32.124
135.0, 24420.040776734448, -7285.5287534628815, -62656.90179549478, -28898.928034177785, -13929.09305442489, -38059.67874046311, -7723.667648275811, -29327.813306786218, -0.004, 0.884, 0.51, 192.0, 0.0, 0.0, 0.0, 0.0, 0.0, 0.0, 0.0, 0.0, 0.0, 1.654155332124529E9, 0.0, 2022-06-02 09:35:32.124
136.0, 24416.330387154867, -7283.025358083887, -62655.71715303864, -28886.34400204945, -13930.411807347753, -38053.487307248986, -7720.627811029889, -29321.644225316555, 0.01, 0.886, 0.522, 192.0, 0.0, 80.0, 27.0, 176.0, 16.0, 80.0, 0.0, 0.0, 0.0, 1.6541553321245372E9, 0.0, 2022-06-02 09:35:32.124
137.0, 24422.521820368984, -7269.815477110801, -62641.143815653784, -28878.655001956824, -13919.504156053563, -38046.1782868121, -7722.483005819679, -29318.60438807063, 0.01, 0.886, 0.522, 192.0, 0.0, 0.0, 0.0, 0.0, 0.0, 0.0, 0.0, 0.0, 0.0, 1.6541553321245456E9, 0.0, 2022-06-02 09:35:32.124
138.0, 24434.1670792302, -7262.059421784809, -62630.05735040395, -28875.10107458843, -13904.953170413159, -38036.94701635206, -7710.100139391439, -29314.04463220175, 0.01, 0.886, 0.522, 192.0, 0.0, 0.0, 0.0, 0.0, 0.0, 0.0, 0.0, 0.0, 0.0, 1.6541553321245508E9, 0.0, 2022-06-02 09:35:32.124
139.0, 24426.41102390421, -7274.643453913147, -62640.45091157567, -28887.215720083204, -13915.682007751706, -38052.6826444486, -7729.970840212208, -29331.23312368788, 0.01, 0.886, 0.522, 192.0, 0.0, 0.0, 0.0, 0.0, 0.0, 0.0, 0.0, 0.0, 0.0, 1.6541553321245587E9, 0.0, 2022-06-02 09:35:32.124
140.0, 24399.231302646556, -7304.058349616332, -62671.29631892399, -28920.229246643696, -13948.00263023408, -38082.5892785298, -7749.729782310699, -29354.14366175457, 0.01, 0.886, 0.522, 192.0, 0.0, 0.0, 0.0, 0.0, 0.0, 0.0, 0.0, 0.0, 0.0, 1.6541553321245675E9, 0.0, 2022-06-02 09:35:32.124
141.0, 24400.773573013972, -7296.369349523706, -62660.366315885345, -28911.534418050578, -13936.737351028605, -38067.457147533554, -7733.055380947039, -29343.5265831383, 0.01, 0.886, 0.522, 192.0, 0.0, 0.0, 0.0, 0.0, 0.0, 0.0, 0.0, 0.0, 0.0, 1.6541553321245732E9, 0.0, 2022-06-02 09:35:32.124
142.0, 24410.630692318762, -7278.130326048175, -62645.480054078114, -28891.73077246318, -13915.346731584876, -38044.52425772241, -7732.183662913283, -29320.012547971317, 0.01, 0.886, 0.522, 192.0, 0.0, 0.0, 0.0, 0.0, 0.0, 0.0, 0.0, 0.0, 0.0, 1.6541553321245785E9, 0.0, 2022-06-02 09:35:32.124
143.0, 24411.949445241626, -7280.611369682714, -62645.86003373385, -28893.854188186433, -13910.1834786157, -38049.86632464723, -7719.756092996132, -29321.152486938536, 0.01, 0.886, 0.522, 192.0, 0.0, 0.0, 0.0, 0.0, 0.0, 0.0, 0.0, 0.0, 0.0, 1.6541553321245835E9, 0.0, 2022-06-02 09:35:32.124
144.0, 24422.812393046905, -7278.175029537086, -62643.71426626614, -28894.636499242366, -13908.730615226104, -38051.90033339266, -7710.0330841580735, -29307.89790247654, 0.01, 0.886, 0.522, 192.0, 0.0, 0.0, 0.0, 0.0, 0.0, 0.0, 0.0, 0.0, 0.0, 1.6541553321245892E9, 0.0, 2022-06-02 09:35:32.124
145.0, 24415.68218656566, -7287.272189530396, -62654.93484198271, -28903.800714469042, -13924.846222978382, -38065.221973088024, -7732.742456524666, -29356.155318755547, 0.01, 0.886, 0.522, 192.0, 0.0, 0.0, 0.0, 0.0, 0.0, 0.0, 0.0, 0.0, 0.0, 1.6541553321245952E9, 0.0, 2022-06-02 09:35:32.124
146.0, 24394.559788055398, -7302.560782737825, -62669.35171715638, -28915.24480763016, -13947.041505222502, -38077.62719126072, -7761.397392916369, -29369.454606706455, 0.006, 0.886, 0.526, 192.0, 0.0, 48.0, 27.0, 176.0, 16.0, 112.0, 0.0, 0.0, 0.0, 1.6541553321246011E9, 0.0, 2022-06-02 09:35:32.124
147.0, 24394.82800898886, -7296.391701268161, -62658.73463854011, -28909.209836627226, -13940.447740608186, -38060.30458930786, -7745.572357842012, -29326.271036418802, 0.006, 0.886, 0.526, 192.0, 0.0, 0.0, 0.0, 0.0, 0.0, 0.0, 0.0, 0.0, 0.0, 1.6541553321246076E9, 0.0, 2022-06-02 09:35:32.124
148.0, 24407.948482984124, -7281.237218527463, -62641.23322263161, -28894.636499242366, -13920.487632809596, -38045.664196689635, -7723.779406998087, -29319.543161337755, 0.006, 0.886, 0.526, 192.0, 0.0, 0.0, 0.0, 0.0, 0.0, 0.0, 0.0, 0.0, 0.0, 1.6541553321246128E9, 0.0, 2022-06-02 09:35:32.124
149.0, 24414.721061554083, -7282.220695283497, -62648.34107736839, -28889.786170695566, -13922.365179343842, -38048.90519963565, -7737.8610060049305, -29327.43332713048, 0.006, 0.886, 0.526, 192.0, 0.0, 0.0, 0.0, 0.0, 0.0, 0.0, 0.0, 0.0, 0.0, 1.654155332124618E9, 0.0, 2022-06-02 09:35:32.124
150.0, 24406.942654483635, -7298.313951291318, -62670.290490423504, -28911.735583750677, -13945.655697066271, -38071.2345923465, -7751.964956756229, -29354.456586176944, 0.006, 0.886, 0.526, 192.0, 0.0, 0.0, 0.0, 0.0, 0.0, 0.0, 0.0, 0.0, 0.0, 1.6541553321246305E9, 0.0, 2022-06-02 09:35:32.124
151.0, 24398.985433457547, -7301.06321585932, -62666.15541769927, -28913.836647729477, -13941.386513875308, -38070.94401966858, -7735.826997259498, -29354.724807110408, 0.006, 0.886, 0.526, 192.0, 0.0, 0.0, 0.0, 0.0, 0.0, 0.0, 0.0, 0.0, 0.0, 1.654155332124636E9, 0.0, 2022-06-02 09:35:32.124
152.0, 24402.807581759404, -7291.4519657435385, -62647.11173142335, -28902.884292946375, -13916.017283918534, -38059.231705574006, -7719.443168573758, -29336.977522012894, 0.006, 0.886, 0.526, 192.0, 0.0, 0.0, 0.0, 0.0, 0.0, 0.0, 0.0, 0.0, 0.0, 1.6541553321246412E9, 0.0, 2022-06-02 09:35:32.124
153.0, 24404.88629399375, -7291.407262254627, -62657.72881003962, -28909.43335407178, -13918.699493253172, -38060.259885818945, -7723.332372108981, -29342.498402893354, 0.006, 0.886, 0.526, 192.0, 0.0, 0.0, 0.0, 0.0, 0.0, 0.0, 0.0, 0.0, 0.0, 1.6541553321246471E9, 0.0, 2022-06-02 09:35:32.124
154.0, 24411.234189419054, -7291.049634343342, -62661.86388276385, -28906.326461592493, -13922.432234577207, -38057.19769682857, -7721.43247383028, -29308.07671643218, 0.006, 0.886, 0.526, 192.0, 0.0, 0.0, 0.0, 0.0, 0.0, 0.0, 0.0, 0.0, 0.0, 1.6541553321246574E9, 0.0, 2022-06-02 09:35:32.124
155.0, 24409.378994629264, -7294.692968689557, -62662.4897316086, -28909.5227610496, -13930.635324792305, -38059.45522301856, -7742.621927573911, -29320.750155538342, 0.006, 0.886, 0.526, 192.0, 0.0, 0.0, 0.0, 0.0, 0.0, 0.0, 0.0, 0.0, 0.0, 1.6541553321246665E9, 0.0, 2022-06-02 09:35:32.124
156.0, 24406.897950994728, -7290.781413409879, -62662.37797288632, -28909.701575005245, -13932.646981793283, -38063.16561259814, -7749.506264866146, -29345.96292328393, 0.004, 0.884, 0.518, 192.0, 0.0, 32.0, 27.0, 160.0, 16.0, 48.0, 0.0, 0.0, 0.0, 1.6541553321246753E9, 0.0, 2022-06-02 09:35:32.124
157.0, 24420.44310813464, -7270.776602122379, -62643.78132149951, -28888.042734628052, -13909.021187904023, -38041.14914430966, -7705.473328289191, -29323.857048017628, 0.004, 0.884, 0.518, 192.0, 0.0, 0.0, 0.0, 0.0, 0.0, 0.0, 0.0, 0.0, 0.0, 1.6541553321246817E9, 0.0, 2022-06-02 09:35:32.124
158.0, 24427.93094252717, -7265.076907286276, -62635.66763826223, -28877.313897289503, -13893.531428996495, -38028.162780781124, -7696.197354340238, -29297.23612037136, 0.004, 0.884, 0.518, 192.0, 0.0, 0.0, 0.0, 0.0, 0.0, 0.0, 0.0, 0.0, 0.0, 1.654155332124689E9, 0.0, 2022-06-02 09:35:32.124
159.0, 24435.0164455195, -7270.508381188915, -62645.72592326712, -28883.125350847884, -13901.46629827813, -38034.64478667317, -7709.027255657585, -29316.548027580742, 0.004, 0.884, 0.518, 192.0, 0.0, 0.0, 0.0, 0.0, 0.0, 0.0, 0.0, 0.0, 0.0, 1.6541553321246955E9, 0.0, 2022-06-02 09:35:32.124
160.0, 24421.292474423943, -7289.954398865033, -62664.36727814285, -28905.47709530319, -13924.555650300463, -38054.94017063858, -7733.189491413772, -29344.398301172056, 0.004, 0.884, 0.518, 192.0, 0.0, 0.0, 0.0, 0.0, 0.0, 0.0, 0.0, 0.0, 0.0, 1.6541553321247044E9, 0.0, 2022-06-02 09:35:32.124
161.0, 24414.29637840943, -7287.853334886234, -62668.770571800545, -28911.266197117115, -13927.57313580193, -38052.97321712652, -7751.696735822766, -29337.603370857643, 0.004, 0.884, 0.518, 192.0, 0.0, 0.0, 0.0, 0.0, 0.0, 0.0, 0.0, 0.0, 0.0, 1.6541553321247115E9, 0.0, 2022-06-02 09:35:32.124
162.0, 24416.151573199222, -7273.592921923748, -62648.11755992384, -28885.807560182522, -13912.329246083409, -38036.991719840975, -7736.519901337612, -29318.738498537365, 0.004, 0.884, 0.518, 192.0, 0.0, 0.0, 0.0, 0.0, 0.0, 0.0, 0.0, 0.0, 0.0, 1.65415533212472E9, 0.0, 2022-06-02 09:35:32.124
163.0, 24425.9639890151, -7264.361651463706, -62636.82992897391, -28873.692914687745, -13903.880286679303, -38032.923702350105, -7709.38488356887, -29325.712242807418, 0.004, 0.884, 0.518, 192.0, 0.0, 0.0, 0.0, 0.0, 0.0, 0.0, 0.0, 0.0, 0.0, 1.6541553321247275E9, 0.0, 2022-06-02 09:35:32.124
164.0, 24433.898858296736, -7266.172142764586, -62640.808539486956, -28882.67831595878, -13902.226257589611, -38040.29977802036, -7699.527764264079, -29308.233178643368, 0.004, 0.884, 0.518, 192.0, 0.0, 0.0, 0.0, 0.0, 0.0, 0.0, 0.0, 0.0, 0.0, 1.654155332124735E9, 0.0, 2022-06-02 09:35:32.124
165.0, 24425.494602381543, -7279.739651648957, -62658.131141439815, -28898.324537077493, -13917.067815907934, -38052.45912700405, -7720.538404052068, -29325.19815268495, 0.004, 0.884, 0.518, 192.0, 0.0, 0.0, 0.0, 0.0, 0.0, 0.0, 0.0, 0.0, 0.0, 1.654155332124743E9, 0.0, 2022-06-02 09:35:32.124
166.0, 24428.802660560927, -7270.642491655647, -62647.223490145625, -28889.67441197329, -13912.619818761328, -38040.702109420556, -7723.24296513116, -29342.408995915535, 0.004, 0.884, 0.518, 192.0, 0.0, 0.0, 27.0, 144.0, 16.0, 64.0, 0.0, 0.0, 0.0, 1.6541553321247487E9, 0.0, 2022-06-02 09:35:32.124
167.0, 24428.31092218291, -7259.645433383636, -62636.44994931817, -28878.923222890287, -13901.421594789219, -38030.01797557092, -7702.008807898618, -29321.219542171904, 0.004, 0.884, 0.518, 192.0, 0.0, 0.0, 0.0, 0.0, 0.0, 0.0, 0.0, 0.0, 0.0, 1.6541553321247554E9, 0.0, 2022-06-02 09:35:32.124
168.0, 24435.910515297714, -7255.510360659405, -62628.80565271445, -28870.94365011974, -13889.977501628102, -38023.29010048987, -7691.57054323799, -29287.200187110924, 0.004, 0.884, 0.518, 192.0, 0.0, 0.0, 0.0, 0.0, 0.0, 0.0, 0.0, 0.0, 0.0, 1.654155332124762E9, 0.0, 2022-06-02 09:35:32.124
169.0, 24439.12916649928, -7263.780506107868, -62629.118577136825, -28876.10690308892, -13897.934722654192, -38031.13556279368, -7715.889241205364, -29321.75598403883, 0.004, 0.884, 0.518, 192.0, 0.0, 0.0, 0.0, 0.0, 0.0, 0.0, 0.0, 0.0, 0.0, 1.6541553321247687E9, 0.0, 2022-06-02 09:35:32.124
170.0, 24436.916343798202, -7270.351918977728, -62640.45091157567, -28889.786170695566, -13911.636342005295, -38042.154972810145, -7732.831863502487, -29323.834696273174, 0.004, 0.884, 0.518, 192.0, 0.0, 0.0, 0.0, 0.0, 0.0, 0.0, 0.0, 0.0, 0.0, 1.6541553321247745E9, 0.0, 2022-06-02 09:35:32.124
171.0, 24436.134032742266, -7262.774677607379, -62638.23808887459, -28882.454798514224, -13909.512926282041, -38031.06850756032, -7710.256601602627, -29302.17585589598, 0.004, 0.884, 0.518, 192.0, 0.0, 0.0, 0.0, 0.0, 0.0, 0.0, 0.0, 0.0, 0.0, 1.6541553321247883E9, 0.0, 2022-06-02 09:35:32.124
172.0, 24445.857041580326, -7247.061401255299, -62615.908696163744, -28866.965039606697, -13894.93958889718, -38014.30469921884, -7674.516162218591, -29296.587919782156, 0.004, 0.884, 0.518, 192.0, 0.0, 0.0, 0.0, 0.0, 0.0, 0.0, 0.0, 0.0, 0.0, 1.6541553321247957E9, 0.0, 2022-06-02 09:35:32.124
173.0, 24444.65004737974, -7252.962261791499, -62622.92714392271, -28874.05054259903, -13896.615969731329, -38023.15599002314, -7681.75812742211, -29284.339163820645, 0.004, 0.884, 0.518, 192.0, 0.0, 0.0, 0.0, 0.0, 0.0, 0.0, 0.0, 0.0, 0.0, 1.6541553321248016E9, 0.0, 2022-06-02 09:35:32.124
174.0, 24430.188468717155, -7273.7270323904795, -62646.93291746771, -28885.002897382128, -13916.196097874177, -38043.406670499644, -7714.726950493688, -29305.08158267517, 0.004, 0.884, 0.518, 192.0, 0.0, 0.0, 0.0, 0.0, 0.0, 0.0, 0.0, 0.0, 0.0, 1.6541553321248083E9, 0.0, 2022-06-02 09:35:32.124
175.0, 24421.82891629087, -7288.881515131178, -62666.78126654402, -28902.727830735188, -13933.94338297169, -38060.751624196964, -7737.369267626914, -29352.020246031316, 0.004, 0.884, 0.518, 192.0, 0.0, 0.0, 0.0, 0.0, 0.0, 0.0, 0.0, 0.0, 0.0, 1.6541553321248147E9, 0.0, 2022-06-02 09:35:32.124
176.0, 24419.571390100886, -7288.546238964348, -62662.24386241959, -28905.879426703388, -13938.927821985224, -38062.53976375339, -7746.041744475573, -29351.46145241993, 0.002, 0.878, 0.518, 192.0, 0.0, 16.0, 27.0, 112.0, 16.0, 48.0, 0.0, 0.0, 0.0, 1.654155332124822E9, 0.0, 2022-06-02 09:35:32.124
177.0, 24432.11071874031, -7269.77077362189, -62637.27696386301, -28881.404266524827, -13918.431272319707, -38035.4270977291, -7718.817319729009, -29305.6180245421, 0.002, 0.878, 0.518, 192.0, 0.0, 0.0, 0.0, 0.0, 0.0, 0.0, 0.0, 0.0, 0.0, 1.6541553321248283E9, 0.0, 2022-06-02 09:35:32.124
178.0, 24437.1175094983, -7262.10412527372, -62633.20894637215, -28877.693876945246, -13907.478917536608, -38031.51554244942, -7718.0126569286185, -29313.195265912447, 0.002, 0.878, 0.518, 192.0, 0.0, 0.0, 0.0, 0.0, 0.0, 0.0, 0.0, 0.0, 0.0, 1.6541553321248376E9, 0.0, 2022-06-02 09:35:32.124
179.0, 24438.570372887894, -7267.155619520619, -62648.9892779576, -28887.75216195013, -13912.508060039052, -38047.80996415734, -7727.758017511132, -29325.108745707126, 0.002, 0.878, 0.518, 192.0, 0.0, 0.0, 0.0, 0.0, 0.0, 0.0, 0.0, 0.0, 0.0, 1.6541553321248436E9, 0.0, 2022-06-02 09:35:32.124
180.0, 24428.86971579429, -7282.935951106067, -62660.90275775227, -28904.694784247255, -13924.80151948947, -38068.01594114494, -7723.466482575713, -29344.95709478344, 0.002, 0.878, 0.518, 192.0, 0.0, 0.0, 0.0, 0.0, 0.0, 0.0, 0.0, 0.0, 0.0, 1.6541553321248496E9, 0.0, 2022-06-02 09:35:32.124
181.0, 24429.048529749936, -7276.006910324921, -62650.866824491844, -28895.932900420776, -13924.37683634482, -38052.41442351513, -7721.521880808102, -29337.648074346554, 0.002, 0.878, 0.518, 192.0, 0.0, 0.0, 0.0, 0.0, 0.0, 0.0, 0.0, 0.0, 0.0, 1.6541553321248565E9, 0.0, 2022-06-02 09:35:32.124
182.0, 24438.72683509908, -7255.510360659405, -62630.14675738177, -28872.552975720522, -13902.941513412181, -38026.28523424688, -7709.42958705778, -29316.14569618055, 0.002, 0.878, 0.518, 192.0, 0.0, 0.0, 0.0, 0.0, 0.0, 0.0, 0.0, 0.0, 0.0, 1.6541553321248627E9, 0.0, 2022-06-02 09:35:32.124
183.0, 24447.242849736554, -7250.6600321126025, -62626.36931256882, -28870.742484419643, -13888.524638238507, -38023.24539700096, -7704.400444555336, -29310.08837343316, 0.002, 0.878, 0.518, 192.0, 0.0, 0.0, 0.0, 0.0, 0.0, 0.0, 0.0, 0.0, 0.0, 1.6541553321248689E9, 0.0, 2022-06-02 09:35:32.124
184.0, 24443.107777012323, -7259.19839849453, -62627.15162362476, -28882.700667703233, -13899.409937788241, -38033.348385494755, -7722.818281986509, -29296.5655680377, 0.002, 0.878, 0.518, 192.0, 0.0, 0.0, 0.0, 0.0, 0.0, 0.0, 0.0, 0.0, 0.0, 1.654155332124874E9, 0.0, 2022-06-02 09:35:32.124
185.0, 24434.83763156386, -7268.876703843678, -62638.01457143004, -28892.200159096737, -13909.959961171147, -38044.05487108885, -7707.440281801258, -29316.168047925003, 0.002, 0.878, 0.518, 192.0, 0.0, 0.0, 0.0, 0.0, 0.0, 0.0, 0.0, 0.0, 0.0, 1.65415533212488E9, 0.0, 2022-06-02 09:35:32.124
186.0, 24424.73464307006, -7273.570570179292, -62643.311934865946, -28889.696763717744, -13918.051292663968, -38037.46110647453, -7702.724063721188, -29331.657806832533, 0.004, 0.876, 0.516, 192.0, 0.0, 32.0, 27.0, 96.0, 16.0, 32.0, 0.0, 0.0, 0.0, 1.654155332124886E9, 0.0, 2022-06-02 09:35:32.124
187.0, 24431.328407684377, -7259.086639772254, -62626.10109163536, -28879.213795568205, -13904.03674889049, -38021.457257444534, -7701.561773009512, -29314.737536279863, 0.004, 0.876, 0.516, 192.0, 0.0, 0.0, 0.0, 0.0, 0.0, 0.0, 0.0, 0.0, 0.0, 1.654155332124892E9, 0.0, 2022-06-02 09:35:32.124
188.0, 24430.523744883987, -7267.245026498441, -62633.655981261254, -28885.114656104408, -13906.137812869289, -38032.722536650006, -7703.036988143563, -29308.456696087924, 0.004, 0.876, 0.516, 192.0, 0.0, 0.0, 0.0, 0.0, 0.0, 0.0, 0.0, 0.0, 0.0, 1.654155332124899E9, 0.0, 2022-06-02 09:35:32.124
189.0, 24422.25359943552, -7281.952474350032, -62653.4372751042, -28894.636499242366, -13922.901621210769, -38048.10053683526, -7721.09719766345, -29314.51401883531, 0.004, 0.876, 0.516, 192.0, 0.0, 0.0, 0.0, 0.0, 0.0, 0.0, 0.0, 0.0, 0.0, 1.654155332124905E9, 0.0, 2022-06-02 09:35:32.124
190.0, 24417.470326122086, -7291.9213523770995, -62663.3390978979, -28902.19138886826, -13934.502176583073, -38059.365816040736, -7749.729782310699, -29347.61695237362, 0.004, 0.876, 0.516, 192.0, 0.0, 0.0, 0.0, 0.0, 0.0, 0.0, 0.0, 0.0, 0.0, 1.6541553321249118E9, 0.0, 2022-06-02 09:35:32.124
191.0, 24429.36145417231, -7280.745480149446, -62647.648173290276, -28893.317746319502, -13921.426406076718, -38046.558266467844, -7735.178796670294, -29335.301141178745, 0.004, 0.876, 0.516, 192.0, 0.0, 0.0, 0.0, 0.0, 0.0, 0.0, 0.0, 0.0, 0.0, 1.6541553321249187E9, 0.0, 2022-06-02 09:35:32.124
192.0, 24432.55775362942, -7269.033166054865, -62630.61614401534, -28883.19240608125, -13906.048405891468, -38029.61564417072, -7704.266334088605, -29313.32937637918, 0.004, 0.876, 0.516, 192.0, 0.0, 0.0, 0.0, 0.0, 0.0, 0.0, 0.0, 0.0, 0.0, 1.6541553321249323E9, 0.0, 2022-06-02 09:35:32.124
193.0, 24432.825974562882, -7264.272244485885, -62625.207021857146, -28877.38095252287, -13897.532391253995, -38021.79253361136, -7681.221685555182, -29293.212806369404, 0.004, 0.876, 0.516, 192.0, 0.0, 0.0, 0.0, 0.0, 0.0, 0.0, 0.0, 0.0, 0.0, 1.6541553321249392E9, 0.0, 2022-06-02 09:35:32.124
194.0, 24434.100023996834, -7275.649282413636, -62638.19338538568, -28889.450894528734, -13904.975522157612, -38036.209408785035, -7706.233287600671, -29293.905710447518, 0.004, 0.876, 0.516, 192.0, 0.0, 0.0, 0.0, 0.0, 0.0, 0.0, 0.0, 0.0, 0.0, 1.6541553321249447E9, 0.0, 2022-06-02 09:35:32.124
195.0, 24427.618018104797, -7289.909695376122, -62659.472246107136, -28906.840551714966, -13926.008513690056, -38055.18603982759, -7747.785180543087, -29320.03489971577, 0.004, 0.888, 0.52, 192.0, 0.0, 32.0, 27.0, 192.0, 16.0, 64.0, 0.0, 0.0, 0.0, 1.6541553321249504E9, 0.0, 2022-06-02 09:35:32.124
196.0, 24430.45668965062, -7277.973863836988, -62647.26819363454, -28897.698688232744, -13917.000760674568, -38047.877019390704, -7717.140938894861, -29325.086393962672, 0.004, 0.888, 0.52, 192.0, 0.0, 0.0, 0.0, 0.0, 0.0, 0.0, 0.0, 0.0, 0.0, 1.654155332124956E9, 0.0, 2022-06-02 09:35:32.124
197.0, 24436.134032742266, -7263.266415985396, -62634.080664405905, -28881.448970013735, -13900.996911644568, -38033.03546107238, -7697.560810752012, -29315.005757213326, 0.004, 0.888, 0.52, 192.0, 0.0, 0.0, 0.0, 0.0, 0.0, 0.0, 0.0, 0.0, 0.0, 1.654155332124962E9, 0.0, 2022-06-02 09:35:32.124
198.0, 24443.241887479056, -7255.555064148315, -62629.185632370194, -28870.653077441824, -13890.312777794932, -38022.798362111855, -7713.564659782012, -29295.291518603746, 0.004, 0.888, 0.52, 192.0, 0.0, 0.0, 0.0, 0.0, 0.0, 0.0, 0.0, 0.0, 0.0, 1.654155332124971E9, 0.0, 2022-06-02 09:35:32.124
199.0, 24441.632561878272, -7267.155619520619, -62640.69678076468, -28883.125350847884, -13899.074661621413, -38037.77403089691, -7728.517976822613, -29326.963940496917, 0.004, 0.888, 0.52, 192.0, 0.0, 0.0, 0.0, 0.0, 0.0, 0.0, 0.0, 0.0, 0.0, 1.6541553321249788E9, 0.0, 2022-06-02 09:35:32.124
200.0, 24422.767689557993, -7292.413090755116, -62666.13306595482, -28910.841513972464, -13930.23299339211, -38065.1325661102, -7741.996078729163, -29339.14564122506, 0.004, 0.888, 0.52, 192.0, 0.0, 0.0, 0.0, 0.0, 0.0, 0.0, 0.0, 0.0, 0.0, 1.6541553321249871E9, 0.0, 2022-06-02 09:35:32.124
201.0, 24441.565506644907, -7266.038032297854, -62639.892117964286, -28875.86103389991, -13909.579981515406, -38035.784725640384, -7711.463595803213, -29325.734594551875, 0.004, 0.888, 0.52, 192.0, 0.0, 0.0, 0.0, 0.0, 0.0, 0.0, 0.0, 0.0, 0.0, 1.6541553321249948E9, 0.0, 2022-06-02 09:35:32.124
202.0, 24433.22830596308, -7259.645433383636, -62636.42759757371, -28874.22935655467, -13904.349673312865, -38038.71280416403, -7708.647276001844, -29346.700530850954, 0.004, 0.888, 0.52, 192.0, 0.0, 0.0, 0.0, 0.0, 0.0, 0.0, 0.0, 0.0, 0.0, 1.654155332125001E9, 0.0, 2022-06-02 09:35:32.125
203.0, 24429.584971616863, -7262.10412527372, -62648.09520817938, -28882.365391536405, -13908.84237394838, -38038.91396986413, -7712.692941748255, -29318.403222370533, 0.004, 0.888, 0.52, 192.0, 0.0, 0.0, 0.0, 0.0, 0.0, 0.0, 0.0, 0.0, 0.0, 1.654155332125008E9, 0.0, 2022-06-02 09:35:32.125
204.0, 24430.210820461612, -7269.591959666248, -62661.81917927494, -28895.597624253947, -13914.430310062207, -38045.39597575617, -7732.116607679917, -29309.216655399403, 0.004, 0.888, 0.52, 192.0, 0.0, 0.0, 0.0, 0.0, 0.0, 0.0, 0.0, 0.0, 0.0, 1.6541553321250145E9, 0.0, 2022-06-02 09:35:32.125
205.0, 24432.714215840606, -7273.637625412658, -62668.614109589354, -28897.989260910665, -13922.409882832753, -38049.19577231357, -7734.351782125447, -29326.85218177464, 0.002, 0.894, 0.518, 192.0, 0.0, 16.0, 27.0, 240.0, 16.0, 48.0, 0.0, 0.0, 0.0, 1.6541553321250205E9, 0.0, 2022-06-02 09:35:32.125
206.0, 24420.30899766791, -7277.370366736694, -62673.59854860289, -28895.307051576026, -13930.65767653676, -38050.64863570317, -7728.473273333701, -29343.012493015827, 0.002, 0.894, 0.518, 192.0, 0.0, 0.0, 0.0, 0.0, 0.0, 0.0, 0.0, 0.0, 0.0, 1.6541553321250267E9, 0.0, 2022-06-02 09:35:32.125
207.0, 24429.182640216666, -7259.980709550466, -62655.51598733855, -28870.94365011974, -13908.820022203927, -38023.647728401156, -7711.284781847571, -29305.685079775463, 0.002, 0.894, 0.518, 192.0, 0.0, 0.0, 0.0, 0.0, 0.0, 0.0, 0.0, 0.0, 0.0, 1.654155332125033E9, 0.0, 2022-06-02 09:35:32.125
208.0, 24437.78806183196, -7257.4102589381055, -62649.52571982452, -28868.127330318373, -13899.70051046616, -38019.020917298905, -7702.947581165741, -29302.913463463006, 0.002, 0.894, 0.518, 192.0, 0.0, 0.0, 0.0, 0.0, 0.0, 0.0, 0.0, 0.0, 0.0, 1.654155332125038E9, 0.0, 2022-06-02 09:35:32.125
209.0, 24427.863887293803, -7270.597788166737, -62660.14279844079, -28884.846435170944, -13907.165993114233, -38044.05487108885, -7710.591877769456, -29334.451774889443, 0.002, 0.894, 0.518, 192.0, 0.0, 0.0, 0.0, 0.0, 0.0, 0.0, 0.0, 0.0, 0.0, 1.6541553321250436E9, 0.0, 2022-06-02 09:35:32.125
210.0, 24421.471288379587, -7277.817401625801, -62677.19717946019, -28898.458647544227, -13920.711150254148, -38059.45522301856, -7736.788122271076, -29350.120347752614, 0.002, 0.894, 0.518, 192.0, 0.0, 0.0, 0.0, 0.0, 0.0, 0.0, 0.0, 0.0, 0.0, 1.654155332125049E9, 0.0, 2022-06-02 09:35:32.125
211.0, 24419.571390100886, -7275.023433568887, -62684.774420830545, -28896.983432410176, -13922.812214232948, -38052.794403170876, -7735.648183303855, -29356.1776705, 0.002, 0.894, 0.518, 192.0, 0.0, 0.0, 0.0, 0.0, 0.0, 0.0, 0.0, 0.0, 0.0, 1.6541553321250544E9, 0.0, 2022-06-02 09:35:32.125
212.0, 24429.49556463904, -7254.996270536933, -62670.44695263469, -28873.648211198833, -13903.70147272366, -38029.28036800389, -7710.413063813814, -29304.83571348616, 0.002, 0.894, 0.518, 192.0, 0.0, 0.0, 0.0, 0.0, 0.0, 0.0, 0.0, 0.0, 0.0, 1.65415533212506E9, 0.0, 2022-06-02 09:35:32.125
213.0, 24436.424605420187, -7246.234386710452, -62655.44893210518, -28863.634629682856, -13890.46924000612, -38015.042306785865, -7712.558831281523, -29281.74636146383, 0.002, 0.894, 0.518, 192.0, 0.0, 0.0, 0.0, 0.0, 0.0, 0.0, 0.0, 0.0, 0.0, 1.654155332125065E9, 0.0, 2022-06-02 09:35:32.125
214.0, 24438.816242076904, -7252.492875157938, -62659.963984485155, -28866.47330122868, -13896.817135431425, -38022.19486501156, -7708.9154969353085, -29306.579149553676, 0.002, 0.894, 0.518, 192.0, 0.0, 0.0, 0.0, 0.0, 0.0, 0.0, 0.0, 0.0, 0.0, 1.6541553321250756E9, 0.0, 2022-06-02 09:35:32.125
215.0, 24426.321616926387, -7271.514209689404, -62689.40123193279, -28889.24972882864, -13918.453624064163, -38050.96156012554, -7724.449959331747, -29340.62085635911, 0.006, 0.886, 0.524, 192.0, 0.0, 48.0, 27.0, 176.0, 16.0, 96.0, 0.0, 0.0, 0.0, 1.6541553321250808E9, 0.0, 2022-06-02 09:35:32.125
216.0, 24417.35856739981, -7281.281922016374, -62703.147554772804, -28902.303147590537, -13932.42346434873, -38064.43966203209, -7749.48391312169, -29351.684969864487, 0.006, 0.886, 0.524, 192.0, 0.0, 0.0, 0.0, 0.0, 0.0, 0.0, 0.0, 0.0, 0.0, 1.6541553321250863E9, 0.0, 2022-06-02 09:35:32.125
217.0, 24431.842497806847, -7261.031241539865, -62680.304071939485, -28884.53351074857, -13910.697568738171, -38041.12679256521, -7723.846462231453, -29318.872609004095, 0.006, 0.886, 0.524, 192.0, 0.0, 0.0, 0.0, 0.0, 0.0, 0.0, 0.0, 0.0, 0.0, 1.654155332125092E9, 0.0, 2022-06-02 09:35:32.125
218.0, 24449.254506737532, -7244.535654131849, -62666.84832177739, -28873.648211198833, -13890.46924000612, -38030.3756034822, -7701.897049176342, -29308.27788213228, 0.006, 0.886, 0.524, 192.0, 0.0, 0.0, 0.0, 0.0, 0.0, 0.0, 0.0, 0.0, 0.0, 1.6541553321250973E9, 0.0, 2022-06-02 09:35:32.125
219.0, 24451.98141956108, -7252.62698562467, -62680.46053415067, -28881.225452569182, -13897.375929042808, -38043.496077477466, -7705.696845733744, -29324.527600351288, 0.006, 0.886, 0.524, 192.0, 0.0, 0.0, 0.0, 0.0, 0.0, 0.0, 0.0, 0.0, 0.0, 1.6541553321251023E9, 0.0, 2022-06-02 09:35:32.125
220.0, 24443.30894271242, -7262.841732840745, -62694.54213315751, -28894.457685286725, -13911.345769327376, -38054.94017063858, -7727.914479722319, -29332.283655677278, 0.006, 0.886, 0.524, 192.0, 0.0, 0.0, 0.0, 0.0, 0.0, 0.0, 0.0, 0.0, 0.0, 1.654155332125108E9, 0.0, 2022-06-02 09:35:32.125
221.0, 24424.824050047882, -7268.452020699027, -62698.40898494828, -28900.872635945398, -13921.247592121077, -38059.52227825192, -7736.274032148604, -29354.00955128784, 0.006, 0.886, 0.524, 192.0, 0.0, 0.0, 0.0, 0.0, 0.0, 0.0, 0.0, 0.0, 0.0, 1.6541553321251135E9, 0.0, 2022-06-02 09:35:32.125
222.0, 24426.746300071038, -7255.711526359502, -62679.678223094736, -28884.064124115008, -13907.411862303241, -38046.44650774557, -7719.152595895839, -29347.035807017783, 0.006, 0.886, 0.524, 192.0, 0.0, 0.0, 0.0, 0.0, 0.0, 0.0, 0.0, 0.0, 0.0, 1.6541553321251192E9, 0.0, 2022-06-02 09:35:32.125
223.0, 24447.086387525367, -7237.830130795256, -62656.76768502804, -28865.109844816907, -13879.136905567279, -38028.52040869241, -7687.927208891775, -29298.353707594124, 0.006, 0.886, 0.524, 192.0, 0.0, 0.0, 0.0, 0.0, 0.0, 0.0, 0.0, 0.0, 0.0, 1.6541553321251357E9, 0.0, 2022-06-02 09:35:32.125
224.0, 24433.07184375189, -7259.041936283343, -62681.60047311789, -28890.121446862395, -13895.967769142124, -38051.877981648206, -7704.8698311888975, -29314.737536279863, 0.006, 0.886, 0.524, 192.0, 0.0, 0.0, 0.0, 0.0, 0.0, 0.0, 0.0, 0.0, 0.0, 1.6541553321251411E9, 0.0, 2022-06-02 09:35:32.125
225.0, 24429.204991961124, -7267.893227087645, -62695.12327851335, -28897.318708577004, -13910.652865249262, -38059.79049918539, -7727.534500066579, -29327.43332713048, 0.004, 0.88, 0.518, 192.0, 0.0, 32.0, 27.0, 128.0, 16.0, 48.0, 0.0, 0.0, 0.0, 1.6541553321251464E9, 0.0, 2022-06-02 09:35:32.125
226.0, 24426.79100355995, -7266.283901486862, -62695.70442386919, -28896.134066120874, -13919.571211286928, -38061.13160385271, -7732.451883846747, -29357.362312956135, 0.004, 0.88, 0.518, 192.0, 0.0, 0.0, 0.0, 0.0, 0.0, 0.0, 0.0, 0.0, 0.0, 1.6541553321251519E9, 0.0, 2022-06-02 09:35:32.125
227.0, 24426.053395992923, -7256.180912993063, -62680.862865550866, -28886.679278216277, -13913.491536795085, -38048.10053683526, -7734.307078636537, -29348.846298318662, 0.004, 0.88, 0.518, 192.0, 0.0, 0.0, 0.0, 0.0, 0.0, 0.0, 0.0, 0.0, 0.0, 1.654155332125157E9, 0.0, 2022-06-02 09:35:32.125
228.0, 24442.101948511834, -7240.534691874349, -62659.181673429215, -28876.598641466935, -13898.135888354289, -38032.923702350105, -7731.446055346258, -29318.537332837266, 0.004, 0.88, 0.518, 192.0, 0.0, 0.0, 0.0, 0.0, 0.0, 0.0, 0.0, 0.0, 0.0, 1.6541553321251628E9, 0.0, 2022-06-02 09:35:32.125
229.0, 24442.25841072302, -7250.10123850122, -62670.60341484588, -28886.880443916376, -13904.729652968605, -38040.81386814283, -7718.347933095448, -29317.822077014695, 0.004, 0.88, 0.518, 192.0, 0.0, 0.0, 0.0, 0.0, 0.0, 0.0, 0.0, 0.0, 0.0, 1.6541553321251688E9, 0.0, 2022-06-02 09:35:32.125
230.0, 24427.84153554935, -7269.480200943971, -62689.512990655065, -28895.307051576026, -13926.187327645699, -38057.24240031748, -7729.322639623004, -29339.212696458424, 0.004, 0.88, 0.518, 192.0, 0.0, 0.0, 0.0, 0.0, 0.0, 0.0, 0.0, 0.0, 0.0, 1.654155332125174E9, 0.0, 2022-06-02 09:35:32.125
231.0, 24421.538343612952, -7270.776602122379, -62692.35166220089, -28896.648156243344, -13936.17855741722, -38057.890600906685, -7754.848331790964, -29339.547972625256, 0.004, 0.88, 0.518, 192.0, 0.0, 0.0, 0.0, 0.0, 0.0, 0.0, 0.0, 0.0, 0.0, 1.6541553321251795E9, 0.0, 2022-06-02 09:35:32.125
232.0, 24426.1651547152, -7256.158561248608, -62673.97852825863, -28881.717190947198, -13919.302990353464, -38042.378490254705, -7729.792026256565, -29327.768603297307, 0.004, 0.88, 0.518, 192.0, 0.0, 0.0, 0.0, 0.0, 0.0, 0.0, 0.0, 0.0, 0.0, 1.6541553321251848E9, 0.0, 2022-06-02 09:35:32.125
233.0, 24440.98436128907, -7240.869968041178, -62659.02521121803, -28869.870766385888, -13895.677196464205, -38030.53206569339, -7695.504450262124, -29322.448888116945, 0.004, 0.88, 0.518, 192.0, 0.0, 0.0, 0.0, 0.0, 0.0, 0.0, 0.0, 0.0, 0.0, 1.6541553321251905E9, 0.0, 2022-06-02 09:35:32.125
234.0, 24448.628657892783, -7245.809703565801, -62663.87553976483, -28875.257536799618, -13895.923065653215, -38034.64478667317, -7694.431566528269, -29321.89009450556, 0.004, 0.88, 0.518, 192.0, 0.0, 0.0, 0.0, 0.0, 0.0, 0.0, 0.0, 0.0, 0.0, 1.654155332125196E9, 0.0, 2022-06-02 09:35:32.125
235.0, 24435.88816355326, -7264.942796819544, -62683.9474062857, -28891.998993396643, -13915.726711240615, -38056.23657181699, -7716.448034816746, -29331.3225306657, -0.002, 0.886, 0.522, 192.0, 255.0, 240.0, 27.0, 176.0, 16.0, 80.0, 0.0, 0.0, 0.0, 1.6541553321252053E9, 0.0, 2022-06-02 09:35:32.125
236.0, 24430.613151861806, -7263.065250285298, -62679.96879577265, -28893.407153297325, -13918.453624064163, -38056.23657181699, -7735.268203648116, -29344.264190705326, -0.002, 0.886, 0.522, 192.0, 0.0, 0.0, 0.0, 0.0, 0.0, 0.0, 0.0, 0.0, 0.0, 1.6541553321252103E9, 0.0, 2022-06-02 09:35:32.125
237.0, 24437.385730431764, -7251.53175014636, -62665.2389961766, -28879.28085080157, -13907.389510558785, -38044.97129261152, -7739.29151765007, -29338.497440635856, -0.002, 0.886, 0.522, 192.0, 0.0, 0.0, 0.0, 0.0, 0.0, 0.0, 0.0, 0.0, 0.0, 1.6541553321252155E9, 0.0, 2022-06-02 09:35:32.125
238.0, 24444.44888167964, -7246.480255899461, -62659.51694959604, -28872.977658865173, -13899.745213955071, -38034.86830411772, -7717.409159828325, -29302.779352996273, -0.002, 0.886, 0.522, 192.0, 0.0, 0.0, 0.0, 0.0, 0.0, 0.0, 0.0, 0.0, 0.0, 1.6541553321252208E9, 0.0, 2022-06-02 09:35:32.125
239.0, 24434.59176237485, -7262.327642718273, -62676.57133061544, -28888.556824750525, -13904.148507612766, -38051.252132803456, -7690.0729763594845, -29323.722937550898, -0.002, 0.886, 0.522, 192.0, 0.0, 0.0, 0.0, 0.0, 0.0, 0.0, 0.0, 0.0, 0.0, 1.654155332125226E9, 0.0, 2022-06-02 09:35:32.125
240.0, 24434.614114119307, -7267.133267776164, -62682.6957085962, -28892.62484224139, -13911.882211194303, -38056.415385772634, -7720.560755796523, -29332.730690566386, -0.002, 0.886, 0.522, 192.0, 0.0, 0.0, 0.0, 0.0, 0.0, 0.0, 0.0, 0.0, 0.0, 1.6541553321252315E9, 0.0, 2022-06-02 09:35:32.125
241.0, 24440.760843844517, -7257.633776382659, -62672.033926491014, -28882.968888636697, -13914.318551339931, -38040.09861232026, -7729.076770433995, -29321.89009450556, -0.002, 0.886, 0.522, 192.0, 0.0, 0.0, 0.0, 0.0, 0.0, 0.0, 0.0, 0.0, 0.0, 1.654155332602826E9, 0.0, 2022-06-02 09:35:32.602
242.0, 24433.496526896542, -7252.045840268832, -62662.93676649771, -28877.29154554505, -13902.60623724535, -38026.55345518034, -7711.553002781035, -29308.836675743663, -0.002, 0.886, 0.522, 192.0, 0.0, 0.0, 0.0, 0.0, 0.0, 0.0, 0.0, 0.0, 0.0, 1.6541553326030068E9, 0.0, 2022-06-02 09:35:32.603
243.0, 24429.204991961124, -7254.303366458817, -62664.30022290948, -28874.028190854573, -13892.637359218284, -38031.314376749324, -7697.359645051914, -29310.066021688704, -0.002, 0.886, 0.522, 192.0, 0.0, 0.0, 0.0, 0.0, 0.0, 0.0, 0.0, 0.0, 0.0, 1.6541553326030128E9, 0.0, 2022-06-02 09:35:32.603
244.0, 24425.293436681444, -7265.456886942016, -62683.27685395204, -28887.059257872017, -13903.723824468116, -38042.937283866086, -7716.3139243500145, -29309.4178210995, -0.002, 0.886, 0.522, 192.0, 0.0, 0.0, 0.0, 0.0, 0.0, 0.0, 0.0, 0.0, 0.0, 1.6541553326030183E9, 0.0, 2022-06-02 09:35:32.603
245.0, 24416.889180766248, -7281.684253416569, -62699.70538612669, -28902.43725805727, -13926.343789856886, -38057.95765614005, -7734.932927481285, -29320.951321238437, -0.002, 0.886, 0.522, 192.0, 0.0, 0.0, 27.0, 144.0, 16.0, 64.0, 0.0, 0.0, 0.0, 1.6541553326030245E9, 0.0, 2022-06-02 09:35:32.603
246.0, 24417.17975344417, -7277.973863836988, -62692.97751104564, -28898.950385922242, -13928.400150346775, -38059.03053987391, -7731.803683257543, -29341.157298226037, -0.002, 0.886, 0.522, 192.0, 0.0, 0.0, 0.0, 0.0, 0.0, 0.0, 0.0, 0.0, 0.0, 1.6541553326030295E9, 0.0, 2022-06-02 09:35:32.603
247.0, 24414.408137131708, -7272.721203889991, -62684.707365597176, -28895.418810298303, -13920.845260720882, -38050.93920838108, -7720.203127885238, -29351.930839053493, -0.002, 0.886, 0.522, 192.0, 0.0, 0.0, 0.0, 0.0, 0.0, 0.0, 0.0, 0.0, 0.0, 1.6541553326030347E9, 0.0, 2022-06-02 09:35:32.603
248.0, 24418.342044155845, -7269.748421877435, -62683.165095229764, -28892.6695457303, -13913.871516450825, -38042.84787688826, -7715.129281893884, -29334.697644078453, -0.002, 0.886, 0.522, 192.0, 0.0, 0.0, 0.0, 0.0, 0.0, 0.0, 0.0, 0.0, 0.0, 1.6541553326030402E9, 0.0, 2022-06-02 09:35:32.603
249.0, 24419.526686611975, -7272.29652074534, -62688.93184529923, -28897.653984743833, -13913.156260628255, -38049.28517929139, -7710.725988236188, -29313.46348684591, -0.002, 0.886, 0.522, 192.0, 0.0, 0.0, 0.0, 0.0, 0.0, 0.0, 0.0, 0.0, 0.0, 1.6541553326030455E9, 0.0, 2022-06-02 09:35:32.603
250.0, 24416.576256343873, -7281.572494694293, -62697.73843261462, -28906.81819997051, -13926.94728695718, -38056.59419972828, -7737.592785071467, -29336.46343189042, -0.002, 0.886, 0.522, 192.0, 0.0, 0.0, 0.0, 0.0, 0.0, 0.0, 0.0, 0.0, 0.0, 1.6541553326030507E9, 0.0, 2022-06-02 09:35:32.603
251.0, 24411.63652081925, -7283.785317395368, -62697.000825047595, -28907.980490682185, -13930.076531180923, -38059.38816778519, -7738.956241483241, -29364.693685137474, -0.002, 0.886, 0.522, 192.0, 0.0, 0.0, 0.0, 0.0, 0.0, 0.0, 0.0, 0.0, 0.0, 1.6541553326030564E9, 0.0, 2022-06-02 09:35:32.603
252.0, 24420.241942434543, -7261.187703751052, -62668.23412993362, -28881.33721129146, -13897.442984276175, -38035.158876795635, -7709.273124846593, -29313.597597312644, -0.002, 0.886, 0.522, 192.0, 0.0, 0.0, 0.0, 0.0, 0.0, 0.0, 0.0, 0.0, 0.0, 1.654155332603062E9, 0.0, 2022-06-02 09:35:32.603
253.0, 24427.997997760536, -7254.325718203273, -62657.34883038388, -28874.586984465957, -13890.916274895226, -38023.73713537898, -7702.388787554359, -29301.594710540143, -0.002, 0.886, 0.522, 192.0, 0.0, 0.0, 0.0, 0.0, 0.0, 0.0, 0.0, 0.0, 0.0, 1.6541553326030676E9, 0.0, 2022-06-02 09:35:32.603
254.0, 24423.237076191555, -7268.29555848784, -62674.559673614465, -28892.133103863373, -13908.820022203927, -38041.305606520844, -7725.43343608778, -29330.33905390967, -0.002, 0.886, 0.522, 192.0, 0.0, 0.0, 0.0, 0.0, 0.0, 0.0, 0.0, 0.0, 0.0, 1.654155332603073E9, 0.0, 2022-06-02 09:35:32.603
255.0, 24411.301244652423, -7286.847506385745, -62700.26417973807, -28911.892045961864, -13931.082359681412, -38067.6359614892, -7752.948433512263, -29359.28456297929, 0.004, 0.882, 0.512, 192.0, 0.0, 32.0, 27.0, 144.0, 16.0, 0.0, 0.0, 0.0, 0.0, 1.654155332603078E9, 0.0, 2022-06-02 09:35:32.603
0.0, 24409.378994629264, -7286.020491840898, -62700.86767683837, -28917.81525824252, -13935.128025427823, -38073.760339469954, -7742.107837451439, -29359.28456297929, 0.004, 0.882, 0.512, 192.0, 0.0, 0.0, 0.0, 0.0, 0.0, 0.0, 0.0, 0.0, 0.0, 1.654155332603094E9, 0.0, 2022-06-02 09:35:32.603
1.0, 24415.056337720915, -7271.514209689404, -62672.30214742448, -28889.897929417843, -13915.972580429625, -38052.995568870974, -7713.296438848548, -29323.007681728326, 0.004, 0.882, 0.512, 192.0, 0.0, 0.0, 0.0, 0.0, 0.0, 0.0, 0.0, 0.0, 0.0, 1.6541553326030996E9, 0.0, 2022-06-02 09:35:32.603
2.0, 24420.331349412365, -7267.334433476261, -62666.73656305511, -28881.784246180567, -13903.053272134457, -38045.10540307825, -7709.541345780057, -29324.28173116228, 0.004, 0.882, 0.512, 192.0, 0.0, 0.0, 0.0, 0.0, 0.0, 0.0, 0.0, 0.0, 0.0, 1.6541553326031048E9, 0.0, 2022-06-02 09:35:32.603
3.0, 24419.4149278897, -7276.386889980661, -62683.299205696494, -28896.849321943442, -13911.256362349553, -38058.315284051336, -7728.830901244986, -29340.889077292573, 0.004, 0.882, 0.512, 192.0, 0.0, 0.0, 0.0, 0.0, 0.0, 0.0, 0.0, 0.0, 0.0, 1.65415533260311E9, 0.0, 2022-06-02 09:35:32.603
4.0, 24416.375090643774, -7287.003968596932, -62688.26129296557, -28913.456668073737, -13928.891888724791, -38077.02369416043, -7750.936776511286, -29359.843356590674, 0.004, 0.882, 0.512, 192.0, 0.0, 0.0, 0.0, 0.0, 0.0, 0.0, 0.0, 0.0, 0.0, 1.654155332603115E9, 0.0, 2022-06-02 09:35:32.603
5.0, 24403.45578234861, -7294.782375667379, -62689.20006623269, -28922.643235044867, -13940.939478986202, -38081.9857814295, -7748.366325898925, -29352.33317045369, 0.004, 0.882, 0.512, 192.0, 0.0, 0.0, 0.0, 0.0, 0.0, 0.0, 0.0, 0.0, 0.0, 1.65415533260312E9, 0.0, 2022-06-02 09:35:32.603
6.0, 24406.763840527994, -7274.397584724139, -62667.16124619976, -28898.48099928868, -13922.365179343842, -38054.09080434928, -7719.018485429107, -29327.27686491929, 0.004, 0.882, 0.512, 192.0, 0.0, 0.0, 0.0, 0.0, 0.0, 0.0, 0.0, 0.0, 0.0, 1.6541553326031253E9, 0.0, 2022-06-02 09:35:32.603
7.0, 24422.29830292443, -7260.181875250563, -62657.19236817269, -28886.075781115986, -13909.691740237682, -38042.646711188165, -7732.608346057934, -29331.009606243326, 0.004, 0.882, 0.512, 192.0, 0.0, 0.0, 0.0, 0.0, 0.0, 0.0, 0.0, 0.0, 0.0, 1.6541553326031313E9, 0.0, 2022-06-02 09:35:32.603
8.0, 24422.410061646708, -7268.9661108215, -62671.38572590181, -28899.933862678274, -13919.347693842376, -38058.47174626252, -7740.230290917193, -29337.916295280018, 0.004, 0.882, 0.512, 192.0, 0.0, 0.0, 0.0, 0.0, 0.0, 0.0, 0.0, 0.0, 0.0, 1.6541553326031363E9, 0.0, 2022-06-02 09:35:32.603
9.0, 24416.285683665956, -7274.643453913147, -62680.75110682859, -28905.275929603093, -13935.552708572473, -38066.563077755345, -7739.269165905615, -29336.23991444587, 0.004, 0.892, 0.508, 192.0, 0.0, 32.0, 27.0, 224.0, 15.0, 224.0, 0.0, 0.0, 0.0, 1.6541553326031415E9, 0.0, 2022-06-02 09:35:32.603
10.0, 24412.485887108553, -7270.508381188915, -62670.75987705706, -28903.599548768947, -13938.547842329484, -38061.35512129726, -7752.166122456328, -29354.233068732392, 0.004, 0.892, 0.508, 192.0, 0.0, 0.0, 0.0, 0.0, 0.0, 0.0, 0.0, 0.0, 0.0, 1.6541553326031468E9, 0.0, 2022-06-02 09:35:32.603
11.0, 24418.07382322238, -7256.7620583489015, -62649.41396110225, -28886.031077627074, -13923.169842144232, -38045.28421703389, -7725.522843065602, -29319.99019622686, 0.004, 0.892, 0.508, 192.0, 0.0, 0.0, 0.0, 0.0, 0.0, 0.0, 0.0, 0.0, 0.0, 1.6541553326031525E9, 0.0, 2022-06-02 09:35:32.603
12.0, 24439.17386998819, -7241.71933433048, -62633.07483590542, -28869.513138474602, -13900.527525011006, -38026.82167611381, -7699.974799153185, -29308.434344343466, 0.004, 0.892, 0.508, 192.0, 0.0, 0.0, 0.0, 0.0, 0.0, 0.0, 0.0, 0.0, 0.0, 1.6541553326031585E9, 0.0, 2022-06-02 09:35:32.603
13.0, 24440.60438163333, -7251.844674568734, -62646.038847689495, -28889.62970848438, -13913.335074583898, -38043.54078096638, -7720.270183118604, -29339.078585991694, 0.004, 0.892, 0.508, 192.0, 0.0, 0.0, 0.0, 0.0, 0.0, 0.0, 0.0, 0.0, 0.0, 1.6541553326031635E9, 0.0, 2022-06-02 09:35:32.603
14.0, 24430.590800117352, -7267.759116620912, -62668.748220056084, -28905.700612747743, -13937.340848128897, -38070.31817082383, -7742.554872340545, -29349.874478563604, 0.004, 0.892, 0.508, 192.0, 0.0, 0.0, 0.0, 0.0, 0.0, 0.0, 0.0, 0.0, 0.0, 1.6541553326031697E9, 0.0, 2022-06-02 09:35:32.603
15.0, 24429.294398938942, -7263.132305518664, -62666.55774909947, -28896.75991496562, -13933.451644593675, -38067.01011264445, -7732.384828613381, -29345.739405839373, 0.004, 0.892, 0.508, 192.0, 0.0, 0.0, 0.0, 0.0, 0.0, 0.0, 0.0, 0.0, 0.0, 1.6541553326031759E9, 0.0, 2022-06-02 09:35:32.603
16.0, 24435.68699785316, -7247.57549137777, -62640.04858017548, -28877.67152520079, -13910.295237337976, -38041.55147570986, -7716.984476683674, -29327.209809685926, 0.004, 0.892, 0.508, 192.0, 0.0, 0.0, 0.0, 0.0, 0.0, 0.0, 0.0, 0.0, 0.0, 1.654155332603181E9, 0.0, 2022-06-02 09:35:32.603
17.0, 24432.893029796247, -7245.34031693224, -62636.3828940848, -28877.582118222967, -13905.064929135435, -38036.231760529496, -7725.679305276788, -29322.33712939467, 0.004, 0.892, 0.508, 192.0, 0.0, 0.0, 0.0, 0.0, 0.0, 0.0, 0.0, 0.0, 0.0, 1.654155332603186E9, 0.0, 2022-06-02 09:35:32.603
18.0, 24430.54609662844, -7255.488008914949, -62648.25167039057, -28883.393571781347, -13909.356464070854, -38044.323092022314, -7725.902822721341, -29309.37311761059, 0.004, 0.892, 0.508, 192.0, 0.0, 0.0, 0.0, 0.0, 0.0, 0.0, 0.0, 0.0, 0.0, 1.6541553326031911E9, 0.0, 2022-06-02 09:35:32.603
19.0, 24422.722986069082, -7272.430631212072, -62671.07280147944, -28901.81140921252, -13925.337961356397, -38061.24336257498, -7719.912555207319, -29334.340016167167, 0.012, 0.886, 0.512, 192.0, 0.0, 96.0, 27.0, 176.0, 16.0, 0.0, 0.0, 0.0, 0.0, 1.6541553326031964E9, 0.0, 2022-06-02 09:35:32.603
20.0, 24414.005805731515, -7277.996215581444, -62671.698650324186, -28905.47709530319, -13935.686819039205, -38062.56211549784, -7741.504340351145, -29360.15628101305, 0.012, 0.886, 0.512, 192.0, 0.0, 0.0, 0.0, 0.0, 0.0, 0.0, 0.0, 0.0, 0.0, 1.6541553326032035E9, 0.0, 2022-06-02 09:35:32.603
21.0, 24420.420756390187, -7260.137171761653, -62651.22445240313, -28886.34400204945, -13917.336036841398, -38043.987815855486, -7733.725933280699, -29338.251571446846, 0.012, 0.886, 0.512, 192.0, 0.0, 0.0, 0.0, 0.0, 0.0, 0.0, 0.0, 0.0, 0.0, 1.6541553326032088E9, 0.0, 2022-06-02 09:35:32.603
22.0, 24423.661759336206, -7260.047764783832, -62652.81142625945, -28888.445066028245, -13911.770452472027, -38041.93145536559, -7717.587973783967, -29319.498457848844, 0.012, 0.886, 0.512, 192.0, 0.0, 0.0, 0.0, 0.0, 0.0, 0.0, 0.0, 0.0, 0.0, 1.6541553326032162E9, 0.0, 2022-06-02 09:35:32.603
23.0, 24432.98243677407, -7260.003061294921, -62652.72201928163, -28889.786170695566, -13909.17765011521, -38044.256036788945, -7711.932982436774, -29324.684062562475, 0.012, 0.886, 0.512, 192.0, 0.0, 0.0, 0.0, 0.0, 0.0, 0.0, 0.0, 0.0, 0.0, 1.6541553326032212E9, 0.0, 2022-06-02 09:35:32.603
24.0, 24420.711329068105, -7275.246951013441, -62665.79778978799, -28905.454743558737, -13926.120272412334, -38063.61264748724, -7736.765770526621, -29351.3273419532, 0.012, 0.886, 0.512, 192.0, 0.0, 0.0, 0.0, 0.0, 0.0, 0.0, 0.0, 0.0, 0.0, 1.6541553326032264E9, 0.0, 2022-06-02 09:35:32.603
25.0, 24421.69480582414, -7269.39079396615, -62664.277871165024, -28902.549016779547, -13932.89285098229, -38062.31624630884, -7759.788067315587, -29358.2787344788, 0.012, 0.886, 0.512, 192.0, 0.0, 0.0, 0.0, 0.0, 0.0, 0.0, 0.0, 0.0, 0.0, 1.6541553326032317E9, 0.0, 2022-06-02 09:35:32.603
26.0, 24422.25359943552, -7259.891302572644, -62654.219586160136, -28894.681202731277, -13923.482766566607, -38052.10149909276, -7745.05826771954, -29338.4750888914, 0.012, 0.886, 0.512, 192.0, 0.0, 0.0, 0.0, 0.0, 0.0, 0.0, 0.0, 0.0, 0.0, 1.6541553326032367E9, 0.0, 2022-06-02 09:35:32.603
27.0, 24429.74143382805, -7253.968090291988, -62642.01553368754, -28880.465493257703, -13903.857934934847, -38039.33865300878, -7704.154575366328, -29302.51113206281, 0.012, 0.886, 0.512, 192.0, 0.0, 0.0, 0.0, 0.0, 0.0, 0.0, 0.0, 0.0, 0.0, 1.6541553326032417E9, 0.0, 2022-06-02 09:35:32.603
28.0, 24430.3672826728, -7259.734840361458, -62650.84447274738, -28888.489769517157, -13905.243743091076, -38048.301702535355, -7717.185642383772, -29324.728766051387, 0.008, 0.886, 0.502, 192.0, 0.0, 64.0, 27.0, 176.0, 15.0, 176.0, 0.0, 0.0, 0.0, 1.6541553326032467E9, 0.0, 2022-06-02 09:35:32.603
29.0, 24427.03687274896, -7269.167276521597, -62671.31867066845, -28910.327423849994, -13922.1863653882, -38068.038292889396, -7751.9426050117745, -29377.61299343264, 0.008, 0.886, 0.502, 192.0, 0.0, 0.0, 0.0, 0.0, 0.0, 0.0, 0.0, 0.0, 0.0, 1.6541553326032526E9, 0.0, 2022-06-02 09:35:32.603
30.0, 24423.59470410284, -7266.462715442505, -62669.08349622292, -28901.230263856683, -13913.89386819528, -38060.70692070806, -7721.81245348602, -29337.71512957992, 0.008, 0.886, 0.502, 192.0, 0.0, 0.0, 0.0, 0.0, 0.0, 0.0, 0.0, 0.0, 0.0, 1.654155332603258E9, 0.0, 2022-06-02 09:35:32.603
31.0, 24424.10879422531, -7257.656128127114, -62656.92414723923, -28876.688048444757, -13899.342882554876, -38039.69628092006, -7704.780424211076, -29307.361460609613, 0.008, 0.886, 0.502, 192.0, 0.0, 0.0, 0.0, 0.0, 0.0, 0.0, 0.0, 0.0, 0.0, 1.654155332603263E9, 0.0, 2022-06-02 09:35:32.603
32.0, 24432.60245711833, -7250.369459434683, -62649.57042331343, -28869.557841963513, -13900.348711055365, -38027.134600536185, -7718.079712161984, -29310.714222277908, 0.008, 0.886, 0.502, 192.0, 0.0, 0.0, 0.0, 0.0, 0.0, 0.0, 0.0, 0.0, 0.0, 1.6541553326032684E9, 0.0, 2022-06-02 09:35:32.603
33.0, 24436.469308909098, -7257.7008316160245, -62657.32647863943, -28878.94557463474, -13904.774356457516, -38035.20358028455, -7728.4062181003355, -29310.535408322266, 0.008, 0.886, 0.502, 192.0, 0.0, 0.0, 0.0, 0.0, 0.0, 0.0, 0.0, 0.0, 0.0, 1.6541553326032736E9, 0.0, 2022-06-02 09:35:32.603
34.0, 24429.1155849833, -7271.648320156136, -62676.45957189317, -28896.916377176807, -13922.745158999582, -38059.566981740834, -7746.19820668676, -29349.2262779744, 0.008, 0.886, 0.502, 192.0, 0.0, 0.0, 0.0, 0.0, 0.0, 0.0, 0.0, 0.0, 0.0, 1.6541553326032786E9, 0.0, 2022-06-02 09:35:32.603
35.0, 24425.852230292825, -7268.6755381435805, -62678.80650506097, -28895.508217276125, -13925.494423567585, -38059.29876080737, -7755.8765120359085, -29366.995914816373, 0.008, 0.886, 0.502, 192.0, 0.0, 0.0, 0.0, 0.0, 0.0, 0.0, 0.0, 0.0, 0.0, 1.654155332603284E9, 0.0, 2022-06-02 09:35:32.603
36.0, 24418.3643959003, -7266.328604975773, -62670.62576659033, -28895.307051576026, -13921.135833398801, -38050.5815804698, -7748.321622410014, -29345.38177792809, 0.008, 0.886, 0.502, 192.0, 0.0, 0.0, 0.0, 0.0, 0.0, 0.0, 0.0, 0.0, 0.0, 1.6541553326032891E9, 0.0, 2022-06-02 09:35:32.603
37.0, 24420.01842498999, -7260.5171514173935, -62669.038792734005, -28886.612222982912, -13914.050330406468, -38048.34640602427, -7713.072921403996, -29320.012547971317, 0.008, 0.886, 0.502, 192.0, 0.0, 0.0, 0.0, 0.0, 0.0, 0.0, 0.0, 0.0, 0.0, 1.6541553326032941E9, 0.0, 2022-06-02 09:35:32.603
38.0, 24421.761861057505, -7268.809648610312, -62674.000880003085, -28892.066048630008, -13914.832641462404, -38058.42704277361, -7721.723046508199, -29317.263283403314, 0.004, 0.884, 0.51, 192.0, 0.0, 32.0, 27.0, 160.0, 15.0, 240.0, 0.0, 0.0, 0.0, 1.6541553326032996E9, 0.0, 2022-06-02 09:35:32.603
39.0, 24417.291512166445, -7280.544314449348, -62686.227284220135, -28906.371165081404, -13928.556612557963, -38071.72633072452, -7746.421724131314, -29338.162164469024, 0.004, 0.884, 0.51, 192.0, 0.0, 0.0, 0.0, 0.0, 0.0, 0.0, 0.0, 0.0, 0.0, 1.6541553326033046E9, 0.0, 2022-06-02 09:35:32.603
40.0, 24424.466422136597, -7268.317910232296, -62675.14081897031, -28894.7706097091, -13923.32630435542, -38062.092728864285, -7736.430494359791, -29345.89586805056, 0.004, 0.884, 0.51, 192.0, 0.0, 0.0, 0.0, 0.0, 0.0, 0.0, 0.0, 0.0, 0.0, 1.6541553326033096E9, 0.0, 2022-06-02 09:35:32.603
41.0, 24432.088366995857, -7253.454000169516, -62654.53251058251, -28877.29154554505, -13905.780184958005, -38046.60296995675, -7726.461616332725, -29344.733577338884, 0.004, 0.884, 0.51, 192.0, 0.0, 0.0, 0.0, 0.0, 0.0, 0.0, 0.0, 0.0, 0.0, 1.6541553326033149E9, 0.0, 2022-06-02 09:35:32.603
42.0, 24435.865811808802, -7250.6600321126025, -62651.87265299233, -28876.84451065594, -13901.600408744862, -38047.56409496833, -7718.996133684652, -29348.935705296484, 0.004, 0.884, 0.51, 192.0, 0.0, 0.0, 0.0, 0.0, 0.0, 0.0, 0.0, 0.0, 0.0, 1.65415533260332E9, 0.0, 2022-06-02 09:35:32.603
43.0, 24432.714215840606, -7263.400526452127, -62668.36824040035, -28892.89306317485, -13911.65869374975, -38062.80798468685, -7729.210880900727, -29340.03971100327, 0.004, 0.884, 0.51, 192.0, 0.0, 0.0, 0.0, 0.0, 0.0, 0.0, 0.0, 0.0, 0.0, 1.6541553326033273E9, 0.0, 2022-06-02 09:35:32.603
44.0, 24426.1651547152, -7275.53752369136, -62678.80650506097, -28904.493618547156, -13924.130967155812, -38071.21224060205, -7744.968860741718, -29341.939609281973, 0.004, 0.884, 0.51, 192.0, 0.0, 0.0, 0.0, 0.0, 0.0, 0.0, 0.0, 0.0, 0.0, 1.6541553326033323E9, 0.0, 2022-06-02 09:35:32.603
45.0, 24425.1146227258, -7270.217808510996, -62673.866769536355, -28901.364374323413, -13924.645057278283, -38063.32207480932, -7740.274994406104, -29351.752025097852, 0.004, 0.884, 0.51, 192.0, 0.0, 0.0, 0.0, 0.0, 0.0, 0.0, 0.0, 0.0, 0.0, 1.6541553326033373E9, 0.0, 2022-06-02 09:35:32.603
46.0, 24429.182640216666, -7256.4714856709825, -62661.01451647455, -28893.34009806396, -13914.318551339931, -38047.966426368526, -7726.707485521732, -29339.682083091986, 0.004, 0.884, 0.51, 192.0, 0.0, 0.0, 0.0, 0.0, 0.0, 0.0, 0.0, 0.0, 0.0, 1.6541553326033423E9, 0.0, 2022-06-02 09:35:32.603
47.0, 24427.059224493412, -7254.660994370102, -62662.2885659085, -28880.95723163572, -13909.356464070854, -38045.664196689635, -7729.680267534289, -29339.3244551807, 0.004, 0.884, 0.51, 192.0, 0.0, 0.0, 0.0, 0.0, 0.0, 0.0, 0.0, 0.0, 0.0, 1.6541553326033473E9, 0.0, 2022-06-02 09:35:32.603
48.0, 24420.420756390187, -7268.832000354768, -62670.245786934596, -28890.72494396269, -13919.66061826475, -38067.77007195593, -7748.053401476551, -29342.677216849, 0.004, 0.886, 0.512, 192.0, 0.0, 32.0, 27.0, 176.0, 16.0, 0.0, 0.0, 0.0, 0.0, 1.6541553326033523E9, 0.0, 2022-06-02 09:35:32.603
49.0, 24421.381881401765, -7276.878628358678, -62669.12819971183, -28902.10198189044, -13924.46624332264, -38077.38132207171, -7745.572357842012, -29366.995914816373, 0.004, 0.886, 0.512, 192.0, 0.0, 0.0, 0.0, 0.0, 0.0, 0.0, 0.0, 0.0, 0.0, 1.6541553326033576E9, 0.0, 2022-06-02 09:35:32.603
50.0, 24419.0125964895, -7277.213904525507, -62672.9950515026, -28903.510141791125, -13930.367103858842, -38068.507679522954, -7734.262375147627, -29363.307876981245, 0.004, 0.886, 0.512, 192.0, 0.0, 0.0, 0.0, 0.0, 0.0, 0.0, 0.0, 0.0, 0.0, 1.6541553326033628E9, 0.0, 2022-06-02 09:35:32.603
51.0, 24428.176811716177, -7259.265453727896, -62655.82891176092, -28885.025249126586, -13918.833603719904, -38048.90519963565, -7740.297346150559, -29330.584923098675, 0.004, 0.886, 0.512, 192.0, 0.0, 0.0, 0.0, 0.0, 0.0, 0.0, 0.0, 0.0, 0.0, 1.6541553326033678E9, 0.0, 2022-06-02 09:35:32.603
52.0, 24437.519840898498, -7253.096372258231, -62644.094245921886, -28874.586984465957, -13903.343844812376, -38033.05781281684, -7731.736628024177, -29306.489742575854, 0.004, 0.886, 0.512, 192.0, 0.0, 0.0, 0.0, 0.0, 0.0, 0.0, 0.0, 0.0, 0.0, 1.6541553326033728E9, 0.0, 2022-06-02 09:35:32.603
53.0, 24443.733625857072, -7254.191607736541, -62646.664696534244, -28877.492711245148, -13900.929856411203, -38039.00337684195, -7715.464558060713, -29318.22440841489, 0.004, 0.886, 0.512, 192.0, 0.0, 0.0, 0.0, 0.0, 0.0, 0.0, 0.0, 0.0, 0.0, 1.654155332603378E9, 0.0, 2022-06-02 09:35:32.603
54.0, 24434.100023996834, -7272.363575978706, -62666.71421131065, -28901.744353979157, -13921.09112990989, -38065.95958065505, -7734.8658722479195, -29359.10574902365, 0.004, 0.886, 0.512, 192.0, 0.0, 0.0, 0.0, 0.0, 0.0, 0.0, 0.0, 0.0, 0.0, 1.6541553326033835E9, 0.0, 2022-06-02 09:35:32.603
55.0, 24429.40615766122, -7275.761041135913, -62663.89789150929, -28903.733659235677, -13928.333095113408, -38063.21031608705, -7735.402314114847, -29345.873516306106, 0.004, 0.886, 0.512, 192.0, 0.0, 0.0, 0.0, 0.0, 0.0, 0.0, 0.0, 0.0, 0.0, 1.6541553326033888E9, 0.0, 2022-06-02 09:35:32.603
56.0, 24433.317712940898, -7260.383040950661, -62647.7375802681, -28890.18850209576, -13912.820984461427, -38044.30074027786, -7719.7784447405875, -29324.415841629012, 0.004, 0.886, 0.512, 192.0, 0.0, 0.0, 0.0, 0.0, 0.0, 0.0, 0.0, 0.0, 0.0, 1.6541553326033938E9, 0.0, 2022-06-02 09:35:32.603
57.0, 24427.908590782714, -7259.734840361458, -62647.42465584572, -28890.00968814012, -13904.014397146035, -38042.55730421034, -7713.497604548646, -29331.90367602154, 0.004, 0.886, 0.512, 192.0, 0.0, 0.0, 0.0, 0.0, 0.0, 0.0, 0.0, 0.0, 0.0, 1.654155332603399E9, 0.0, 2022-06-02 09:35:32.603
58.0, 24428.534439627463, -7265.72510787548, -62657.48294085061, -28899.308013833528, -13908.194173359178, -38058.516449751434, -7721.723046508199, -29359.217507745925, 0.002, 0.886, 0.516, 192.0, 0.0, 16.0, 27.0, 176.0, 16.0, 32.0, 0.0, 0.0, 0.0, 1.654155332603404E9, 0.0, 2022-06-02 09:35:32.603
59.0, 24416.68801506615, -7285.908733118622, -62679.78998181701, -28920.564522810524, -13934.122196927334, -38081.40463607367, -7747.360497398437, -29354.90362106605, 0.002, 0.886, 0.516, 192.0, 0.0, 0.0, 0.0, 0.0, 0.0, 0.0, 0.0, 0.0, 0.0, 1.6541553326034093E9, 0.0, 2022-06-02 09:35:32.603
60.0, 24423.438241891654, -7277.079794058775, -62674.02323174754, -28911.422659328302, -13939.084284196411, -38070.42992954611, -7755.518884124624, -29325.824001529694, 0.002, 0.886, 0.516, 192.0, 0.0, 0.0, 0.0, 0.0, 0.0, 0.0, 0.0, 0.0, 0.0, 1.6541553326034143E9, 0.0, 2022-06-02 09:35:32.603
61.0, 24428.132108227266, -7263.9146165746, -62656.87944375032, -28891.14962710734, -13930.65767653676, -38044.07722283331, -7750.288575922082, -29333.781222555786, 0.002, 0.886, 0.516, 192.0, 0.0, 0.0, 0.0, 0.0, 0.0, 0.0, 0.0, 0.0, 0.0, 1.6541553326034193E9, 0.0, 2022-06-02 09:35:32.603
62.0, 24437.989227532056, -7252.403468180117, -62640.5850220424, -28878.94557463474, -13914.27384785102, -38027.84985635875, -7726.416912843813, -29339.212696458424, 0.002, 0.886, 0.516, 192.0, 0.0, 0.0, 0.0, 0.0, 0.0, 0.0, 0.0, 0.0, 0.0, 1.6541553326034248E9, 0.0, 2022-06-02 09:35:32.603
63.0, 24437.296323453942, -7261.05359328432, -62658.555824584466, -28898.592758010956, -13920.308818853953, -38044.4795542335, -7746.287613664582, -29345.51588839482, 0.002, 0.886, 0.516, 192.0, 0.0, 0.0, 0.0, 0.0, 0.0, 0.0, 0.0, 0.0, 0.0, 1.6541553326034298E9, 0.0, 2022-06-02 09:35:32.603
64.0, 24434.21178271911, -7271.156581778119, -62666.26717642155, -28900.604415011934, -13929.361275358353, -38056.10246135026, -7739.112703694428, -29350.05329251925, 0.002, 0.886, 0.516, 192.0, 0.0, 0.0, 0.0, 0.0, 0.0, 0.0, 0.0, 0.0, 0.0, 1.6541553326034372E9, 0.0, 2022-06-02 09:35:32.603
65.0, 24428.82501230538, -7267.870875343189, -62656.61122281686, -28892.021345141096, -13924.198022389177, -38056.549496239364, -7723.466482575713, -29356.401187944557, 0.002, 0.886, 0.516, 192.0, 0.0, 0.0, 0.0, 0.0, 0.0, 0.0, 0.0, 0.0, 0.0, 1.6541553326034422E9, 0.0, 2022-06-02 09:35:32.603
66.0, 24432.15542222922, -7261.567683406793, -62647.849338990374, -28882.834778169967, -13914.765586229038, -38048.726385680005, -7741.370229884414, -29331.635455088075, 0.002, 0.886, 0.516, 192.0, 0.0, 0.0, 0.0, 0.0, 0.0, 0.0, 0.0, 0.0, 0.0, 1.6541553326034472E9, 0.0, 2022-06-02 09:35:32.603
67.0, 24432.937733285158, -7259.108991516709, -62649.50336808007, -28883.28181305907, -13914.564420528939, -38046.67002519012, -7739.313869394526, -29328.930894008983, 0.002, 0.886, 0.516, 192.0, 0.0, 0.0, 0.0, 0.0, 0.0, 0.0, 0.0, 0.0, 0.0, 1.6541553326034524E9, 0.0, 2022-06-02 09:35:32.603
68.0, 24434.055320507923, -7260.248930483929, -62651.64913554778, -28883.86295841491, -13908.462394292641, -38043.38431875519, -7720.672514518799, -29331.590751599164, 0.006, 0.88, 0.512, 192.0, 0.0, 48.0, 27.0, 128.0, 16.0, 0.0, 0.0, 0.0, 0.0, 1.6541553326034577E9, 0.0, 2022-06-02 09:35:32.603
69.0, 24430.188468717155, -7271.693023645047, -62662.02034497504, -28896.58110100998, -13919.03476942, -38055.32015029433, -7725.344029109959, -29347.259324462335, 0.006, 0.88, 0.512, 192.0, 0.0, 0.0, 0.0, 0.0, 0.0, 0.0, 0.0, 0.0, 0.0, 1.6541553326034627E9, 0.0, 2022-06-02 09:35:32.603
70.0, 24423.75116631403, -7274.844619613245, -62670.581063101425, -28904.940653436264, -13930.724731770128, -38067.54655451138, -7750.601500344455, -29368.29231599478, 0.006, 0.88, 0.512, 192.0, 0.0, 0.0, 0.0, 0.0, 0.0, 0.0, 0.0, 0.0, 0.0, 1.654155332603468E9, 0.0, 2022-06-02 09:35:32.603
71.0, 24425.718119826095, -7262.729974118469, -62654.10782743786, -28888.534473006068, -13921.404054332264, -38052.4814787485, -7738.777427527599, -29332.14954521055, 0.006, 0.88, 0.512, 192.0, 0.0, 0.0, 0.0, 0.0, 0.0, 0.0, 0.0, 0.0, 0.0, 1.6541553326034732E9, 0.0, 2022-06-02 09:35:32.603
72.0, 24434.234134463568, -7256.896168815633, -62645.56946105594, -28876.084551344462, -13913.08920539489, -38039.6292256867, -7721.76774999711, -29310.669518788996, 0.006, 0.88, 0.512, 192.0, 0.0, 0.0, 0.0, 0.0, 0.0, 0.0, 0.0, 0.0, 0.0, 1.6541553326034784E9, 0.0, 2022-06-02 09:35:32.603
73.0, 24428.489736138552, -7267.423840454083, -62666.26717642155, -28891.350792807436, -13923.169842144232, -38057.331807295304, -7738.933889738785, -29335.99404525686, 0.006, 0.88, 0.512, 192.0, 0.0, 0.0, 0.0, 0.0, 0.0, 0.0, 0.0, 0.0, 0.0, 1.6541553326034837E9, 0.0, 2022-06-02 09:35:32.603
74.0, 24422.387709902254, -7278.286788259362, -62682.338080684916, -28906.259406359128, -13933.116368426845, -38074.944981926084, -7744.812398530531, -29355.61887688862, 0.006, 0.88, 0.512, 192.0, 0.0, 0.0, 0.0, 0.0, 0.0, 0.0, 0.0, 0.0, 0.0, 1.6541553326034887E9, 0.0, 2022-06-02 09:35:32.603
75.0, 24423.438241891654, -7277.325663247784, -62683.38861267432, -28908.62869127139, -13940.246574908087, -38075.928458682116, -7755.2283114467045, -29355.23889723288, 0.006, 0.88, 0.512, 192.0, 0.0, 0.0, 0.0, 0.0, 0.0, 0.0, 0.0, 0.0, 0.0, 1.654155332603494E9, 0.0, 2022-06-02 09:35:32.603
76.0, 24431.641332106752, -7258.617253138692, -62663.04852521999, -28883.773551437087, -13925.89675496778, -38052.39207177068, -7745.505302608646, -29328.148582953047, 0.006, 0.88, 0.512, 192.0, 0.0, 0.0, 0.0, 0.0, 0.0, 0.0, 0.0, 0.0, 0.0, 1.6541553326034992E9, 0.0, 2022-06-02 09:35:32.603
77.0, 24431.97660827358, -7250.4812181569605, -62655.605394316364, -28874.072894343484, -13908.864725692836, -38042.803173399356, -7721.343066852459, -29320.70545204943, 0.006, 0.88, 0.512, 192.0, 0.0, 0.0, 0.0, 0.0, 0.0, 0.0, 0.0, 0.0, 0.0, 1.654155332603505E9, 0.0, 2022-06-02 09:35:32.603
78.0, 24431.574276873383, -7258.796067094335, -62668.72586831163, -28894.502388775636, -13913.625647261817, -38057.86824916223, -7728.696790778255, -29354.456586176944, 0.004, 0.88, 0.514, 192.0, 0.0, 32.0, 27.0, 128.0, 16.0, 16.0, 0.0, 0.0, 0.0, 1.65415533260351E9, 0.0, 2022-06-02 09:35:32.603
79.0, 24420.4654598791, -7279.471430715494, -62693.24573197911, -28912.80846748453, -13938.681952796216, -38085.38324658671, -7756.502360880657, -29382.038638834794, 0.004, 0.88, 0.514, 192.0, 0.0, 0.0, 0.0, 0.0, 0.0, 0.0, 0.0, 0.0, 0.0, 1.6541553326035151E9, 0.0, 2022-06-02 09:35:32.603
80.0, 24415.2127999321, -7283.405337739628, -62688.28364471003, -28909.254540116137, -13944.403999376775, -38089.02658093293, -7756.368250413925, -29328.66267307552, 0.004, 0.88, 0.514, 192.0, 0.0, 0.0, 0.0, 0.0, 0.0, 0.0, 0.0, 0.0, 0.0, 1.6541553326035204E9, 0.0, 2022-06-02 09:35:32.603
81.0, 24428.02034950499, -7263.758154363412, -62665.79778978799, -28890.769647451598, -13931.149414914778, -38068.57473475632, -7746.86875902042, -29343.347769182656, 0.004, 0.88, 0.514, 192.0, 0.0, 0.0, 0.0, 0.0, 0.0, 0.0, 0.0, 0.0, 0.0, 1.6541553326035256E9, 0.0, 2022-06-02 09:35:32.603
82.0, 24450.84148059386, -7241.3840581636505, -62642.99901044357, -28865.288658772548, -13904.640245990784, -38041.55147570986, -7721.43247383028, -29333.04361498876, 0.004, 0.88, 0.514, 192.0, 0.0, 0.0, 0.0, 0.0, 0.0, 0.0, 0.0, 0.0, 0.0, 1.654155332603531E9, 0.0, 2022-06-02 09:35:32.603
83.0, 24453.1213585283, -7248.715430344991, -62656.14183618329, -28873.33528677646, -13908.12711812581, -38049.57575196931, -7729.501453578646, -29330.160239954024, 0.004, 0.88, 0.514, 192.0, 0.0, 0.0, 0.0, 0.0, 0.0, 0.0, 0.0, 0.0, 0.0, 1.654155332603536E9, 0.0, 2022-06-02 09:35:32.603
84.0, 24439.106814754825, -7274.1964190240415, -62673.62090034734, -28899.73269697818, -13935.37389461683, -38075.77199647093, -7769.511076153645, -29356.356484455646, 0.004, 0.88, 0.514, 192.0, 0.0, 0.0, 0.0, 0.0, 0.0, 0.0, 0.0, 0.0, 0.0, 1.654155332603541E9, 0.0, 2022-06-02 09:35:32.603
85.0, 24426.187506459657, -7288.836811642267, -62686.31669119796, -28918.843438487464, -13954.328173914932, -38094.234537391014, -7787.168954273338, -29396.00847911936, 0.004, 0.88, 0.514, 192.0, 0.0, 0.0, 0.0, 0.0, 0.0, 0.0, 0.0, 0.0, 0.0, 1.654155332603546E9, 0.0, 2022-06-02 09:35:32.603
86.0, 24418.744375556038, -7280.320797004795, -62675.185522459215, -28905.588854025467, -13943.353467387375, -38082.47751980752, -7769.354613942459, -29374.52845269781, 0.004, 0.88, 0.514, 192.0, 0.0, 0.0, 0.0, 0.0, 0.0, 0.0, 0.0, 0.0, 0.0, 1.6541553326035533E9, 0.0, 2022-06-02 09:35:32.603
87.0, 24424.30995992541, -7266.418011953594, -62653.101998937374, -28884.645269470846, -13921.135833398801, -38057.331807295304, -7739.112703694428, -29315.542199080253, 0.004, 0.88, 0.514, 192.0, 0.0, 0.0, 0.0, 0.0, 0.0, 0.0, 0.0, 0.0, 0.0, 1.6541553326035583E9, 0.0, 2022-06-02 09:35:32.603
88.0, 24430.79196581745, -7265.635700897658, -62657.102961194876, -28886.81338868301, -13922.253420621566, -38063.47853702051, -7725.902822721341, -29339.77149006981, 0.004, 0.89, 0.514, 192.0, 0.0, 32.0, 27.0, 208.0, 16.0, 16.0, 0.0, 0.0, 0.0, 1.6541553326035633E9, 0.0, 2022-06-02 09:35:32.603
89.0, 24426.07574773738, -7281.8854191166665, -62674.24674919209, -28909.38865058287, -13940.246574908087, -38086.344371598294, -7762.91731153933, -29387.20189180397, 0.004, 0.89, 0.514, 192.0, 0.0, 0.0, 0.0, 0.0, 0.0, 0.0, 0.0, 0.0, 0.0, 1.6541553326035688E9, 0.0, 2022-06-02 09:35:32.603
90.0, 24420.93484651266, -7284.657035429125, -62680.41583066176, -28916.72002276421, -13952.651793080782, -38091.61938328974, -7799.350655001481, -29378.283545766302, 0.004, 0.89, 0.514, 192.0, 0.0, 0.0, 0.0, 0.0, 0.0, 0.0, 0.0, 0.0, 0.0, 1.6541553326035738E9, 0.0, 2022-06-02 09:35:32.603
91.0, 24430.54609662844, -7261.72414561798, -62655.605394316364, -28892.133103863373, -13934.055141693967, -38064.12673760972, -7760.346860926969, -29336.642245846066, 0.004, 0.89, 0.514, 192.0, 0.0, 0.0, 0.0, 0.0, 0.0, 0.0, 0.0, 0.0, 0.0, 1.6541553326035788E9, 0.0, 2022-06-02 09:35:32.603
92.0, 24437.40808217622, -7252.068192013287, -62645.16712965574, -28882.074818858484, -13916.240801363088, -38054.314321793834, -7726.931002966286, -29337.37985341309, 0.004, 0.89, 0.514, 192.0, 0.0, 0.0, 0.0, 0.0, 0.0, 0.0, 0.0, 0.0, 0.0, 1.654155332603584E9, 0.0, 2022-06-02 09:35:32.603
93.0, 24432.200125718133, -7266.753288120424, -62664.32257465394, -28899.173903366795, -13926.075568923423, -38069.62526674572, -7748.880416021397, -29353.786033843284, 0.004, 0.89, 0.514, 192.0, 0.0, 0.0, 0.0, 0.0, 0.0, 0.0, 0.0, 0.0, 0.0, 1.6541553326035893E9, 0.0, 2022-06-02 09:35:32.603
94.0, 24443.733625857072, -7269.122573032686, -62666.669507821745, -28910.10390640544, -13934.122196927334, -38079.46003430606, -7757.016451003129, -29366.593583416176, 0.004, 0.89, 0.514, 192.0, 0.0, 0.0, 0.0, 0.0, 0.0, 0.0, 0.0, 0.0, 0.0, 1.6541553326035943E9, 0.0, 2022-06-02 09:35:32.603
95.0, 24447.913402070215, -7266.82034335379, -62658.46641760664, -28904.940653436264, -13933.049313193478, -38079.86236570625, -7738.397447871858, -29362.61497290313, 0.004, 0.89, 0.514, 192.0, 0.0, 0.0, 0.0, 0.0, 0.0, 0.0, 0.0, 0.0, 0.0, 1.6541553326036017E9, 0.0, 2022-06-02 09:35:32.603
96.0, 24450.26033523802, -7249.251872211918, -62639.64624877528, -28882.63361246987, -13915.65965600725, -38058.941132896085, -7721.879508719387, -29345.739405839373, 0.004, 0.89, 0.514, 192.0, 0.0, 0.0, 0.0, 0.0, 0.0, 0.0, 0.0, 0.0, 0.0, 1.6541553326036067E9, 0.0, 2022-06-02 09:35:32.603
97.0, 24453.07665503939, -7240.7358575744465, -62632.42663531622, -28879.370257779392, -13905.869591935825, -38046.29004553438, -7727.668610533311, -29337.357501668634, 0.004, 0.89, 0.514, 192.0, 0.0, 0.0, 0.0, 0.0, 0.0, 0.0, 0.0, 0.0, 0.0, 1.6541553326036117E9, 0.0, 2022-06-02 09:35:32.603
98.0, 24442.750149101037, -7255.465657170494, -62655.42658036073, -28900.51500803411, -13925.919106712236, -38068.61943824523, -7743.0242589741065, -29349.67331286351, 0.004, 0.89, 0.514, 192.0, 0.0, 0.0, 27.0, 144.0, 16.0, 0.0, 0.0, 0.0, 0.0, 1.6541553326036167E9, 0.0, 2022-06-02 09:35:32.603
99.0, 24431.104890239825, -7275.023433568887, -62676.68308933772, -28913.031984929086, -13945.007496477068, -38089.987705944506, -7748.72395381021, -29350.679141364, 0.004, 0.89, 0.514, 192.0, 0.0, 0.0, 0.0, 0.0, 0.0, 0.0, 0.0, 0.0, 0.0, 1.654155332603622E9, 0.0, 2022-06-02 09:35:32.603
100.0, 24415.88335226576, -7284.67938717358, -62680.21466496166, -28921.5256478221, -13957.56917686095, -38095.95562171407, -7772.752079099665, -29375.042542820283, 0.004, 0.89, 0.514, 192.0, 0.0, 0.0, 0.0, 0.0, 0.0, 0.0, 0.0, 0.0, 0.0, 1.654155332603627E9, 0.0, 2022-06-02 09:35:32.603
101.0, 24417.58208484436, -7272.117706789698, -62655.04660070498, -28906.48292380368, -13944.649868565783, -38072.709807480554, -7757.508189381146, -29357.205850744947, 0.004, 0.89, 0.514, 192.0, 0.0, 0.0, 0.0, 0.0, 0.0, 0.0, 0.0, 0.0, 0.0, 1.654155332603632E9, 0.0, 2022-06-02 09:35:32.603
102.0, 24433.60828561882, -7255.488008914949, -62638.46160631915, -28887.550996250036, -13922.812214232948, -38050.87215314772, -7740.207939172738, -29336.374024912602, 0.004, 0.89, 0.514, 192.0, 0.0, 0.0, 0.0, 0.0, 0.0, 0.0, 0.0, 0.0, 0.0, 1.6541553326036372E9, 0.0, 2022-06-02 09:35:32.603
103.0, 24439.531497899476, -7257.901997316122, -62648.85516749087, -28894.256519586626, -13921.381702587809, -38057.890600906685, -7734.418837358813, -29345.828812817195, 0.004, 0.89, 0.514, 192.0, 0.0, 0.0, 0.0, 0.0, 0.0, 0.0, 0.0, 0.0, 0.0, 1.6541553326036425E9, 0.0, 2022-06-02 09:35:32.603
104.0, 24432.133070484768, -7276.565703936304, -62673.03975499151, -28919.893970476864, -13940.738313286105, -38082.499871551976, -7749.7744857996095, -29360.268039735325, 0.004, 0.89, 0.514, 192.0, 0.0, 0.0, 0.0, 0.0, 0.0, 0.0, 0.0, 0.0, 0.0, 1.6541553326036484E9, 0.0, 2022-06-02 09:35:32.603
105.0, 24426.63454134876, -7277.526828947882, -62675.543150370504, -28924.63254030139, -13948.986106990113, -38083.885679708204, -7778.675291380321, -29378.305897510756, 0.004, 0.89, 0.514, 192.0, 0.0, 0.0, 0.0, 0.0, 0.0, 0.0, 0.0, 0.0, 0.0, 1.654155333083726E9, 0.0, 2022-06-02 09:35:33.083
106.0, 24432.60245711833, -7260.070116528287, -62659.807522273964, -28906.68408950378, -13938.637249307305, -38068.664141734145, -7774.8978465673745, -29381.502196967867, 0.004, 0.89, 0.514, 192.0, 0.0, 0.0, 0.0, 0.0, 0.0, 0.0, 0.0, 0.0, 0.0, 1.6541553330838609E9, 0.0, 2022-06-02 09:35:33.083
107.0, 24450.752073616037, -7238.768904062379, -62642.08258892091, -28884.689972959757, -13923.348656099875, -38052.25796130395, -7745.862930519931, -29334.89880977855, 0.004, 0.89, 0.514, 192.0, 0.0, 0.0, 27.0, 112.0, 16.0, 0.0, 0.0, 0.0, 0.0, 1.6541553330839396E9, 0.0, 2022-06-02 09:35:33.083
108.0, 24443.13012875678, -7253.543407147337, -62659.58400482941, -28896.536397521068, -13934.524528327529, -38063.545592253875, -7746.265261920126, -29327.03099573028, 0.004, 0.89, 0.514, 192.0, 0.0, 0.0, 0.0, 0.0, 0.0, 0.0, 0.0, 0.0, 0.0, 1.654155333083945E9, 0.0, 2022-06-02 09:35:33.083
109.0, 24441.900782811736, -7261.00888979541, -62663.093228708894, -28903.644252257855, -13940.760665030559, -38077.671894749634, -7753.462523634735, -29362.458510691944, 0.004, 0.89, 0.514, 192.0, 0.0, 0.0, 0.0, 0.0, 0.0, 0.0, 0.0, 0.0, 0.0, 1.6541553330839503E9, 0.0, 2022-06-02 09:35:33.083
110.0, 24429.69673033914, -7269.815477110801, -62669.50817936757, -28913.34490935146, -13948.695534312194, -38086.00909543146, -7765.018375518129, -29363.084359536693, 0.004, 0.89, 0.514, 192.0, 0.0, 0.0, 0.0, 0.0, 0.0, 0.0, 0.0, 0.0, 0.0, 1.6541553330839562E9, 0.0, 2022-06-02 09:35:33.083
111.0, 24429.24969545003, -7264.071078785787, -62654.59956581588, -28902.01257491262, -13933.876327738326, -38072.55334526936, -7750.087410221984, -29359.57513565721, 0.004, 0.89, 0.514, 192.0, 0.0, 0.0, 0.0, 0.0, 0.0, 0.0, 0.0, 0.0, 0.0, 1.654155333083962E9, 0.0, 2022-06-02 09:35:33.083
112.0, 24441.051416522434, -7252.872854813678, -62648.54224306849, -28892.557787008023, -13920.934667698702, -38063.61264748724, -7730.708447779232, -29356.892926322573, 0.004, 0.89, 0.514, 192.0, 0.0, 0.0, 0.0, 0.0, 0.0, 0.0, 0.0, 0.0, 0.0, 1.6541553330839677E9, 0.0, 2022-06-02 09:35:33.083
113.0, 24461.03387606548, -7240.311174429796, -62643.803673243965, -28887.32747880548, -13911.457528049652, -38055.8342404168, -7718.884374962375, -29326.42749862999, 0.004, 0.89, 0.514, 192.0, 0.0, 0.0, 0.0, 0.0, 0.0, 0.0, 0.0, 0.0, 0.0, 1.6541553330839727E9, 0.0, 2022-06-02 09:35:33.083
114.0, 24453.478986439586, -7254.459828670005, -62661.66271706376, -28903.644252257855, -13930.344752114386, -38072.776862713916, -7749.550968355056, -29349.449795418954, 0.004, 0.89, 0.514, 192.0, 0.0, 0.0, 0.0, 0.0, 0.0, 0.0, 0.0, 0.0, 0.0, 1.6541553330839784E9, 0.0, 2022-06-02 09:35:33.083
115.0, 24444.270067724, -7261.3441659622395, -62667.58592934441, -28911.48971456167, -13940.693609797194, -38074.319133081335, -7755.25066319116, -29369.454606706455, 0.004, 0.89, 0.514, 192.0, 0.0, 0.0, 0.0, 0.0, 0.0, 0.0, 0.0, 0.0, 0.0, 1.654155333083984E9, 0.0, 2022-06-02 09:35:33.083
116.0, 24451.377922460786, -7243.842750053734, -62648.87751923532, -28890.05439162903, -13926.790824745993, -38052.52618223741, -7741.213767673227, -29336.10580397914, 0.004, 0.89, 0.514, 192.0, 0.0, 0.0, 0.0, 0.0, 0.0, 0.0, 0.0, 0.0, 0.0, 1.6541553330839896E9, 0.0, 2022-06-02 09:35:33.083
117.0, 24445.342951457853, -7244.178026220564, -62647.55876631245, -28875.838682155452, -13922.923972955225, -38051.54270548138, -7735.983459470685, -29340.151469725548, 0.004, 0.88, 0.516, 192.0, 0.0, 32.0, 27.0, 128.0, 16.0, 32.0, 0.0, 0.0, 0.0, 1.654155333083995E9, 0.0, 2022-06-02 09:35:33.083
118.0, 24444.828861335383, -7247.933119289055, -62649.4363128467, -28882.63361246987, -13924.421539833731, -38057.35415903976, -7740.00677347264, -29342.543106382265, 0.004, 0.88, 0.516, 192.0, 0.0, 0.0, 0.0, 0.0, 0.0, 0.0, 0.0, 0.0, 0.0, 1.6541553330840003E9, 0.0, 2022-06-02 09:35:33.084
119.0, 24444.091253768358, -7259.377212450173, -62662.892063008796, -28896.20112135424, -13932.155243415267, -38065.221973088024, -7734.731761781188, -29345.694702350465, 0.004, 0.88, 0.516, 192.0, 0.0, 0.0, 0.0, 0.0, 0.0, 0.0, 0.0, 0.0, 0.0, 1.6541553330840056E9, 0.0, 2022-06-02 09:35:33.084
120.0, 24431.015483262003, -7271.3800992226725, -62676.63838584881, -28910.39447908336, -13943.822854020937, -38074.475595292526, -7757.530541125601, -29359.172804257014, 0.004, 0.88, 0.516, 192.0, 0.0, 0.0, 0.0, 0.0, 0.0, 0.0, 0.0, 0.0, 0.0, 1.6541553330840108E9, 0.0, 2022-06-02 09:35:33.084
121.0, 24445.387654946764, -7248.156636733608, -62649.01162970205, -28879.839644412954, -13918.766548486537, -38043.00433909945, -7736.654011804344, -29357.027036789306, 0.004, 0.88, 0.516, 192.0, 0.0, 0.0, 0.0, 0.0, 0.0, 0.0, 0.0, 0.0, 0.0, 1.6541553330840163E9, 0.0, 2022-06-02 09:35:33.084
122.0, 24453.099006783847, -7239.059476740298, -62635.19825162867, -28868.95434486322, -13900.84044943338, -38027.78280112539, -7707.261467845616, -29313.999928712838, 0.004, 0.88, 0.516, 192.0, 0.0, 0.0, 0.0, 0.0, 0.0, 0.0, 0.0, 0.0, 0.0, 1.654155333084022E9, 0.0, 2022-06-02 09:35:33.084
123.0, 24453.255468995034, -7245.876758799167, -62642.64138253229, -28874.7657984216, -13903.142679112278, -38034.465972717524, -7720.605459285433, -29287.22253885538, 0.004, 0.88, 0.516, 192.0, 0.0, 0.0, 0.0, 0.0, 0.0, 0.0, 0.0, 0.0, 0.0, 1.6541553330840273E9, 0.0, 2022-06-02 09:35:33.084
124.0, 24453.389579461764, -7254.258662969907, -62651.20210065867, -28886.09813286044, -13916.106690896357, -38045.798307156365, -7741.593747328967, -29334.407071400532, 0.004, 0.88, 0.516, 192.0, 0.0, 0.0, 0.0, 0.0, 0.0, 0.0, 0.0, 0.0, 0.0, 1.654155333084034E9, 0.0, 2022-06-02 09:35:33.084
125.0, 24443.0183700345, -7262.797029351835, -62656.99120247259, -28899.330365577982, -13930.52356607003, -38058.76231894044, -7750.7132590667325, -29352.735501853884, 0.004, 0.88, 0.516, 192.0, 0.0, 0.0, 0.0, 0.0, 0.0, 0.0, 0.0, 0.0, 0.0, 1.6541553330840394E9, 0.0, 2022-06-02 09:35:33.084
126.0, 24434.390596674755, -7260.718317117491, -62656.61122281686, -28894.94942366474, -13934.166900416245, -38057.30945555084, -7754.021317246118, -29353.51781290982, 0.004, 0.88, 0.516, 192.0, 0.0, 0.0, 0.0, 0.0, 0.0, 0.0, 0.0, 0.0, 0.0, 1.6541553330840447E9, 0.0, 2022-06-02 09:35:33.084
127.0, 24442.59368688985, -7246.033221010354, -62639.57919354191, -28883.348868292436, -13916.37491182982, -38047.25117054596, -7739.783256028088, -29356.088263522182, 0.004, 0.886, 0.52, 192.0, 0.0, 32.0, 27.0, 176.0, 16.0, 64.0, 0.0, 0.0, 0.0, 1.65415533308405E9, 0.0, 2022-06-02 09:35:33.084
128.0, 24439.866774066304, -7253.297537958329, -62647.69287677919, -28895.888196931865, -13917.872478708325, -38054.40372877166, -7729.769674512109, -29335.85993479013, 0.004, 0.886, 0.52, 192.0, 0.0, 0.0, 0.0, 0.0, 0.0, 0.0, 0.0, 0.0, 0.0, 1.6541553330840611E9, 0.0, 2022-06-02 09:35:33.084
129.0, 24426.053395992923, -7270.620139911192, -62667.9435572557, -28904.62772901389, -13932.982257960113, -38067.94888591157, -7736.899880993353, -29328.774431797796, 0.004, 0.886, 0.52, 192.0, 0.0, 0.0, 0.0, 0.0, 0.0, 0.0, 0.0, 0.0, 0.0, 1.6541553330840666E9, 0.0, 2022-06-02 09:35:33.084
130.0, 24421.69480582414, -7278.130326048175, -62673.531493369526, -28908.71809824921, -13944.269888910043, -38072.93332492511, -7759.072811493017, -29347.57224888471, 0.004, 0.886, 0.52, 192.0, 0.0, 0.0, 0.0, 0.0, 0.0, 0.0, 0.0, 0.0, 0.0, 1.6541553330840716E9, 0.0, 2022-06-02 09:35:33.084
131.0, 24423.59470410284, -7269.927235833077, -62666.937728755205, -28900.939691178763, -13943.062894709456, -38060.57281024132, -7760.145695226872, -29344.51005989433, 0.004, 0.886, 0.52, 192.0, 0.0, 0.0, 0.0, 0.0, 0.0, 0.0, 0.0, 0.0, 0.0, 1.654155333084077E9, 0.0, 2022-06-02 09:35:33.084
132.0, 24440.492622911053, -7252.62698562467, -62653.68314429321, -28885.96402239371, -13923.706284011161, -38042.60200769926, -7730.686096034778, -29333.445946388954, 0.004, 0.886, 0.52, 192.0, 0.0, 0.0, 0.0, 0.0, 0.0, 0.0, 0.0, 0.0, 0.0, 1.654155333084082E9, 0.0, 2022-06-02 09:35:33.084
133.0, 24444.292419468453, -7256.806761837812, -62660.56748158544, -28888.087438116963, -13917.85012696387, -38049.57575196931, -7725.947526210252, -29348.712187851932, 0.004, 0.886, 0.52, 192.0, 0.0, 0.0, 0.0, 0.0, 0.0, 0.0, 0.0, 0.0, 0.0, 1.6541553330840871E9, 0.0, 2022-06-02 09:35:33.084
134.0, 24428.176811716177, -7278.689119659558, -62686.093173753405, -28909.09807790495, -13940.984182475113, -38075.19085111509, -7772.8414860774865, -29372.740313141385, 0.004, 0.886, 0.52, 192.0, 0.0, 0.0, 0.0, 0.0, 0.0, 0.0, 0.0, 0.0, 0.0, 1.6541553330840924E9, 0.0, 2022-06-02 09:35:33.084
135.0, 24422.70063432463, -7275.716337647002, -62688.17188598775, -28911.176790139296, -13951.489502369108, -38071.659275491154, -7774.853143078464, -29361.407978702544, 0.004, 0.886, 0.52, 192.0, 0.0, 0.0, 0.0, 0.0, 0.0, 0.0, 0.0, 0.0, 0.0, 1.6541553330840974E9, 0.0, 2022-06-02 09:35:33.084
136.0, 24435.374073430787, -7255.935043804056, -62668.50235086708, -28892.58013875248, -13935.776226017026, -38045.1277548227, -7731.937793724274, -29323.61117882862, 0.004, 0.886, 0.52, 192.0, 0.0, 0.0, 0.0, 0.0, 0.0, 0.0, 0.0, 0.0, 0.0, 1.6541553330841026E9, 0.0, 2022-06-02 09:35:33.084
137.0, 24439.12916649928, -7250.257700712407, -62654.37604837133, -28883.214757825706, -13920.018246176034, -38035.09182156227, -7721.790101741565, -29322.739460794863, 0.008, 0.884, 0.526, 192.0, 0.0, 64.0, 27.0, 160.0, 16.0, 112.0, 0.0, 0.0, 0.0, 1.6541553330841088E9, 0.0, 2022-06-02 09:35:33.084
138.0, 24440.73849210006, -7255.733878103957, -62658.60052807338, -28884.62291772639, -13917.760719986049, -38043.65253968866, -7729.099122178451, -29338.430385402487, 0.008, 0.884, 0.526, 192.0, 0.0, 0.0, 0.0, 0.0, 0.0, 0.0, 0.0, 0.0, 0.0, 1.654155333084114E9, 0.0, 2022-06-02 09:35:33.084
139.0, 24439.531497899476, -7265.211017753008, -62672.54801661349, -28903.15251387984, -13924.354484600364, -38059.701092207564, -7740.453808361746, -29349.315684952224, 0.008, 0.884, 0.526, 192.0, 0.0, 0.0, 0.0, 0.0, 0.0, 0.0, 0.0, 0.0, 0.0, 1.654155333084119E9, 0.0, 2022-06-02 09:35:33.084
140.0, 24434.50235539703, -7267.602654409726, -62678.24771144959, -28919.715156521223, -13934.61393530535, -38071.99455165798, -7752.054363734051, -29375.467225964934, 0.008, 0.884, 0.526, 192.0, 0.0, 0.0, 0.0, 0.0, 0.0, 0.0, 0.0, 0.0, 0.0, 1.6541553330841243E9, 0.0, 2022-06-02 09:35:33.084
141.0, 24425.44989889263, -7264.853389841723, -62677.04071724901, -28909.76863023861, -13930.255345136566, -38070.541688268386, -7750.601500344455, -29373.410865475045, 0.008, 0.884, 0.526, 192.0, 0.0, 0.0, 0.0, 0.0, 0.0, 0.0, 0.0, 0.0, 0.0, 1.65415533308413E9, 0.0, 2022-06-02 09:35:33.084
142.0, 24430.590800117352, -7254.504532158916, -62664.568443842945, -28892.200159096737, -13915.078510651412, -38053.82258341582, -7739.3809246278915, -29312.70352753443, 0.008, 0.884, 0.526, 192.0, 0.0, 0.0, 0.0, 0.0, 0.0, 0.0, 0.0, 0.0, 0.0, 1.654155333084136E9, 0.0, 2022-06-02 09:35:33.084
143.0, 24445.857041580326, -7249.0730582562755, -62651.716190781146, -28895.53056902058, -13909.423519304219, -38043.60783619974, -7733.39065711387, -29300.03008842827, 0.008, 0.884, 0.526, 192.0, 0.0, 0.0, 0.0, 0.0, 0.0, 0.0, 0.0, 0.0, 0.0, 1.6541553330841413E9, 0.0, 2022-06-02 09:35:33.084
144.0, 24441.386692689266, -7261.254758984418, -62656.61122281686, -28899.308013833528, -13926.85787997936, -38055.163688083136, -7752.411991645336, -29348.220449473913, 0.008, 0.884, 0.526, 192.0, 0.0, 0.0, 0.0, 0.0, 0.0, 0.0, 0.0, 0.0, 0.0, 1.6541553330841467E9, 0.0, 2022-06-02 09:35:33.084
145.0, 24426.433375648663, -7275.559875435815, -62673.576196858434, -28915.445973330257, -13944.582813332418, -38071.97219991353, -7755.474180635712, -29367.91233633904, 0.008, 0.884, 0.526, 192.0, 0.0, 0.0, 0.0, 0.0, 0.0, 0.0, 0.0, 0.0, 0.0, 1.6541553330841525E9, 0.0, 2022-06-02 09:35:33.084
146.0, 24435.172907730688, -7258.170218249586, -62653.32551638193, -28897.519874277103, -13931.32822887042, -38055.27544680541, -7743.180721185294, -29352.75785359834, 0.008, 0.884, 0.526, 192.0, 0.0, 0.0, 0.0, 0.0, 0.0, 0.0, 0.0, 0.0, 0.0, 1.6541553330841577E9, 0.0, 2022-06-02 09:35:33.084
147.0, 24442.41487293421, -7246.5473111328265, -62638.05927491895, -28876.799807167034, -13914.452661806663, -38044.70307167805, -7730.641392545866, -29340.95613252594, 0.004, 0.886, 0.522, 192.0, 0.0, 32.0, 27.0, 176.0, 16.0, 80.0, 0.0, 0.0, 0.0, 1.6541553330841627E9, 0.0, 2022-06-02 09:35:33.084
148.0, 24445.834689835872, -7248.916596045089, -62639.64624877528, -28881.225452569182, -13918.341865341887, -38045.373624011714, -7741.571395584512, -29325.354614896136, 0.004, 0.886, 0.522, 192.0, 0.0, 0.0, 0.0, 0.0, 0.0, 0.0, 0.0, 0.0, 0.0, 1.654155333084168E9, 0.0, 2022-06-02 09:35:33.084
149.0, 24437.005750776025, -7262.2829392293625, -62665.39545838779, -28904.940653436264, -13939.66542955225, -38064.037330631894, -7767.611177874945, -29357.138795511582, 0.004, 0.886, 0.522, 192.0, 0.0, 0.0, 0.0, 0.0, 0.0, 0.0, 0.0, 0.0, 0.0, 1.6541553330841732E9, 0.0, 2022-06-02 09:35:33.084
150.0, 24426.947465771136, -7272.162410278608, -62678.4935806386, -28922.799697256054, -13956.317479171454, -38081.24817386248, -7768.795820331075, -29361.877365336106, 0.004, 0.886, 0.522, 192.0, 0.0, 0.0, 0.0, 0.0, 0.0, 0.0, 0.0, 0.0, 0.0, 1.6541553330841808E9, 0.0, 2022-06-02 09:35:33.084
151.0, 24438.54802114344, -7249.251872211918, -62647.983449457104, -28897.25165334364, -13935.910336483757, -38052.41442351513, -7746.19820668676, -29336.195210956957, 0.004, 0.886, 0.522, 192.0, 0.0, 0.0, 0.0, 0.0, 0.0, 0.0, 0.0, 0.0, 0.0, 1.6541553330841858E9, 0.0, 2022-06-02 09:35:33.084
152.0, 24454.730684129085, -7233.784465048846, -62629.16328062574, -28870.80953965301, -13913.759757728549, -38025.01118481293, -7727.57920355549, -29328.260341675323, 0.004, 0.886, 0.522, 192.0, 0.0, 0.0, 0.0, 0.0, 0.0, 0.0, 0.0, 0.0, 0.0, 1.654155333084191E9, 0.0, 2022-06-02 09:35:33.084
