%OpenBCI Raw EEG Data
%Number of channels = 8
%Sample Rate = 250 Hz
%Board = OpenBCI_GUI$BoardCytonSerial
Sample Index, EXG Channel 0, EXG Channel 1, EXG Channel 2, EXG Channel 3, EXG Channel 4, EXG Channel 5, EXG Channel 6, EXG Channel 7, Accel Channel 0, Accel Channel 1, Accel Channel 2, Other, Other, Other, Other, Other, Other, Other, Analog Channel 0, Analog Channel 1, Analog Channel 2, Timestamp, Other, Timestamp (Formatted)
0.0, 0.0, 0.0, 0.0, 0.0, 0.0, 0.0, 0.0, 0.0, 0.0, 0.0, 0.0, 192.0, 0.0, 0.0, 0.0, 0.0, 0.0, 0.0, 0.0, 0.0, 0.0, 1.6541572687068472E9, 0.0, 2022-06-02 10:07:48.706
1.0, 20295.093392740895, 4134.737448064977, -72948.65077121863, -55784.723852243886, -45569.90958093519, -47664.893885242214, -18443.74310299672, -50701.84775612924, 0.016, 0.794, 0.638, 192.0, 0.0, 128.0, 24.0, 208.0, 19.0, 240.0, 0.0, 0.0, 0.0, 1.654157269184955E9, 0.0, 2022-06-02 10:07:49.184
2.0, 20289.4384013937, 4132.681087575089, -72946.68381770657, -55769.50231426982, -45564.99219715503, -47653.74036475902, -18426.196983599304, -50687.766157122394, 0.016, 0.794, 0.638, 192.0, 0.0, 0.0, 0.0, 0.0, 0.0, 0.0, 0.0, 0.0, 0.0, 1.65415726918514E9, 0.0, 2022-06-02 10:07:49.185
3.0, 20307.990349291606, 4146.516817392924, -72946.50500375092, -55757.56648273069, -45555.98444413954, -47644.10676289878, -18453.980201957253, -50707.70391317653, 0.016, 0.794, 0.638, 192.0, 0.0, 0.0, 0.0, 0.0, 0.0, 0.0, 0.0, 0.0, 0.0, 1.6541572691852083E9, 0.0, 2022-06-02 10:07:49.185
4.0, 20316.193439506704, 4146.2038929705495, -72963.78290221488, -55768.96587240289, -45566.847391944815, -47656.1990566491, -18469.201739931315, -50718.47745400399, 0.016, 0.794, 0.638, 192.0, 0.0, 0.0, 0.0, 0.0, 0.0, 0.0, 0.0, 0.0, 0.0, 1.6541572691852143E9, 0.0, 2022-06-02 10:07:49.185
5.0, 20316.215791251157, 4146.762686581932, -72961.3689138137, -55774.106773627616, -45571.92123793617, -47669.47599285555, -18481.249330192724, -50723.350134295244, 0.016, 0.794, 0.638, 192.0, 0.0, 0.0, 0.0, 0.0, 0.0, 0.0, 0.0, 0.0, 0.0, 1.6541572691852207E9, 0.0, 2022-06-02 10:07:49.185
6.0, 20316.796936606996, 4149.422544172114, -72950.30480030832, -55771.37986080407, -45574.11170889279, -47665.027995708944, -18488.401888418422, -50710.363770766715, 0.016, 0.794, 0.638, 192.0, 0.0, 0.0, 0.0, 0.0, 0.0, 0.0, 0.0, 0.0, 0.0, 1.6541572691852272E9, 0.0, 2022-06-02 10:07:49.185
7.0, 20308.012701036063, 4145.332174936792, -72952.89760266515, -55773.99501490534, -45574.3575780818, -47662.725766030046, -18471.012231232195, -50699.254953772426, 0.016, 0.794, 0.638, 192.0, 0.0, 0.0, 0.0, 0.0, 0.0, 0.0, 0.0, 0.0, 0.0, 1.6541572691852336E9, 0.0, 2022-06-02 10:07:49.185
8.0, 20314.226485994637, 4154.317576207826, -72951.26592531991, -55772.31863407119, -45568.523772778964, -47662.85987649678, -18471.682783565855, -50711.32489577829, 0.01, 0.78, 0.644, 192.0, 0.0, 80.0, 24.0, 96.0, 20.0, 32.0, 0.0, 0.0, 0.0, 1.6541572691852398E9, 0.0, 2022-06-02 10:07:49.185
9.0, 20313.4441749387, 4149.713116850033, -72970.48842555148, -55791.630541280574, -45581.64424677423, -47687.692664586626, -18490.122972741483, -50748.92052995211, 0.01, 0.78, 0.644, 192.0, 0.0, 0.0, 0.0, 0.0, 0.0, 0.0, 0.0, 0.0, 0.0, 1.6541572691852455E9, 0.0, 2022-06-02 10:07:49.185
10.0, 20312.46069818267, 4147.3214801933145, -72968.43206506158, -55798.917209973006, -45592.17191841268, -47701.14841474872, -18502.081156025073, -50757.90593122315, 0.01, 0.78, 0.644, 192.0, 0.0, 0.0, 0.0, 0.0, 0.0, 0.0, 0.0, 0.0, 0.0, 1.654157269185252E9, 0.0, 2022-06-02 10:07:49.185
11.0, 20311.83484933792, 4146.338003437281, -72953.72461720998, -55789.88710521306, -45581.666598518685, -47689.48080414305, -18485.160885472404, -50732.13436986618, 0.01, 0.78, 0.644, 192.0, 0.0, 0.0, 0.0, 0.0, 0.0, 0.0, 0.0, 0.0, 0.0, 1.654157269185258E9, 0.0, 2022-06-02 10:07:49.185
12.0, 20312.952436560685, 4148.796695327365, -72934.1668408116, -55774.77732596127, -45555.44800227261, -47672.001739979, -18430.555573768088, -50698.76321539441, 0.01, 0.78, 0.644, 192.0, 0.0, 0.0, 0.0, 0.0, 0.0, 0.0, 0.0, 0.0, 0.0, 1.6541572691852653E9, 0.0, 2022-06-02 10:07:49.185
13.0, 20309.711433614666, 4150.830704072798, -72939.9112391366, -55776.341948073146, -45560.99123489753, -47678.662559826684, -18463.233824161747, -50739.3763350697, 0.01, 0.78, 0.644, 192.0, 0.0, 0.0, 0.0, 0.0, 0.0, 0.0, 0.0, 0.0, 0.0, 1.6541572691852713E9, 0.0, 2022-06-02 10:07:49.185
14.0, 20309.219695236647, 4148.684936605088, -72953.7693206989, -55788.94833194594, -45570.44602280212, -47698.33209494735, -18488.401888418422, -50775.69791980957, 0.01, 0.78, 0.644, 192.0, 0.0, 0.0, 0.0, 0.0, 0.0, 0.0, 0.0, 0.0, 0.0, 1.6541572691852782E9, 0.0, 2022-06-02 10:07:49.185
15.0, 20305.978692290628, 4140.1018667342505, -72955.37864629968, -55792.74812850334, -45578.045615916926, -47709.61972589728, -18489.072440752083, -50774.69209130909, 0.01, 0.78, 0.644, 192.0, 0.0, 0.0, 0.0, 0.0, 0.0, 0.0, 0.0, 0.0, 0.0, 1.6541572691852844E9, 0.0, 2022-06-02 10:07:49.185
16.0, 20312.01366329356, 4144.661622603134, -72938.63718970265, -55780.65583475302, -45557.906694162695, -47690.553687876905, -18448.034637932138, -50736.24709084596, 0.01, 0.78, 0.644, 192.0, 0.0, 0.0, 0.0, 0.0, 0.0, 0.0, 0.0, 0.0, 0.0, 1.6541572691852903E9, 0.0, 2022-06-02 10:07:49.185
17.0, 20313.958265061174, 4147.075611004307, -72928.57890469777, -55770.91047417051, -45550.418859770165, -47677.23204818154, -18454.69545777982, -50731.91085242163, 0.01, 0.78, 0.644, 192.0, 0.0, 0.0, 0.0, 0.0, 0.0, 0.0, 0.0, 0.0, 0.0, 1.6541572691852965E9, 0.0, 2022-06-02 10:07:49.185
18.0, 20301.865971310854, 4134.536282364879, -72953.21052708752, -55782.4663260539, -45568.322607078866, -47687.424443653166, -18488.692461096343, -50769.484134851, 0.008, 0.784, 0.64, 192.0, 0.0, 64.0, 24.0, 128.0, 20.0, 0.0, 0.0, 0.0, 0.0, 1.6541572691853027E9, 0.0, 2022-06-02 10:07:49.185
19.0, 20290.667747338743, 4124.098017704251, -72981.88781522367, -55806.51680308781, -45598.944496982636, -47699.427330425664, -18523.985865591272, -50775.25088492047, 0.008, 0.784, 0.64, 192.0, 0.0, 0.0, 0.0, 0.0, 0.0, 0.0, 0.0, 0.0, 0.0, 1.654157269185309E9, 0.0, 2022-06-02 10:07:49.185
20.0, 20283.67165132423, 4120.678200802588, -72983.31832686882, -55812.66353281302, -45599.16801442719, -47695.381664679255, -18481.919882526385, -50732.4249425441, 0.008, 0.784, 0.64, 192.0, 0.0, 0.0, 0.0, 0.0, 0.0, 0.0, 0.0, 0.0, 0.0, 1.654157269185315E9, 0.0, 2022-06-02 10:07:49.185
21.0, 20284.63277633581, 4122.980430481485, -72971.76247498543, -55800.3700733626, -45584.10293866431, -47680.38364414974, -18450.4039228444, -50711.79428241185, 0.008, 0.784, 0.64, 192.0, 0.0, 0.0, 0.0, 0.0, 0.0, 0.0, 0.0, 0.0, 0.0, 1.654157269185321E9, 0.0, 2022-06-02 10:07:49.185
22.0, 20283.44813387968, 4120.991125224963, -72971.15897788513, -55791.56348604721, -45585.35463635381, -47668.045481210414, -18457.645888047922, -50703.47943347448, 0.008, 0.784, 0.64, 192.0, 0.0, 0.0, 0.0, 0.0, 0.0, 0.0, 0.0, 0.0, 0.0, 1.6541572691853337E9, 0.0, 2022-06-02 10:07:49.185
23.0, 20276.362630887346, 4115.738465277966, -72985.26292863642, -55795.29622737125, -45599.97267722758, -47666.212638165074, -18494.928597799375, -50714.23062255748, 0.008, 0.784, 0.64, 192.0, 0.0, 0.0, 0.0, 0.0, 0.0, 0.0, 0.0, 0.0, 0.0, 1.6541572691853397E9, 0.0, 2022-06-02 10:07:49.185
24.0, 20286.6891368257, 4123.025133970396, -72988.43687634908, -55801.06297744071, -45601.246726661535, -47678.37198714876, -18503.645778136943, -50734.45895128953, 0.008, 0.784, 0.64, 192.0, 0.0, 0.0, 0.0, 0.0, 0.0, 0.0, 0.0, 0.0, 0.0, 1.6541572691853456E9, 0.0, 2022-06-02 10:07:49.185
25.0, 20295.607482863365, 4130.222395685005, -72975.6293267762, -55797.307884372225, -45590.87551723427, -47680.60716159429, -18488.156019229416, -50723.68541046207, 0.008, 0.784, 0.64, 192.0, 0.0, 0.0, 0.0, 0.0, 0.0, 0.0, 0.0, 0.0, 0.0, 1.654157269185352E9, 0.0, 2022-06-02 10:07:49.185
26.0, 20291.606520605867, 4125.975564238496, -72968.40971331713, -55796.14559366055, -45590.38377885625, -47684.33990291833, -18485.69732733933, -50721.58434648327, 0.008, 0.784, 0.64, 192.0, 0.0, 0.0, 0.0, 0.0, 0.0, 0.0, 0.0, 0.0, 0.0, 1.654157269185358E9, 0.0, 2022-06-02 10:07:49.185
27.0, 20284.565721102445, 4120.074703702296, -72968.54382378385, -55795.67620702699, -45594.85412774731, -47690.9560192771, -18482.545731371134, -50739.3763350697, 0.014, 0.78, 0.644, 192.0, 0.0, 112.0, 24.0, 96.0, 20.0, 32.0, 0.0, 0.0, 0.0, 1.6541572691853645E9, 0.0, 2022-06-02 10:07:49.185
28.0, 20283.470485624133, 4118.7335990349775, -72980.94904195656, -55792.72577675889, -45597.5139853375, -47694.42053966768, -18495.018004777194, -50749.94871019706, 0.014, 0.78, 0.644, 192.0, 0.0, 0.0, 0.0, 0.0, 0.0, 0.0, 0.0, 0.0, 0.0, 1.65415726918537E9, 0.0, 2022-06-02 10:07:49.185
29.0, 20275.177988431216, 4106.306029117826, -73002.51847535593, -55812.50707060183, -45613.964869256604, -47721.22028126959, -18519.62727542249, -50786.87379203723, 0.014, 0.78, 0.644, 192.0, 0.0, 0.0, 0.0, 0.0, 0.0, 0.0, 0.0, 0.0, 0.0, 1.654157269185376E9, 0.0, 2022-06-02 10:07:49.185
30.0, 20276.608500076356, 4103.489709316457, -72994.47184735202, -55817.29034391527, -45614.12133146779, -47735.63715644326, -18527.070406326104, -50798.787271831905, 0.014, 0.78, 0.644, 192.0, 0.0, 0.0, 0.0, 0.0, 0.0, 0.0, 0.0, 0.0, 0.0, 1.6541572691853817E9, 0.0, 2022-06-02 10:07:49.185
31.0, 20285.90682576976, 4113.793863510355, -72970.48842555148, -55797.53140181678, -45596.59756381483, -47713.419522454686, -18527.606848193034, -50769.81941101783, 0.014, 0.78, 0.644, 192.0, 0.0, 0.0, 0.0, 0.0, 0.0, 0.0, 0.0, 0.0, 0.0, 1.6541572691853876E9, 0.0, 2022-06-02 10:07:49.185
32.0, 20281.39177338979, 4113.8609187437205, -72963.58173651478, -55793.463384325914, -45587.52275556597, -47706.46812992908, -18496.962606544806, -50749.70284100805, 0.014, 0.78, 0.644, 192.0, 0.0, 0.0, 0.0, 0.0, 0.0, 0.0, 0.0, 0.0, 0.0, 1.654157269185397E9, 0.0, 2022-06-02 10:07:49.185
33.0, 20285.660956580756, 4120.231165913483, -72967.69445749455, -55793.93277095947, -45582.717130508085, -47702.355408949305, -18474.342641156036, -50748.71936425202, 0.014, 0.78, 0.644, 192.0, 0.0, 0.0, 0.0, 0.0, 0.0, 0.0, 0.0, 0.0, 0.0, 1.6541572691854053E9, 0.0, 2022-06-02 10:07:49.185
34.0, 20275.222691920128, 4106.8201192402985, -72999.54569334337, -55824.018218996316, -45614.47895937908, -47726.271775516485, -18499.71187111281, -50780.414137889646, 0.014, 0.78, 0.644, 192.0, 0.0, 0.0, 0.0, 0.0, 0.0, 0.0, 0.0, 0.0, 0.0, 1.654157269185417E9, 0.0, 2022-06-02 10:07:49.185
35.0, 20293.34995667338, 4121.281697902882, -72981.44078033457, -55815.278686914295, -45607.08053196437, -47722.561385936904, -18510.75363287373, -50776.770803543426, 0.014, 0.78, 0.644, 192.0, 0.0, 0.0, 0.0, 0.0, 0.0, 0.0, 0.0, 0.0, 0.0, 1.6541572691854298E9, 0.0, 2022-06-02 10:07:49.185
36.0, 20295.54042763, 4129.171863695606, -72964.49815803744, -55803.92400073099, -45583.23122063056, -47708.233917741054, -18500.024795535184, -50763.73973652598, 0.014, 0.78, 0.644, 192.0, 0.0, 0.0, 0.0, 0.0, 0.0, 0.0, 0.0, 0.0, 0.0, 1.654157269185436E9, 0.0, 2022-06-02 10:07:49.185
37.0, 20293.10408748437, 4134.9386137650745, -72951.37768404218, -55791.09409941365, -45563.4052232987, -47685.792766307924, -18463.94907998432, -50734.123675122704, 0.02, 0.78, 0.648, 192.0, 0.0, 160.0, 24.0, 96.0, 20.0, 64.0, 0.0, 0.0, 0.0, 1.654157269185442E9, 0.0, 2022-06-02 10:07:49.185
38.0, 20282.82228503493, 4123.047485714851, -72970.73429474048, -55801.33119837418, -45590.51788932299, -47698.1085775028, -18507.423222949892, -50760.074050435316, 0.02, 0.78, 0.648, 192.0, 0.0, 0.0, 0.0, 0.0, 0.0, 0.0, 0.0, 0.0, 0.0, 1.654157269185448E9, 0.0, 2022-06-02 10:07:49.185
39.0, 20281.838808278895, 4119.605317068734, -72987.65456529315, -55820.71016081693, -45606.92406975318, -47721.9131853477, -18523.80705163563, -50792.39467291769, 0.02, 0.78, 0.648, 192.0, 0.0, 0.0, 0.0, 0.0, 0.0, 0.0, 0.0, 0.0, 0.0, 1.6541572691854553E9, 0.0, 2022-06-02 10:07:49.185
40.0, 20283.895168768784, 4120.812311269321, -72976.45634132104, -55821.58187885069, -45602.61018307331, -47720.10269404682, -18510.66422589591, -50772.009881974445, 0.02, 0.78, 0.648, 192.0, 0.0, 0.0, 0.0, 0.0, 0.0, 0.0, 0.0, 0.0, 0.0, 1.6541572691854615E9, 0.0, 2022-06-02 10:07:49.185
41.0, 20278.77661928852, 4119.158282179628, -72959.22314634599, -55807.96966647741, -45582.94064795264, -47693.39235942273, -18459.4563793488, -50710.83315740027, 0.02, 0.78, 0.648, 192.0, 0.0, 0.0, 0.0, 0.0, 0.0, 0.0, 0.0, 0.0, 0.0, 1.654157269185469E9, 0.0, 2022-06-02 10:07:49.185
42.0, 20272.20520641866, 4119.582965324279, -72961.3689138137, -55804.52749783129, -45584.23704913104, -47682.507059872994, -18476.309594668102, -50713.04598010135, 0.02, 0.78, 0.648, 192.0, 0.0, 0.0, 0.0, 0.0, 0.0, 0.0, 0.0, 0.0, 0.0, 1.6541572691854749E9, 0.0, 2022-06-02 10:07:49.185
43.0, 20267.24311914958, 4115.604354811234, -72974.0200011754, -55808.215535666415, -45588.863860233294, -47678.662559826684, -18470.811065532096, -50722.9701546395, 0.02, 0.78, 0.648, 192.0, 0.0, 0.0, 0.0, 0.0, 0.0, 0.0, 0.0, 0.0, 0.0, 1.654157269185485E9, 0.0, 2022-06-02 10:07:49.185
44.0, 20263.599784803366, 4106.797767495843, -73000.7303357995, -55825.60519285264, -45605.73942729705, -47690.508984388, -18492.08992625355, -50749.926358452605, 0.02, 0.78, 0.648, 192.0, 0.0, 0.0, 0.0, 0.0, 0.0, 0.0, 0.0, 0.0, 0.0, 1.6541572691854908E9, 0.0, 2022-06-02 10:07:49.185
45.0, 20264.069171436928, 4109.345866363748, -73001.06561196633, -55829.2261754544, -45611.46147387761, -47700.72373160407, -18519.694330655853, -50765.23730340449, 0.02, 0.78, 0.648, 192.0, 0.0, 0.0, 0.0, 0.0, 0.0, 0.0, 0.0, 0.0, 0.0, 1.6541572691854968E9, 0.0, 2022-06-02 10:07:49.185
46.0, 20259.263546379036, 4109.681142530578, -72988.12395192671, -55818.74320730486, -45599.65975280521, -47689.14552797622, -18495.576798388578, -50736.157683868136, 0.02, 0.78, 0.648, 192.0, 0.0, 0.0, 0.0, 0.0, 0.0, 0.0, 0.0, 0.0, 0.0, 1.6541572691855025E9, 0.0, 2022-06-02 10:07:49.185
47.0, 20258.190662645182, 4109.09999717474, -72982.4242570906, -55808.10377694414, -45595.14470042523, -47678.08141447084, -18496.917903055895, -50724.17714884009, 0.016, 0.784, 0.646, 192.0, 0.0, 128.0, 24.0, 128.0, 20.0, 48.0, 0.0, 0.0, 0.0, 1.6541572691855085E9, 0.0, 2022-06-02 10:07:49.185
48.0, 20253.653258520753, 4101.254534870927, -73002.65258582265, -55815.50220435885, -45616.31180242441, -47693.571173378376, -18527.517441215212, -50761.728079525004, 0.016, 0.784, 0.646, 192.0, 0.0, 0.0, 0.0, 0.0, 0.0, 0.0, 0.0, 0.0, 0.0, 1.6541572691855147E9, 0.0, 2022-06-02 10:07:49.185
49.0, 20254.882604465798, 4102.930915705075, -73019.39404241968, -55822.85592828464, -45636.763648601016, -47708.658600885705, -18546.538775746678, -50779.05068147787, 0.016, 0.784, 0.646, 192.0, 0.0, 0.0, 0.0, 0.0, 0.0, 0.0, 0.0, 0.0, 0.0, 1.654157269185521E9, 0.0, 2022-06-02 10:07:49.185
50.0, 20256.179005644204, 4103.445005827547, -73008.6875568256, -55817.6256200821, -45630.48280840908, -47716.34760097833, -18529.059711582628, -50776.971969243525, 0.016, 0.784, 0.646, 192.0, 0.0, 0.0, 0.0, 0.0, 0.0, 0.0, 0.0, 0.0, 0.0, 1.6541572691855268E9, 0.0, 2022-06-02 10:07:49.185
51.0, 20254.30145910996, 4103.802633738832, -72991.54376882837, -55807.5226315883, -45614.92599426818, -47716.32524923387, -18521.303656256638, -50785.152707714165, 0.016, 0.784, 0.646, 192.0, 0.0, 0.0, 0.0, 0.0, 0.0, 0.0, 0.0, 0.0, 0.0, 1.6541572691855328E9, 0.0, 2022-06-02 10:07:49.185
52.0, 20259.464712079134, 4111.268116386905, -72975.33875409827, -55788.143669145546, -45598.69862779363, -47703.8082723389, -18511.334778229568, -50774.267408164436, 0.016, 0.784, 0.646, 192.0, 0.0, 0.0, 0.0, 0.0, 0.0, 0.0, 0.0, 0.0, 0.0, 1.654157269185539E9, 0.0, 2022-06-02 10:07:49.185
53.0, 20259.308249867947, 4109.614087297212, -72978.71386751102, -55783.740375487854, -45591.16608991219, -47695.359312934794, -18482.23280694876, -50738.05758214684, 0.016, 0.784, 0.646, 192.0, 0.0, 0.0, 0.0, 0.0, 0.0, 0.0, 0.0, 0.0, 0.0, 1.6541572691855447E9, 0.0, 2022-06-02 10:07:49.185
54.0, 20255.776674244007, 4104.875517472687, -73003.79252478988, -55806.248582154345, -45615.88711927976, -47725.377705738276, -18523.203554535336, -50786.829088548315, 0.016, 0.784, 0.646, 192.0, 0.0, 0.0, 0.0, 0.0, 0.0, 0.0, 0.0, 0.0, 0.0, 1.6541572691855507E9, 0.0, 2022-06-02 10:07:49.185
55.0, 20262.43749409169, 4110.95519196453, -72998.8304375208, -55806.82972751019, -45617.20587220262, -47730.20568254062, -18516.34156898756, -50772.166344185636, 0.016, 0.784, 0.646, 192.0, 0.0, 0.0, 0.0, 0.0, 0.0, 0.0, 0.0, 0.0, 0.0, 1.6541572691855564E9, 0.0, 2022-06-02 10:07:49.185
56.0, 20266.326697626915, 4115.090264688762, -72981.17255940111, -55799.34189311766, -45608.086360464855, -47714.38064746626, -18481.47284763728, -50732.91668092211, 0.016, 0.784, 0.646, 192.0, 0.0, 0.0, 0.0, 0.0, 0.0, 0.0, 0.0, 0.0, 0.0, 1.6541572691855624E9, 0.0, 2022-06-02 10:07:49.185
57.0, 20273.434552363702, 4122.734561292477, -72967.64975400564, -55791.54113430275, -45594.89883123623, -47703.85297582782, -18477.829513291064, -50735.66594549012, 0.014, 0.784, 0.65, 192.0, 0.0, 112.0, 24.0, 128.0, 20.0, 80.0, 0.0, 0.0, 0.0, 1.6541572691855683E9, 0.0, 2022-06-02 10:07:49.185
58.0, 20267.176063916217, 4113.123311176695, -72985.64290829217, -55802.38173036358, -45609.27100292099, -47717.621650412286, -18514.03933930866, -50771.29462615188, 0.014, 0.784, 0.65, 192.0, 0.0, 0.0, 0.0, 0.0, 0.0, 0.0, 0.0, 0.0, 0.0, 1.654157269185574E9, 0.0, 2022-06-02 10:07:49.185
59.0, 20260.045857434972, 4103.936744205564, -73011.57093186032, -55826.119282975116, -45634.863750322314, -47739.705173934126, -18531.250182539246, -50793.51226014045, 0.014, 0.784, 0.65, 192.0, 0.0, 0.0, 0.0, 0.0, 0.0, 0.0, 0.0, 0.0, 0.0, 1.65415726918558E9, 0.0, 2022-06-02 10:07:49.185
60.0, 20271.199377918172, 4116.431369356081, -73002.27260616692, -55821.00073349485, -45631.39922993174, -47732.46320873061, -18531.42899649489, -50783.65514083566, 0.014, 0.784, 0.65, 192.0, 0.0, 0.0, 0.0, 0.0, 0.0, 0.0, 0.0, 0.0, 0.0, 1.654157269185586E9, 0.0, 2022-06-02 10:07:49.185
61.0, 20276.317927398435, 4120.901718247142, -72983.25127163545, -55807.88025949959, -45613.45077913413, -47715.162958522196, -18513.435842208368, -50765.8855039937, 0.014, 0.784, 0.65, 192.0, 0.0, 0.0, 0.0, 0.0, 0.0, 0.0, 0.0, 0.0, 0.0, 1.6541572691855917E9, 0.0, 2022-06-02 10:07:49.185
62.0, 20270.752343029064, 4114.017380954907, -72979.49617856696, -55805.64508505406, -45605.3147441524, -47709.59737415283, -18501.634121135965, -50764.454992348554, 0.014, 0.784, 0.65, 192.0, 0.0, 0.0, 0.0, 0.0, 0.0, 0.0, 0.0, 0.0, 0.0, 1.654157269185598E9, 0.0, 2022-06-02 10:07:49.185
63.0, 20264.5832615594, 4111.134005920173, -72989.55446357185, -55810.36130313412, -45608.48869186505, -47713.33011547686, -18512.29590324115, -50790.71829208354, 0.014, 0.784, 0.65, 192.0, 0.0, 0.0, 0.0, 0.0, 0.0, 0.0, 0.0, 0.0, 0.0, 1.6541572691856036E9, 0.0, 2022-06-02 10:07:49.185
64.0, 20263.711543525642, 4104.137909905661, -73003.2337311785, -55827.14746322006, -45622.302069938436, -47727.3670109948, -18534.84881339655, -50814.90287958418, 0.014, 0.784, 0.65, 192.0, 0.0, 0.0, 0.0, 0.0, 0.0, 0.0, 0.0, 0.0, 0.0, 1.6541572691856115E9, 0.0, 2022-06-02 10:07:49.185
65.0, 20253.653258520753, 4095.800709223832, -73006.81001029134, -55834.32237319021, -45613.204909945125, -47728.998688340034, -18513.435842208368, -50787.79021355989, 0.014, 0.784, 0.65, 192.0, 0.0, 0.0, 0.0, 0.0, 0.0, 0.0, 0.0, 0.0, 0.0, 1.6541572691856177E9, 0.0, 2022-06-02 10:07:49.185
66.0, 20260.716409768633, 4107.423616340592, -72984.95000421406, -55814.69754155845, -45605.73942729705, -47706.266964228984, -18493.98982453225, -50765.930207482605, 0.014, 0.784, 0.65, 192.0, 0.0, 0.0, 0.0, 0.0, 0.0, 0.0, 0.0, 0.0, 0.0, 1.6541572691856234E9, 0.0, 2022-06-02 10:07:49.185
67.0, 20262.370438858325, 4108.675314030089, -72979.76439950042, -55806.85207925464, -45599.95032548313, -47698.71207460309, -18509.85956309552, -50771.451088363065, 0.014, 0.788, 0.654, 192.0, 0.0, 112.0, 24.0, 160.0, 20.0, 112.0, 0.0, 0.0, 0.0, 1.6541572691856296E9, 0.0, 2022-06-02 10:07:49.185
68.0, 20247.52888054, 4094.638418512156, -73002.85375152275, -55821.26895442831, -45609.78509304346, -47712.68191488766, -18538.022761109205, -50804.174042245635, 0.014, 0.788, 0.654, 192.0, 0.0, 0.0, 0.0, 0.0, 0.0, 0.0, 0.0, 0.0, 0.0, 1.6541572691856353E9, 0.0, 2022-06-02 10:07:49.185
69.0, 20247.171252628716, 4090.391587065648, -73020.64574010918, -55835.417608668526, -45634.394363688756, -47719.76741787999, -18538.559202976132, -50780.57060010083, 0.014, 0.788, 0.654, 192.0, 0.0, 0.0, 0.0, 0.0, 0.0, 0.0, 0.0, 0.0, 0.0, 1.6541572691856413E9, 0.0, 2022-06-02 10:07:49.185
70.0, 20260.135264412795, 4099.555802292323, -73009.22399869251, -55825.09110273017, -45634.90845381123, -47705.305839217406, -18518.912019599917, -50735.06244838983, 0.014, 0.788, 0.654, 192.0, 0.0, 0.0, 0.0, 0.0, 0.0, 0.0, 0.0, 0.0, 0.0, 1.6541572691856484E9, 0.0, 2022-06-02 10:07:49.185
71.0, 20260.068209179426, 4102.90856396062, -72998.40575437614, -55816.99977123735, -45629.74520084205, -47700.43315892615, -18517.727377143787, -50738.28109959139, 0.014, 0.788, 0.654, 192.0, 0.0, 0.0, 0.0, 0.0, 0.0, 0.0, 0.0, 0.0, 0.0, 1.6541572691856542E9, 0.0, 2022-06-02 10:07:49.185
72.0, 20262.01281094704, 4107.378912851681, -72986.02288794791, -55805.93565773197, -45614.07662797888, -47689.704321587604, -18492.402850675924, -50724.534776751374, 0.014, 0.788, 0.654, 192.0, 0.0, 0.0, 0.0, 0.0, 0.0, 0.0, 0.0, 0.0, 0.0, 1.65415726918566E9, 0.0, 2022-06-02 10:07:49.185
73.0, 20261.275203380013, 4106.90952621812, -72993.01898396242, -55809.556640333736, -45609.1145407098, -47696.990990280035, -18479.930577269864, -50739.13046588069, 0.014, 0.788, 0.654, 192.0, 0.0, 0.0, 0.0, 0.0, 0.0, 0.0, 0.0, 0.0, 0.0, 1.654157269185666E9, 0.0, 2022-06-02 10:07:49.185
74.0, 20244.511395038535, 4091.017435910396, -73023.19383897708, -55838.07746625871, -45635.780171844985, -47735.95008086564, -18528.255048782237, -50802.40825443366, 0.014, 0.788, 0.654, 192.0, 0.0, 0.0, 0.0, 0.0, 0.0, 0.0, 0.0, 0.0, 0.0, 1.6541572691856718E9, 0.0, 2022-06-02 10:07:49.185
75.0, 20239.214031602627, 4077.9193136595864, -73028.22298147953, -55848.895710575074, -45645.771401616505, -47762.906284678735, -18558.34049681908, -50832.09137107032, 0.014, 0.788, 0.654, 192.0, 0.0, 0.0, 0.0, 0.0, 0.0, 0.0, 0.0, 0.0, 0.0, 1.6541572691856778E9, 0.0, 2022-06-02 10:07:49.185
76.0, 20245.96425842813, 4085.138927118651, -73000.0821352103, -55828.66738184302, -45631.578043887384, -47748.98114788308, -18541.48728149978, -50813.38296096122, 0.014, 0.788, 0.654, 192.0, 0.0, 0.0, 0.0, 0.0, 0.0, 0.0, 0.0, 0.0, 0.0, 1.6541572691856844E9, 0.0, 2022-06-02 10:07:49.185
77.0, 20243.99730491606, 4091.732691732966, -72986.24640539246, -55812.90940200203, -45626.21362521811, -47725.265947016, -18533.95474361834, -50779.09538496678, 0.016, 0.786, 0.648, 192.0, 0.0, 128.0, 24.0, 144.0, 20.0, 64.0, 0.0, 0.0, 0.0, 1.6541572691856904E9, 0.0, 2022-06-02 10:07:49.185
78.0, 20240.130453125294, 4087.3741015641813, -72993.57777757381, -55806.49445134336, -45621.07272399339, -47722.94136559265, -18517.86148761052, -50782.291684423886, 0.016, 0.786, 0.648, 192.0, 0.0, 0.0, 0.0, 0.0, 0.0, 0.0, 0.0, 0.0, 0.0, 1.654157269185696E9, 0.0, 2022-06-02 10:07:49.185
79.0, 20243.505566538046, 4082.0543863838184, -73014.45430689506, -55819.05613172724, -45642.84332309286, -47746.25423505953, -18557.893461929973, -50833.052496081895, 0.016, 0.786, 0.648, 192.0, 0.0, 0.0, 0.0, 0.0, 0.0, 0.0, 0.0, 0.0, 0.0, 1.654157269185702E9, 0.0, 2022-06-02 10:07:49.185
80.0, 20255.128473654804, 4094.5043080454243, -73006.31827191333, -55814.51872760281, -45647.78305861748, -47744.26492980301, -18579.574654051623, -50833.454827482085, 0.016, 0.786, 0.648, 192.0, 0.0, 0.0, 0.0, 0.0, 0.0, 0.0, 0.0, 0.0, 0.0, 1.654157269185708E9, 0.0, 2022-06-02 10:07:49.185
81.0, 20248.311191595938, 4093.8114039673096, -72992.19196941757, -55804.929829231485, -45633.88027356628, -47722.06964755889, -18530.981961605783, -50769.30532089536, 0.016, 0.786, 0.648, 192.0, 0.0, 0.0, 0.0, 0.0, 0.0, 0.0, 0.0, 0.0, 0.0, 1.6541572691857135E9, 0.0, 2022-06-02 10:07:49.185
82.0, 20240.599839758856, 4094.19138362305, -72984.32415536931, -55799.3195413732, -45617.58585185836, -47705.797577595426, -18493.632196620965, -50749.792247985875, 0.016, 0.786, 0.648, 192.0, 0.0, 0.0, 0.0, 0.0, 0.0, 0.0, 0.0, 0.0, 0.0, 1.65415726918572E9, 0.0, 2022-06-02 10:07:49.185
83.0, 20238.81170020243, 4093.7443487339438, -72998.47280960952, -55805.30980888722, -45625.923052540194, -47710.334981719854, -18517.95089458834, -50782.76107105745, 0.016, 0.786, 0.648, 192.0, 0.0, 0.0, 0.0, 0.0, 0.0, 0.0, 0.0, 0.0, 0.0, 1.6541572691857257E9, 0.0, 2022-06-02 10:07:49.185
84.0, 20246.4783485506, 4094.1466801341394, -73011.66033883815, -55816.396274137056, -45630.75102934254, -47714.9617928221, -18516.878010854485, -50770.22174241803, 0.016, 0.786, 0.648, 192.0, 0.0, 0.0, 0.0, 0.0, 0.0, 0.0, 0.0, 0.0, 0.0, 1.6541572691857316E9, 0.0, 2022-06-02 10:07:49.185
85.0, 20253.34033409838, 4099.913430203608, -73007.8828940252, -55821.984210250885, -45636.338965456365, -47724.12600804878, -18541.04024661067, -50784.258637935956, 0.016, 0.786, 0.648, 192.0, 0.0, 0.0, 0.0, 0.0, 0.0, 0.0, 0.0, 0.0, 0.0, 1.6541572691857371E9, 0.0, 2022-06-02 10:07:49.185
86.0, 20242.29857233746, 4091.442119055047, -73003.83722827879, -55825.068750985716, -45631.242767720556, -47723.58956618185, -18540.280287299192, -50789.89127753869, 0.016, 0.786, 0.648, 192.0, 0.0, 0.0, 0.0, 0.0, 0.0, 0.0, 0.0, 0.0, 0.0, 1.6541572691857452E9, 0.0, 2022-06-02 10:07:49.185
87.0, 20237.470595535113, 4087.642322497645, -72998.04812646487, -55823.01239049583, -45626.66066010722, -47719.78976962445, -18513.189973019358, -50772.367509885735, 0.014, 0.786, 0.65, 192.0, 0.0, 112.0, 24.0, 144.0, 20.0, 80.0, 0.0, 0.0, 0.0, 1.6541572691857507E9, 0.0, 2022-06-02 10:07:49.185
88.0, 20237.96233391313, 4082.0767381282735, -73006.07240272431, -55828.980306265395, -45631.712154354114, -47725.60122318283, -18527.584496448577, -50790.740643827994, 0.014, 0.786, 0.65, 192.0, 0.0, 0.0, 0.0, 0.0, 0.0, 0.0, 0.0, 0.0, 0.0, 1.6541572691857567E9, 0.0, 2022-06-02 10:07:49.185
89.0, 20230.742720454065, 4074.097165357729, -73028.82647857982, -55848.04634428577, -45648.632424906784, -47745.18135132568, -18557.66994448542, -50824.87175761125, 0.014, 0.786, 0.65, 192.0, 0.0, 0.0, 0.0, 0.0, 0.0, 0.0, 0.0, 0.0, 0.0, 1.6541572691857624E9, 0.0, 2022-06-02 10:07:49.185
90.0, 20236.732987968087, 4077.986368892952, -73019.4387459086, -55846.12409426262, -45649.057108051435, -47749.562293238916, -18565.49305504478, -50824.98351633352, 0.014, 0.786, 0.65, 192.0, 0.0, 0.0, 0.0, 0.0, 0.0, 0.0, 0.0, 0.0, 0.0, 1.6541572691857684E9, 0.0, 2022-06-02 10:07:49.185
91.0, 20233.581391999887, 4079.7745084493768, -73001.7808677889, -55834.59059412368, -45638.88706432427, -47734.07253433139, -18557.91581367443, -50805.850423079784, 0.014, 0.786, 0.65, 192.0, 0.0, 0.0, 0.0, 0.0, 0.0, 0.0, 0.0, 0.0, 0.0, 1.654157269185774E9, 0.0, 2022-06-02 10:07:49.185
92.0, 20230.6756652207, 4079.863915427198, -72995.00828921894, -55828.30975393174, -45630.683974109175, -47714.112426532796, -18541.19670882186, -50774.267408164436, 0.014, 0.786, 0.65, 192.0, 0.0, 0.0, 0.0, 0.0, 0.0, 0.0, 0.0, 0.0, 0.0, 1.65415726918578E9, 0.0, 2022-06-02 10:07:49.185
93.0, 20235.838918189875, 4082.9484561620307, -72994.65066130766, -55819.324352660704, -45628.0688200079, -47702.28835371594, -18529.037359838174, -50764.76791677093, 0.014, 0.786, 0.65, 192.0, 0.0, 0.0, 0.0, 0.0, 0.0, 0.0, 0.0, 0.0, 0.0, 1.6541572691857855E9, 0.0, 2022-06-02 10:07:49.185
94.0, 20233.402578044246, 4076.578208992268, -73015.30367318436, -55834.16591097903, -45643.58093065988, -47722.516682448, -18525.259915025224, -50784.50450712496, 0.014, 0.786, 0.65, 192.0, 0.0, 0.0, 0.0, 0.0, 0.0, 0.0, 0.0, 0.0, 0.0, 1.654157269185794E9, 0.0, 2022-06-02 10:07:49.185
95.0, 20238.4764240356, 4082.0543863838184, -73012.55440861636, -55832.824806311706, -45651.33698598588, -47731.54678720794, -18534.49118548527, -50787.879620537715, 0.014, 0.786, 0.65, 192.0, 0.0, 0.0, 0.0, 0.0, 0.0, 0.0, 0.0, 0.0, 0.0, 1.6541572691858E9, 0.0, 2022-06-02 10:07:49.185
96.0, 20231.323865809904, 4080.4450607830363, -73010.85567603775, -55833.47300690091, -45648.163038273226, -47736.486522732564, -18555.591232251078, -50804.82224283484, 0.014, 0.786, 0.65, 192.0, 0.0, 0.0, 0.0, 0.0, 0.0, 0.0, 0.0, 0.0, 0.0, 1.6541572691858056E9, 0.0, 2022-06-02 10:07:49.185
97.0, 20226.026502373996, 4075.7511944474218, -73010.94508301557, -55836.5798993802, -45643.31270972642, -47742.02975535748, -18566.945918434372, -50824.447074466596, 0.014, 0.788, 0.654, 192.0, 0.0, 112.0, 24.0, 160.0, 20.0, 112.0, 0.0, 0.0, 0.0, 1.6541572691858115E9, 0.0, 2022-06-02 10:07:49.185
98.0, 20226.38413028528, 4074.074813613274, -73017.5835511188, -55834.970573779414, -45641.010480047524, -47739.146380322745, -18544.57182223461, -50809.78433010392, 0.014, 0.788, 0.654, 192.0, 0.0, 0.0, 0.0, 0.0, 0.0, 0.0, 0.0, 0.0, 0.0, 1.6541572691858177E9, 0.0, 2022-06-02 10:07:49.185
99.0, 20220.237400560072, 4064.418860008581, -73035.8896298277, -55844.5818238952, -45655.025023821, -47744.48844724756, -18543.29777280066, -50796.95442878657, 0.014, 0.788, 0.654, 192.0, 0.0, 0.0, 0.0, 0.0, 0.0, 0.0, 0.0, 0.0, 0.0, 1.6541572691858234E9, 0.0, 2022-06-02 10:07:49.185
100.0, 20226.272371563, 4071.817287423288, -73025.56312388934, -55837.58572788069, -45656.29907325495, -47748.40000252724, -18556.90998517394, -50801.648295122184, 0.014, 0.788, 0.654, 192.0, 0.0, 0.0, 0.0, 0.0, 0.0, 0.0, 0.0, 0.0, 0.0, 1.6541572691858292E9, 0.0, 2022-06-02 10:07:49.185
101.0, 20228.127566352792, 4075.348863047226, -73012.77792606091, -55825.67224808601, -45635.86957882281, -47741.20274081263, -18536.94987737535, -50796.30622819737, 0.014, 0.788, 0.654, 192.0, 0.0, 0.0, 0.0, 0.0, 0.0, 0.0, 0.0, 0.0, 0.0, 1.654157269185835E9, 0.0, 2022-06-02 10:07:49.185
102.0, 20224.10425235084, 4075.639435725145, -73010.56510335984, -55816.9774194929, -45634.01438403301, -47736.08419133237, -18545.979982135294, -50806.900955069184, 0.014, 0.788, 0.654, 192.0, 0.0, 0.0, 0.0, 0.0, 0.0, 0.0, 0.0, 0.0, 0.0, 1.6541572691858408E9, 0.0, 2022-06-02 10:07:49.185
103.0, 20214.56005746842, 4074.3430345467373, -73017.47179239652, -55811.992980479365, -45630.59456713135, -47728.55165345093, -18521.057787067628, -50803.548193400886, 0.014, 0.788, 0.654, 192.0, 0.0, 0.0, 0.0, 0.0, 0.0, 0.0, 0.0, 0.0, 0.0, 1.6541572691858463E9, 0.0, 2022-06-02 10:07:49.185
104.0, 20214.828278401885, 4071.1467350896282, -73024.89257155568, -55817.156233448535, -45634.97550904459, -47730.540958707454, -18510.977150318286, -50792.2382107065, 0.014, 0.788, 0.654, 192.0, 0.0, 0.0, 0.0, 0.0, 0.0, 0.0, 0.0, 0.0, 0.0, 1.6541572691858523E9, 0.0, 2022-06-02 10:07:49.185
105.0, 20216.124679580294, 4069.7162234444886, -73027.37361519023, -55827.61684985362, -45646.15138127225, -47736.2183017991, -18530.57963020559, -50782.80577454636, 0.014, 0.788, 0.654, 192.0, 0.0, 0.0, 0.0, 0.0, 0.0, 0.0, 0.0, 0.0, 0.0, 1.654157269185858E9, 0.0, 2022-06-02 10:07:49.185
106.0, 20208.770955654498, 4065.603502464712, -73020.66809185363, -55830.4778731439, -45647.96187257313, -47736.15124656573, -18546.4270170244, -50795.1886409746, 0.016, 0.782, 0.648, 192.0, 0.0, 128.0, 24.0, 112.0, 20.0, 64.0, 0.0, 0.0, 0.0, 1.6541572691858637E9, 0.0, 2022-06-02 10:07:49.185
107.0, 20204.926455608183, 4066.1399443316395, -73012.06267023835, -55825.2252131969, -45643.670337637705, -47724.48363596006, -18547.678714713897, -50790.49477463899, 0.016, 0.782, 0.648, 192.0, 0.0, 0.0, 0.0, 0.0, 0.0, 0.0, 0.0, 0.0, 0.0, 1.6541572691858716E9, 0.0, 2022-06-02 10:07:49.185
108.0, 20201.931321851174, 4065.0894123422404, -73022.8362110658, -55828.488567887376, -45642.86567483732, -47727.43406622816, -18543.610697223034, -50795.14393748569, 0.016, 0.782, 0.648, 192.0, 0.0, 0.0, 0.0, 0.0, 0.0, 0.0, 0.0, 0.0, 0.0, 1.6541572691858783E9, 0.0, 2022-06-02 10:07:49.185
109.0, 20203.920627107695, 4062.1166303296845, -73047.93722008911, -55849.946242564474, -45668.99486410557, -47743.59437746935, -18589.387069867502, -50818.27799299693, 0.016, 0.782, 0.648, 192.0, 0.0, 0.0, 0.0, 0.0, 0.0, 0.0, 0.0, 0.0, 0.0, 1.654157269185884E9, 0.0, 2022-06-02 10:07:49.185
110.0, 20202.400708484736, 4059.0097378503965, -73050.5970776793, -55861.61385317014, -45673.30875078544, -47757.877142176294, -18581.653366285966, -50824.53648144442, 0.016, 0.782, 0.648, 192.0, 0.0, 0.0, 0.0, 0.0, 0.0, 0.0, 0.0, 0.0, 0.0, 1.65415726918589E9, 0.0, 2022-06-02 10:07:49.185
111.0, 20211.5202202225, 4064.7094326865, -73035.9343333166, -55854.707164133455, -45661.28351226849, -47750.523418250494, -18561.648554998465, -50815.10404528428, 0.016, 0.782, 0.648, 192.0, 0.0, 0.0, 0.0, 0.0, 0.0, 0.0, 0.0, 0.0, 0.0, 1.6541572691858957E9, 0.0, 2022-06-02 10:07:49.185
112.0, 20204.14414455225, 4058.6074064502013, -73032.22394373703, -55855.31066123374, -45661.3282157574, -47743.5720257249, -18555.457121784344, -50798.18377473161, 0.016, 0.782, 0.648, 192.0, 0.0, 0.0, 0.0, 0.0, 0.0, 0.0, 0.0, 0.0, 0.0, 1.6541572691859016E9, 0.0, 2022-06-02 10:07:49.185
113.0, 20211.699034178142, 4067.637511210145, -73020.735147087, -55847.7334198634, -45642.195122503654, -47739.01226985601, -18532.36776976201, -50794.85336480777, 0.016, 0.782, 0.648, 192.0, 0.0, 0.0, 0.0, 0.0, 0.0, 0.0, 0.0, 0.0, 0.0, 1.6541572691859083E9, 0.0, 2022-06-02 10:07:49.185
114.0, 20206.245208531047, 4061.7813541628548, -73036.15785076116, -55863.513751448845, -45647.671299895206, -47750.255197317034, -18531.026665094694, -50805.649257379686, 0.016, 0.782, 0.648, 192.0, 0.0, 0.0, 0.0, 0.0, 0.0, 0.0, 0.0, 0.0, 0.0, 1.6541572691859145E9, 0.0, 2022-06-02 10:07:49.185
115.0, 20212.973083612094, 4063.8824181416535, -73030.65932162516, -55862.57497818172, -45653.34864298686, -47749.18231358317, -18530.19965054985, -50793.556963629366, 0.016, 0.782, 0.648, 192.0, 0.0, 0.0, 0.0, 0.0, 0.0, 0.0, 0.0, 0.0, 0.0, 1.6541572691859202E9, 0.0, 2022-06-02 10:07:49.185
116.0, 20229.312208808926, 4080.065081127296, -73007.41350739164, -55839.41857092602, -45634.55082589994, -47734.13958956475, -18537.62042970901, -50781.107041967756, 0.016, 0.782, 0.646, 192.0, 0.0, 128.0, 24.0, 112.0, 20.0, 48.0, 0.0, 0.0, 0.0, 1.654157269185926E9, 0.0, 2022-06-02 10:07:49.185
117.0, 20221.6232087163, 4077.695796215033, -73003.61371083424, -55835.37290517961, -45622.39147691625, -47735.74891516554, -18558.76517996373, -50795.94860028608, 0.016, 0.782, 0.646, 192.0, 0.0, 0.0, 0.0, 0.0, 0.0, 0.0, 0.0, 0.0, 0.0, 1.654157269185932E9, 0.0, 2022-06-02 10:07:49.185
118.0, 20213.308359778926, 4070.18561007805, -73012.1297254717, -55842.43605642749, -45636.24955847854, -47746.54480773745, -18573.33851734859, -50825.0952750558, 0.016, 0.782, 0.646, 192.0, 0.0, 0.0, 0.0, 0.0, 0.0, 0.0, 0.0, 0.0, 0.0, 1.654157269185938E9, 0.0, 2022-06-02 10:07:49.185
119.0, 20209.977949855085, 4066.922255387575, -73031.35222570327, -55858.21638801294, -45654.06389880942, -47756.6701479757, -18554.943031661875, -50818.68032439713, 0.016, 0.782, 0.646, 192.0, 0.0, 0.0, 0.0, 0.0, 0.0, 0.0, 0.0, 0.0, 0.0, 1.6541572691859443E9, 0.0, 2022-06-02 10:07:49.185
120.0, 20222.964313383618, 4079.28277007136, -73020.84690580927, -55847.26403322983, -45647.15720977273, -47750.88104616178, -18545.018857123716, -50806.43156843562, 0.016, 0.782, 0.646, 192.0, 0.0, 0.0, 0.0, 0.0, 0.0, 0.0, 0.0, 0.0, 0.0, 1.65415726918595E9, 0.0, 2022-06-02 10:07:49.185
121.0, 20224.707749451132, 4078.411052037603, -73008.03935623639, -55841.989021538386, -45635.75782010053, -47744.71196469211, -18532.23365929528, -50803.43643467861, 0.016, 0.782, 0.646, 192.0, 0.0, 0.0, 0.0, 0.0, 0.0, 0.0, 0.0, 0.0, 0.0, 1.6541572696658037E9, 0.0, 2022-06-02 10:07:49.665
122.0, 20224.350121539846, 4081.964979405997, -73000.9315014996, -55835.03762901278, -45636.271910223, -47728.14932205073, -18535.027627352196, -50785.935018770106, 0.016, 0.782, 0.646, 192.0, 0.0, 0.0, 0.0, 0.0, 0.0, 0.0, 0.0, 0.0, 0.0, 1.654157269665998E9, 0.0, 2022-06-02 10:07:49.665
123.0, 20228.306380308437, 4087.0388253973515, -73000.46211486604, -55828.175643465, -45631.578043887384, -47718.381609723765, -18519.22494402229, -50768.6347685617, 0.016, 0.782, 0.646, 192.0, 0.0, 0.0, 0.0, 0.0, 0.0, 0.0, 0.0, 0.0, 0.0, 1.654157269666004E9, 0.0, 2022-06-02 10:07:49.666
124.0, 20231.659141976732, 4086.122403874684, -73015.77305981792, -55837.38456218059, -45638.88706432427, -47730.49625521854, -18540.682618699386, -50799.837803821305, 0.016, 0.782, 0.646, 192.0, 0.0, 0.0, 0.0, 0.0, 0.0, 0.0, 0.0, 0.0, 0.0, 1.6541572696660109E9, 0.0, 2022-06-02 10:07:49.666
125.0, 20218.00222611454, 4078.5004590154244, -73027.41831867913, -55853.96955656643, -45658.66835816722, -47759.39706079925, -18582.703898275366, -50842.82020840886, 0.016, 0.782, 0.646, 192.0, 0.0, 0.0, 0.0, 0.0, 0.0, 0.0, 0.0, 0.0, 0.0, 1.654157269666019E9, 0.0, 2022-06-02 10:07:49.666
126.0, 20214.537705723968, 4076.131174103162, -73019.95283603107, -55846.50407391835, -45650.398212718756, -47751.305729306434, -18570.18692138039, -50823.10596979928, 0.012, 0.778, 0.644, 192.0, 0.0, 96.0, 24.0, 80.0, 20.0, 32.0, 0.0, 0.0, 0.0, 1.6541572696660259E9, 0.0, 2022-06-02 10:07:49.666
127.0, 20210.42498474419, 4071.102031600718, -73006.4300306356, -55834.2776697013, -45636.11544801181, -47734.318403520396, -18522.175374290393, -50786.73968157049, 0.012, 0.778, 0.644, 192.0, 0.0, 0.0, 0.0, 0.0, 0.0, 0.0, 0.0, 0.0, 0.0, 1.6541572696660318E9, 0.0, 2022-06-02 10:07:49.666
128.0, 20212.749566167542, 4072.8901711571425, -73014.72252782852, -55833.160082478535, -45642.79861960395, -47736.10654307682, -18542.694275700364, -50813.36060921677, 0.012, 0.778, 0.644, 192.0, 0.0, 0.0, 0.0, 0.0, 0.0, 0.0, 0.0, 0.0, 0.0, 1.6541572696660633E9, 0.0, 2022-06-02 10:07:49.666
129.0, 20201.819563128898, 4063.390679763637, -73052.60873468027, -55859.40103046907, -45673.35345427435, -47757.877142176294, -18584.134409920505, -50838.59572870681, 0.012, 0.778, 0.644, 192.0, 0.0, 0.0, 0.0, 0.0, 0.0, 0.0, 0.0, 0.0, 0.0, 1.6541572696660693E9, 0.0, 2022-06-02 10:07:49.666
130.0, 20209.307397521425, 4068.0174908658855, -73050.66413291266, -55862.57497818172, -45678.71787294363, -47760.91697942221, -18584.268520387235, -50825.11762680026, 0.012, 0.778, 0.644, 192.0, 0.0, 0.0, 0.0, 0.0, 0.0, 0.0, 0.0, 0.0, 0.0, 1.6541572696660752E9, 0.0, 2022-06-02 10:07:49.666
131.0, 20218.136336581272, 4072.7560606904103, -73028.22298147953, -55849.00746929735, -45658.89187561177, -47745.13664783676, -18550.04799962616, -50795.90389679717, 0.012, 0.778, 0.644, 192.0, 0.0, 0.0, 0.0, 0.0, 0.0, 0.0, 0.0, 0.0, 0.0, 1.6541572696660812E9, 0.0, 2022-06-02 10:07:49.666
132.0, 20215.945865624653, 4070.319720544782, -73017.69530984107, -55844.179492495, -45645.704346383136, -47742.09681059085, -18539.229755309792, -50798.742568343, 0.012, 0.778, 0.644, 192.0, 0.0, 0.0, 0.0, 0.0, 0.0, 0.0, 0.0, 0.0, 0.0, 1.6541572696660872E9, 0.0, 2022-06-02 10:07:49.666
133.0, 20219.119813337304, 4076.9805403924634, -73019.05876625286, -55843.55364365025, -45643.35741321533, -47744.309633291916, -18540.347342532557, -50817.026295307434, 0.012, 0.778, 0.644, 192.0, 0.0, 0.0, 0.0, 0.0, 0.0, 0.0, 0.0, 0.0, 0.0, 1.654157269666093E9, 0.0, 2022-06-02 10:07:49.666
134.0, 20212.436641745167, 4066.0728890982737, -73047.42312996664, -55868.69935616248, -45666.044433837465, -47770.72939523809, -18573.11499990404, -50852.0514788689, 0.012, 0.778, 0.644, 192.0, 0.0, 0.0, 0.0, 0.0, 0.0, 0.0, 0.0, 0.0, 0.0, 1.6541572696660988E9, 0.0, 2022-06-02 10:07:49.666
135.0, 20219.320979037402, 4064.8435431532316, -73039.10828102926, -55869.459315473956, -45666.44676523766, -47769.56710452642, -18571.773895236718, -50813.51707142795, 0.012, 0.778, 0.644, 192.0, 0.0, 0.0, 0.0, 0.0, 0.0, 0.0, 0.0, 0.0, 0.0, 1.6541572696661043E9, 0.0, 2022-06-02 10:07:49.666
136.0, 20212.011958600517, 4060.2614355398937, -73026.79246983438, -55865.21248402745, -45661.75289890205, -47759.5758747549, -18564.777799222207, -50793.91459154065, 0.008, 0.788, 0.648, 192.0, 0.0, 64.0, 24.0, 160.0, 20.0, 64.0, 0.0, 0.0, 0.0, 1.6541572696661096E9, 0.0, 2022-06-02 10:07:49.666
137.0, 20198.95853983862, 4051.4324964800476, -73025.02668202242, -55869.19109454049, -45648.788887117975, -47763.666243990214, -18560.75448522025, -50807.72796961403, 0.008, 0.788, 0.648, 192.0, 0.0, 0.0, 0.0, 0.0, 0.0, 0.0, 0.0, 0.0, 0.0, 1.6541572696661153E9, 0.0, 2022-06-02 10:07:49.666
138.0, 20204.70293816363, 4060.5967117067235, -73022.56799013233, -55865.90538810556, -45641.54692191445, -47764.15798236823, -18566.52123528972, -50830.05736232488, 0.008, 0.788, 0.648, 192.0, 0.0, 0.0, 0.0, 0.0, 0.0, 0.0, 0.0, 0.0, 0.0, 1.6541572696661222E9, 0.0, 2022-06-02 10:07:49.666
139.0, 20211.09553707785, 4059.5908832062346, -73034.72733911603, -55877.215370799946, -45660.9258843572, -47771.19878187165, -18564.375467822014, -50840.85325489679, 0.008, 0.788, 0.648, 192.0, 0.0, 0.0, 0.0, 0.0, 0.0, 0.0, 0.0, 0.0, 0.0, 1.654157269666128E9, 0.0, 2022-06-02 10:07:49.666
140.0, 20205.731118408577, 4050.89605461312, -73045.81380436585, -55890.53701049531, -45680.57306773342, -47781.05590117644, -18556.217081095827, -50832.22548153705, 0.008, 0.788, 0.648, 192.0, 0.0, 0.0, 0.0, 0.0, 0.0, 0.0, 0.0, 0.0, 0.0, 1.654157269666134E9, 0.0, 2022-06-02 10:07:49.666
141.0, 20207.876885876285, 4057.579226205257, -73034.4367664381, -55882.803306913775, -45680.41660552223, -47770.662340004725, -18585.117886676537, -50830.63850768072, 0.008, 0.788, 0.648, 192.0, 0.0, 0.0, 0.0, 0.0, 0.0, 0.0, 0.0, 0.0, 0.0, 1.6541572696661403E9, 0.0, 2022-06-02 10:07:49.666
142.0, 20213.12954582328, 4066.1399443316395, -73021.38334767621, -55867.20178928397, -45665.37388150381, -47756.334871808875, -18598.193657182892, -50827.41985647915, 0.008, 0.788, 0.648, 192.0, 0.0, 0.0, 0.0, 0.0, 0.0, 0.0, 0.0, 0.0, 0.0, 1.6541572696661465E9, 0.0, 2022-06-02 10:07:49.666
143.0, 20220.080938348885, 4073.2925025573377, -73023.23854246599, -55861.14446653658, -45653.30393949794, -47745.583682725875, -18568.82346496862, -50820.37905697573, 0.008, 0.788, 0.648, 192.0, 0.0, 0.0, 0.0, 0.0, 0.0, 0.0, 0.0, 0.0, 0.0, 1.6541572696661527E9, 0.0, 2022-06-02 10:07:49.666
144.0, 20225.84768841835, 4075.8182496807876, -73038.61654265125, -55869.28050151831, -45655.89674185476, -47756.267816575506, -18552.037304882684, -50830.660859425174, 0.008, 0.788, 0.648, 192.0, 0.0, 0.0, 0.0, 0.0, 0.0, 0.0, 0.0, 0.0, 0.0, 1.6541572696661584E9, 0.0, 2022-06-02 10:07:49.666
145.0, 20228.39578728626, 4076.5335055033574, -73040.7846618634, -55872.23093178641, -45670.35832051734, -47765.700252735645, -18576.44540982788, -50838.86394964027, 0.008, 0.788, 0.648, 192.0, 0.0, 0.0, 0.0, 0.0, 0.0, 0.0, 0.0, 0.0, 0.0, 1.6541572696661644E9, 0.0, 2022-06-02 10:07:49.666
146.0, 20222.316112794415, 4071.6384734676453, -73036.2919612279, -55869.168742796035, -45673.9793031191, -47764.35914806833, -18593.164514680448, -50840.11564732977, 0.012, 0.784, 0.65, 192.0, 0.0, 96.0, 24.0, 128.0, 20.0, 80.0, 0.0, 0.0, 0.0, 1.6541572696661744E9, 0.0, 2022-06-02 10:07:49.666
147.0, 20217.376377269793, 4071.7278804454663, -73033.96737980454, -55861.8820741036, -45674.94042813068, -47755.64196773076, -18613.54930562369, -50836.56171996138, 0.012, 0.784, 0.65, 192.0, 0.0, 0.0, 0.0, 0.0, 0.0, 0.0, 0.0, 0.0, 0.0, 1.6541572696661801E9, 0.0, 2022-06-02 10:07:49.666
148.0, 20211.76608941151, 4064.7317844309555, -73037.1860310061, -55853.924853077515, -45658.44484072267, -47745.31546179241, -18575.305470860658, -50807.3926934472, 0.012, 0.784, 0.65, 192.0, 0.0, 0.0, 0.0, 0.0, 0.0, 0.0, 0.0, 0.0, 0.0, 1.6541572696661859E9, 0.0, 2022-06-02 10:07:49.666
149.0, 20202.579522440377, 4052.348918002715, -73053.63691492521, -55868.45348697346, -45672.86171589634, -47767.667206247716, -18596.383165882013, -50852.58792073583, 0.012, 0.784, 0.65, 192.0, 0.0, 0.0, 0.0, 0.0, 0.0, 0.0, 0.0, 0.0, 0.0, 1.6541572696661916E9, 0.0, 2022-06-02 10:07:49.666
150.0, 20204.881752119276, 4051.1642755465837, -73048.8983451007, -55871.49332421939, -45669.59836120586, -47776.205572629646, -18584.00029945377, -50843.55781597589, 0.012, 0.784, 0.65, 192.0, 0.0, 0.0, 0.0, 0.0, 0.0, 0.0, 0.0, 0.0, 0.0, 1.6541572696662035E9, 0.0, 2022-06-02 10:07:49.666
151.0, 20205.19467654165, 4055.2769965263606, -73032.62627513723, -55857.32231823472, -45656.79081163297, -47754.30086306344, -18545.890575157475, -50790.49477463899, 0.012, 0.784, 0.65, 192.0, 0.0, 0.0, 0.0, 0.0, 0.0, 0.0, 0.0, 0.0, 0.0, 1.654157269666209E9, 0.0, 2022-06-02 10:07:49.666
152.0, 20206.93811260916, 4063.5024384859134, -73015.97422551802, -55845.274727973316, -45643.469171937606, -47738.87815938928, -18535.22879305229, -50765.10319293776, 0.012, 0.784, 0.65, 192.0, 0.0, 0.0, 0.0, 0.0, 0.0, 0.0, 0.0, 0.0, 0.0, 1.6541572696662142E9, 0.0, 2022-06-02 10:07:49.666
153.0, 20213.420118501203, 4069.80563042231, -73018.23175170801, -55847.9345855635, -45647.313671983924, -47745.158999581225, -18564.66604049993, -50801.76005384446, 0.012, 0.784, 0.65, 192.0, 0.0, 0.0, 0.0, 0.0, 0.0, 0.0, 0.0, 0.0, 0.0, 1.65415726966622E9, 0.0, 2022-06-02 10:07:49.666
154.0, 20218.71748193711, 4069.246836810927, -73037.74482461749, -55866.799457883775, -45673.35345427435, -47772.09285164987, -18588.403593111467, -50851.224464324056, 0.012, 0.784, 0.65, 192.0, 0.0, 0.0, 0.0, 0.0, 0.0, 0.0, 0.0, 0.0, 0.0, 1.654157269666226E9, 0.0, 2022-06-02 10:07:49.666
155.0, 20229.043987875462, 4076.1088223587067, -73029.83230708032, -55868.45348697346, -45665.776212904006, -47774.864467962325, -18570.119866147026, -50831.73374315903, 0.012, 0.784, 0.65, 192.0, 0.0, 0.0, 0.0, 0.0, 0.0, 0.0, 0.0, 0.0, 0.0, 1.654157269666232E9, 0.0, 2022-06-02 10:07:49.666
156.0, 20218.024577858996, 4067.972787376975, -73027.77594659042, -55875.96367311045, -45664.54686695896, -47779.71479650913, -18569.114037646537, -50827.55396694589, 0.014, 0.774, 0.642, 192.0, 0.0, 112.0, 24.0, 48.0, 20.0, 16.0, 0.0, 0.0, 0.0, 1.6541572696662378E9, 0.0, 2022-06-02 10:07:49.666
157.0, 20215.074147590894, 4068.486877499447, -73018.20939996355, -55870.44279222999, -45657.3272534999, -47771.6234650163, -18559.34632531957, -50811.41600744915, 0.014, 0.774, 0.642, 192.0, 0.0, 0.0, 0.0, 0.0, 0.0, 0.0, 0.0, 0.0, 0.0, 1.6541572696662433E9, 0.0, 2022-06-02 10:07:49.666
158.0, 20219.81271741542, 4072.219618823483, -73019.97518777552, -55863.91608284904, -45655.15913428774, -47765.96847366911, -18572.66796501493, -50821.80956862087, 0.014, 0.774, 0.642, 192.0, 0.0, 0.0, 0.0, 0.0, 0.0, 0.0, 0.0, 0.0, 0.0, 1.65415726966625E9, 0.0, 2022-06-02 10:07:49.666
159.0, 20222.56198198342, 4068.263360054894, -73035.26378098295, -55875.42723124352, -45667.38553850479, -47784.65453203375, -18595.399689125978, -50853.392583536224, 0.014, 0.774, 0.642, 192.0, 0.0, 0.0, 0.0, 0.0, 0.0, 0.0, 0.0, 0.0, 0.0, 1.6541572696662562E9, 0.0, 2022-06-02 10:07:49.666
160.0, 20228.664008219723, 4068.553932732813, -73027.41831867913, -55877.77416441133, -45678.96374213263, -47787.98494195759, -18606.508506120266, -50844.00485086499, 0.014, 0.774, 0.642, 192.0, 0.0, 0.0, 0.0, 0.0, 0.0, 0.0, 0.0, 0.0, 0.0, 1.6541572696662621E9, 0.0, 2022-06-02 10:07:49.666
161.0, 20232.06147337693, 4075.192400836039, -73009.11223997024, -55861.50209444787, -45661.998768091056, -47763.532133523484, -18583.10622967556, -50799.94956254358, 0.014, 0.774, 0.642, 192.0, 0.0, 0.0, 0.0, 0.0, 0.0, 0.0, 0.0, 0.0, 0.0, 1.654157269666268E9, 0.0, 2022-06-02 10:07:49.666
162.0, 20221.869077905307, 4076.7570229479106, -73001.28912941088, -55848.29221347478, -45649.43708770718, -47751.506895006525, -18565.448351555868, -50788.12548972673, 0.014, 0.774, 0.642, 192.0, 0.0, 0.0, 0.0, 0.0, 0.0, 0.0, 0.0, 0.0, 0.0, 1.6541572696662736E9, 0.0, 2022-06-02 10:07:49.666
163.0, 20225.378301784793, 4085.47420328548, -73004.64189107918, -55842.63722212759, -45640.809314347425, -47746.99184262656, -18560.642726497976, -50804.308152712365, 0.014, 0.774, 0.642, 192.0, 0.0, 0.0, 0.0, 0.0, 0.0, 0.0, 0.0, 0.0, 0.0, 1.6541572696662793E9, 0.0, 2022-06-02 10:07:49.666
164.0, 20229.24515357556, 4083.127270117673, -73025.45136516707, -55853.67898388851, -45653.97449183161, -47752.155095595735, -18580.602834296566, -50819.82026336435, 0.014, 0.774, 0.642, 192.0, 0.0, 0.0, 0.0, 0.0, 0.0, 0.0, 0.0, 0.0, 0.0, 1.6541572696662855E9, 0.0, 2022-06-02 10:07:49.666
165.0, 20229.446319275656, 4081.003854394419, -73028.75942334646, -55858.79753336877, -45663.675148925206, -47759.061784632424, -18580.15579940746, -50818.05447555238, 0.014, 0.774, 0.642, 192.0, 0.0, 0.0, 0.0, 0.0, 0.0, 0.0, 0.0, 0.0, 0.0, 1.6541572696662912E9, 0.0, 2022-06-02 10:07:49.666
166.0, 20212.414290000714, 4066.631682709656, -73029.29586521338, -55864.96661483844, -45657.21549477762, -47772.137555138775, -18552.059656627138, -50822.211900021066, 0.016, 0.784, 0.64, 192.0, 0.0, 128.0, 24.0, 128.0, 20.0, 0.0, 0.0, 0.0, 0.0, 1.6541572696662967E9, 0.0, 2022-06-02 10:07:49.666
167.0, 20205.060566074917, 4060.8202291512766, -73026.09956575627, -55864.25135901587, -45655.15913428774, -47772.74105223907, -18560.82154045362, -50825.34114424481, 0.016, 0.784, 0.64, 192.0, 0.0, 0.0, 0.0, 0.0, 0.0, 0.0, 0.0, 0.0, 0.0, 1.6541572696663024E9, 0.0, 2022-06-02 10:07:49.666
168.0, 20207.496906220545, 4059.2779587838604, -73025.09373725578, -55859.311623491245, -45648.38655571778, -47765.61084575783, -18556.954688662852, -50823.128321543736, 0.016, 0.784, 0.64, 192.0, 0.0, 0.0, 0.0, 0.0, 0.0, 0.0, 0.0, 0.0, 0.0, 1.6541572696663089E9, 0.0, 2022-06-02 10:07:49.666
169.0, 20222.606685472332, 4070.878514156165, -73023.73028084401, -55852.36023096565, -45648.87829409579, -47751.84217117336, -18549.62331648151, -50800.73187359952, 0.016, 0.784, 0.64, 192.0, 0.0, 0.0, 0.0, 0.0, 0.0, 0.0, 0.0, 0.0, 0.0, 1.6541572696663144E9, 0.0, 2022-06-02 10:07:49.666
170.0, 20224.03719711747, 4072.0184531233854, -73025.47371691153, -55862.10559154816, -45660.34473900137, -47760.13466836628, -18566.700049245366, -50803.45878642306, 0.016, 0.784, 0.64, 192.0, 0.0, 0.0, 0.0, 0.0, 0.0, 0.0, 0.0, 0.0, 0.0, 1.65415726966632E9, 0.0, 2022-06-02 10:07:49.666
171.0, 20228.552249497443, 4075.9076566586086, -73003.52430385641, -55855.86945484513, -45655.71792789912, -47751.28337756197, -18569.359906835547, -50797.66968460914, 0.016, 0.784, 0.64, 192.0, 0.0, 0.0, 0.0, 0.0, 0.0, 0.0, 0.0, 0.0, 0.0, 1.6541572696663277E9, 0.0, 2022-06-02 10:07:49.666
172.0, 20220.19269707116, 4067.99513912143, -73003.14432420068, -55858.618719413134, -45650.64408190776, -47756.78190669798, -18566.275366100715, -50808.53263241442, 0.016, 0.784, 0.64, 192.0, 0.0, 0.0, 0.0, 0.0, 0.0, 0.0, 0.0, 0.0, 0.0, 1.654157269666333E9, 0.0, 2022-06-02 10:07:49.666
173.0, 20226.607647729834, 4072.6219502236786, -73002.76434454494, -55853.097838532674, -45642.99978530405, -47754.814953185916, -18552.976078149804, -50813.36060921677, 0.016, 0.784, 0.64, 192.0, 0.0, 0.0, 0.0, 0.0, 0.0, 0.0, 0.0, 0.0, 0.0, 1.6541572696663384E9, 0.0, 2022-06-02 10:07:49.666
174.0, 20228.52989775299, 4073.225447323972, -73015.54954237337, -55861.81501887024, -45649.347680729355, -47762.436898045176, -18560.508616031246, -50828.58214719083, 0.016, 0.784, 0.64, 192.0, 0.0, 0.0, 0.0, 0.0, 0.0, 0.0, 0.0, 0.0, 0.0, 1.6541572696663437E9, 0.0, 2022-06-02 10:07:49.666
175.0, 20226.562944240923, 4066.542275731835, -73024.46788841103, -55878.332958022715, -45664.39040474778, -47787.69436927967, -18581.92158721943, -50856.41006903769, 0.016, 0.784, 0.64, 192.0, 0.0, 0.0, 0.0, 0.0, 0.0, 0.0, 0.0, 0.0, 0.0, 1.6541572696663487E9, 0.0, 2022-06-02 10:07:49.666
176.0, 20221.913781394218, 4067.704566443511, -73010.45334463756, -55867.31354800625, -45651.51579994152, -47765.923770180205, -18558.698124730367, -50807.54915565839, 0.014, 0.782, 0.642, 192.0, 0.0, 112.0, 24.0, 112.0, 20.0, 16.0, 0.0, 0.0, 0.0, 1.6541572696663542E9, 0.0, 2022-06-02 10:07:49.666
177.0, 20220.70678719363, 4074.030110124363, -72996.46115260854, -55850.12505652011, -45641.05518353644, -47745.53897923696, -18537.24045005327, -50773.03806221939, 0.014, 0.782, 0.642, 192.0, 0.0, 0.0, 0.0, 0.0, 0.0, 0.0, 0.0, 0.0, 0.0, 1.6541572696663597E9, 0.0, 2022-06-02 10:07:49.666
178.0, 20233.4249297887, 4083.9542846625195, -72997.9810712315, -55841.407876182544, -45640.42933469169, -47745.47192400359, -18559.748656719763, -50805.87277482424, 0.014, 0.782, 0.642, 192.0, 0.0, 0.0, 0.0, 0.0, 0.0, 0.0, 0.0, 0.0, 0.0, 1.654157269666365E9, 0.0, 2022-06-02 10:07:49.666
179.0, 20232.66497047722, 4075.8182496807876, -73026.43484192311, -55860.71978339193, -45656.544942443965, -47764.56031376843, -18598.886561261006, -50852.274996313456, 0.014, 0.782, 0.642, 192.0, 0.0, 0.0, 0.0, 0.0, 0.0, 0.0, 0.0, 0.0, 0.0, 1.6541572696663702E9, 0.0, 2022-06-02 10:07:49.666
180.0, 20220.438566260167, 4064.038880352841, -73035.82257459433, -55872.23093178641, -45673.666378696726, -47779.625389531306, -18599.735927550308, -50843.44605725361, 0.014, 0.782, 0.642, 192.0, 0.0, 0.0, 0.0, 0.0, 0.0, 0.0, 0.0, 0.0, 0.0, 1.654157269666376E9, 0.0, 2022-06-02 10:07:49.666
181.0, 20220.796194171453, 4068.5315809883573, -73016.75653657396, -55861.39033572559, -45664.74803265906, -47767.55544752544, -18573.517331304232, -50816.4451499516, 0.014, 0.782, 0.642, 192.0, 0.0, 0.0, 0.0, 0.0, 0.0, 0.0, 0.0, 0.0, 0.0, 1.6541572696663818E9, 0.0, 2022-06-02 10:07:49.666
182.0, 20218.382205770282, 4072.219618823483, -73009.983958004, -55855.71299263394, -45659.11539305632, -47762.45924978963, -18570.030459169204, -50817.20510926308, 0.014, 0.782, 0.642, 192.0, 0.0, 0.0, 0.0, 0.0, 0.0, 0.0, 0.0, 0.0, 0.0, 1.654157269666387E9, 0.0, 2022-06-02 10:07:49.666
183.0, 20225.087729106872, 4081.316778816793, -73005.84888527976, -55848.04634428577, -45645.570235916406, -47756.53603750897, -18544.214194323326, -50817.56273717436, 0.014, 0.782, 0.642, 192.0, 0.0, 0.0, 0.0, 0.0, 0.0, 0.0, 0.0, 0.0, 0.0, 1.654157269666394E9, 0.0, 2022-06-02 10:07:49.666
184.0, 20224.841859917862, 4076.801726436821, -73025.67488261162, -55860.40685896956, -45654.39917497626, -47771.869334205316, -18559.43573229739, -50843.22253980906, 0.014, 0.782, 0.642, 192.0, 0.0, 0.0, 0.0, 0.0, 0.0, 0.0, 0.0, 0.0, 0.0, 1.6541572696663997E9, 0.0, 2022-06-02 10:07:49.666
185.0, 20226.09355760736, 4077.8522584262205, -73028.46885066853, -55864.60898692715, -45664.54686695896, -47779.67009302021, -18586.25782564376, -50835.04180133841, 0.014, 0.782, 0.642, 192.0, 0.0, 0.0, 0.0, 0.0, 0.0, 0.0, 0.0, 0.0, 0.0, 1.654157269666406E9, 0.0, 2022-06-02 10:07:49.666
186.0, 20233.11200536633, 4087.5976190087345, -73008.66520508114, -55846.593480896176, -45648.54301792896, -47760.335834066376, -18565.157778877947, -50798.27318170943, 0.012, 0.784, 0.642, 192.0, 0.0, 96.0, 24.0, 128.0, 20.0, 16.0, 0.0, 0.0, 0.0, 1.654157269666412E9, 0.0, 2022-06-02 10:07:49.666
187.0, 20224.841859917862, 4079.4839357714577, -73005.87123702423, -55847.375791952116, -45643.80444810444, -47761.81104920043, -18553.311354316636, -50796.8873735532, 0.012, 0.784, 0.642, 192.0, 0.0, 0.0, 0.0, 0.0, 0.0, 0.0, 0.0, 0.0, 0.0, 1.654157269666418E9, 0.0, 2022-06-02 10:07:49.666
188.0, 20222.56198198342, 4078.7910316933435, -73013.47083013902, -55848.87335883062, -45647.246616750555, -47767.57779926989, -18570.6339562695, -50822.74834188799, 0.012, 0.784, 0.642, 192.0, 0.0, 0.0, 0.0, 0.0, 0.0, 0.0, 0.0, 0.0, 0.0, 1.6541572696664245E9, 0.0, 2022-06-02 10:07:49.666
189.0, 20219.81271741542, 4072.800764179321, -73035.26378098295, -55863.67021366003, -45668.41371874973, -47783.78281399999, -18606.419099142444, -50867.02714765396, 0.012, 0.784, 0.642, 192.0, 0.0, 0.0, 0.0, 0.0, 0.0, 0.0, 0.0, 0.0, 0.0, 1.6541572696664307E9, 0.0, 2022-06-02 10:07:49.666
190.0, 20230.027464631494, 4082.255552083916, -73027.06069076786, -55863.40199272657, -45669.08427108339, -47787.716721024124, -18607.62609334303, -50871.58690352284, 0.012, 0.784, 0.642, 192.0, 0.0, 0.0, 0.0, 0.0, 0.0, 0.0, 0.0, 0.0, 0.0, 1.654157269666436E9, 0.0, 2022-06-02 10:07:49.666
191.0, 20222.293761049958, 4077.5393340038463, -73016.71183308505, -55860.76448688084, -45646.21843650561, -47769.23182835959, -18558.988697408284, -50818.635620908215, 0.012, 0.784, 0.642, 192.0, 0.0, 0.0, 0.0, 0.0, 0.0, 0.0, 0.0, 0.0, 0.0, 1.6541572696664429E9, 0.0, 2022-06-02 10:07:49.666
192.0, 20209.91089462172, 4066.095240842729, -73017.09181274078, -55870.353385252165, -45645.36907021631, -47761.25225558904, -18551.2773455712, -50783.31986466883, 0.012, 0.784, 0.642, 192.0, 0.0, 0.0, 0.0, 0.0, 0.0, 0.0, 0.0, 0.0, 0.0, 1.654157269666451E9, 0.0, 2022-06-02 10:07:49.666
193.0, 20216.90699063623, 4073.6501304686226, -73017.27062669642, -55863.62551017112, -45642.977433559594, -47755.35139505284, -18545.28707805718, -50787.16436471514, 0.012, 0.784, 0.642, 192.0, 0.0, 0.0, 0.0, 0.0, 0.0, 0.0, 0.0, 0.0, 0.0, 1.6541572696664572E9, 0.0, 2022-06-02 10:07:49.666
194.0, 20224.05954886193, 4077.159354348106, -73029.83230708032, -55868.9899288404, -45652.58868367537, -47760.514648022014, -18570.097514402572, -50810.52193767094, 0.012, 0.784, 0.642, 192.0, 0.0, 0.0, 0.0, 0.0, 0.0, 0.0, 0.0, 0.0, 0.0, 1.6541572696664627E9, 0.0, 2022-06-02 10:07:49.666
195.0, 20228.842822175364, 4080.668578227589, -73038.46008044005, -55880.52342897933, -45669.37484376131, -47776.29497960746, -18577.272424372724, -50838.640432195716, 0.016, 0.78, 0.642, 192.0, 0.0, 128.0, 24.0, 96.0, 20.0, 16.0, 0.0, 0.0, 0.0, 1.654157269666468E9, 0.0, 2022-06-02 10:07:49.666
196.0, 20226.76410994102, 4080.512116016402, -73034.01208329345, -55875.673100432534, -45667.452593738155, -47771.64581676076, -18565.895386444972, -50812.354780716276, 0.016, 0.78, 0.642, 192.0, 0.0, 0.0, 0.0, 0.0, 0.0, 0.0, 0.0, 0.0, 0.0, 1.654157269666474E9, 0.0, 2022-06-02 10:07:49.666
197.0, 20213.867153390307, 4070.967921133986, -73027.37361519023, -55877.77416441133, -45662.42345123571, -47768.002482414544, -18588.96238672285, -50806.3421614578, 0.016, 0.78, 0.642, 192.0, 0.0, 0.0, 0.0, 0.0, 0.0, 0.0, 0.0, 0.0, 0.0, 1.6541572696664803E9, 0.0, 2022-06-02 10:07:49.666
198.0, 20215.945865624653, 4072.2419705679386, -73029.69819661358, -55873.12500156463, -45651.40404121924, -47763.57683701239, -18575.461933071845, -50810.186661504114, 0.016, 0.78, 0.642, 192.0, 0.0, 0.0, 0.0, 0.0, 0.0, 0.0, 0.0, 0.0, 0.0, 1.654157269666486E9, 0.0, 2022-06-02 10:07:49.666
199.0, 20215.99056911356, 4065.894075142631, -73050.10533930127, -55883.80913541426, -45662.02111983551, -47776.898476707756, -18575.372526094023, -50829.565623946866, 0.016, 0.78, 0.642, 192.0, 0.0, 0.0, 0.0, 0.0, 0.0, 0.0, 0.0, 0.0, 0.0, 1.654157269666492E9, 0.0, 2022-06-02 10:07:49.666
200.0, 20214.850630146342, 4065.2011710645165, -73054.15100504768, -55890.58171398422, -45686.56333524744, -47791.002427459054, -18601.92639850693, -50849.81630442337, 0.016, 0.78, 0.642, 192.0, 0.0, 0.0, 0.0, 0.0, 0.0, 0.0, 0.0, 0.0, 0.0, 1.654157269666499E9, 0.0, 2022-06-02 10:07:49.666
201.0, 20220.818545915907, 4073.9183514020865, -73034.0344350379, -55871.336862008204, -45674.04635835247, -47773.09868015035, -18583.508561075756, -50821.2954784984, 0.016, 0.78, 0.642, 192.0, 0.0, 0.0, 0.0, 0.0, 0.0, 0.0, 0.0, 0.0, 0.0, 1.6541572696665049E9, 0.0, 2022-06-02 10:07:49.666
202.0, 20227.412310530224, 4081.942627661542, -73018.6340831082, -55856.20473101196, -45661.641140179774, -47749.94227289466, -18565.694220744877, -50797.043835764394, 0.016, 0.78, 0.642, 192.0, 0.0, 0.0, 0.0, 0.0, 0.0, 0.0, 0.0, 0.0, 0.0, 1.654157269666511E9, 0.0, 2022-06-02 10:07:49.666
203.0, 20215.85645864683, 4075.2371043249495, -73033.22977223752, -55866.77710613932, -45659.49537271207, -47759.26295033252, -18572.48915105929, -50824.938812844615, 0.016, 0.78, 0.642, 192.0, 0.0, 0.0, 0.0, 0.0, 0.0, 0.0, 0.0, 0.0, 0.0, 1.6541572696665175E9, 0.0, 2022-06-02 10:07:49.666
204.0, 20200.52316195049, 4055.031127337352, -73066.6456301982, -55892.68277796302, -45667.65375943825, -47782.03937793248, -18581.273386630226, -50851.02329862396, 0.016, 0.78, 0.642, 192.0, 0.0, 0.0, 0.0, 0.0, 0.0, 0.0, 0.0, 0.0, 0.0, 1.6541572696665227E9, 0.0, 2022-06-02 10:07:49.666
205.0, 20207.273388775993, 4056.7075081715, -73066.04213309792, -55896.370815798145, -45669.17367806121, -47782.79933724396, -18582.882712231007, -50838.72983917354, 0.008, 0.788, 0.642, 192.0, 0.0, 64.0, 24.0, 160.0, 20.0, 16.0, 0.0, 0.0, 0.0, 1.65415726966653E9, 0.0, 2022-06-02 10:07:49.666
206.0, 20212.034310344974, 4064.32945303076, -73037.1413275172, -55884.07735634773, -45655.919093599216, -47771.53405803848, -18554.943031661875, -50818.501510441485, 0.008, 0.788, 0.642, 192.0, 0.0, 0.0, 0.0, 0.0, 0.0, 0.0, 0.0, 0.0, 0.0, 1.6541572696665366E9, 0.0, 2022-06-02 10:07:49.666
207.0, 20204.90410386373, 4066.095240842729, -73036.76134786145, -55880.3893185126, -45661.26116052403, -47768.65068300375, -18569.114037646537, -50826.21286227857, 0.008, 0.788, 0.642, 192.0, 0.0, 0.0, 0.0, 0.0, 0.0, 0.0, 0.0, 0.0, 0.0, 1.6541572696665444E9, 0.0, 2022-06-02 10:07:49.666
208.0, 20192.722403135587, 4056.796915149321, -73055.22388878153, -55888.905333150076, -45672.77230891852, -47777.70313950815, -18576.110133661048, -50836.78523740593, 0.008, 0.788, 0.642, 192.0, 0.0, 0.0, 0.0, 0.0, 0.0, 0.0, 0.0, 0.0, 0.0, 1.6541572696665509E9, 0.0, 2022-06-02 10:07:49.666
209.0, 20200.18788578366, 4059.2779587838604, -73065.5950982088, -55890.11232735066, -45677.04149210948, -47772.070499905414, -18581.273386630226, -50822.52482444344, 0.008, 0.788, 0.642, 192.0, 0.0, 0.0, 0.0, 0.0, 0.0, 0.0, 0.0, 0.0, 0.0, 1.6541572696665576E9, 0.0, 2022-06-02 10:07:49.666
210.0, 20205.95463585313, 4059.546179717324, -73066.75738892048, -55895.27558031984, -45686.183355591704, -47788.16375591323, -18593.723308291832, -50837.455789739586, 0.008, 0.788, 0.642, 192.0, 0.0, 0.0, 0.0, 0.0, 0.0, 0.0, 0.0, 0.0, 0.0, 1.6541572696665635E9, 0.0, 2022-06-02 10:07:49.666
211.0, 20207.742775409555, 4058.0486128388184, -73055.22388878153, -55893.46508901896, -45683.47879451261, -47789.616619302826, -18594.282101903213, -50843.334298531336, 0.008, 0.788, 0.642, 192.0, 0.0, 0.0, 0.0, 0.0, 0.0, 0.0, 0.0, 0.0, 0.0, 1.6541572696665697E9, 0.0, 2022-06-02 10:07:49.666
212.0, 20213.71069117912, 4063.010700107897, -73046.14908053269, -55885.664330204054, -45676.549753731466, -47779.24540987556, -18608.698977076885, -50844.94362413212, 0.008, 0.788, 0.642, 192.0, 0.0, 0.0, 0.0, 0.0, 0.0, 0.0, 0.0, 0.0, 0.0, 1.6541572696665764E9, 0.0, 2022-06-02 10:07:49.666
213.0, 20216.728176680586, 4066.296406542827, -73039.26474324045, -55877.17066731104, -45665.910323370736, -47771.66816850522, -18565.940089933883, -50827.41985647915, 0.008, 0.788, 0.642, 192.0, 0.0, 0.0, 0.0, 0.0, 0.0, 0.0, 0.0, 0.0, 0.0, 1.654157269666583E9, 0.0, 2022-06-02 10:07:49.666
214.0, 20201.931321851174, 4050.314909257282, -73063.47168248554, -55896.88490592062, -45683.18822183469, -47784.31925586692, -18562.654383498953, -50832.71721991506, 0.008, 0.788, 0.642, 192.0, 0.0, 0.0, 0.0, 0.0, 0.0, 0.0, 0.0, 0.0, 0.0, 1.6541572696665912E9, 0.0, 2022-06-02 10:07:49.666
215.0, 20209.19563879915, 4054.3829267481483, -73069.10432208829, -55905.89265893611, -45696.71102723015, -47794.578706571905, -18598.193657182892, -50843.82603690935, 0.01, 0.792, 0.65, 192.0, 0.0, 80.0, 24.0, 192.0, 20.0, 80.0, 0.0, 0.0, 0.0, 1.654157269666597E9, 0.0, 2022-06-02 10:07:49.666
216.0, 20208.167458554206, 4057.0204325938744, -73066.6456301982, -55907.68079849253, -45702.58953602189, -47794.712817038635, -18623.898163306494, -50845.9494526326, 0.01, 0.792, 0.65, 192.0, 0.0, 0.0, 0.0, 0.0, 0.0, 0.0, 0.0, 0.0, 0.0, 1.6541572696666021E9, 0.0, 2022-06-02 10:07:49.666
217.0, 20212.749566167542, 4062.2283890519607, -73049.63595266771, -55893.33097855222, -45685.66926546923, -47775.490316807074, -18583.754430264766, -50813.67353363914, 0.01, 0.792, 0.65, 192.0, 0.0, 0.0, 0.0, 0.0, 0.0, 0.0, 0.0, 0.0, 0.0, 1.654157269666608E9, 0.0, 2022-06-02 10:07:49.666
218.0, 20220.52797323799, 4067.5257524878684, -73047.55724043337, -55883.18328656952, -45679.72370144412, -47764.42620330169, -18578.322956362124, -50820.42376046464, 0.01, 0.792, 0.65, 192.0, 0.0, 0.0, 0.0, 0.0, 0.0, 0.0, 0.0, 0.0, 0.0, 1.654157269666615E9, 0.0, 2022-06-02 10:07:49.666
219.0, 20208.033348087472, 4054.7852581483435, -73077.24035707001, -55905.937362425015, -45698.074483641925, -47787.67201753522, -18591.935168735406, -50857.32649056036, 0.01, 0.792, 0.65, 192.0, 0.0, 0.0, 0.0, 0.0, 0.0, 0.0, 0.0, 0.0, 0.0, 1.6541572696666217E9, 0.0, 2022-06-02 10:07:49.666
220.0, 20214.42594700169, 4060.641415195634, -73072.63589771223, -55904.66331299106, -45693.47002428413, -47792.58940131538, -18590.862285001553, -50852.58792073583, 0.01, 0.792, 0.65, 192.0, 0.0, 0.0, 0.0, 0.0, 0.0, 0.0, 0.0, 0.0, 0.0, 1.654157269666628E9, 0.0, 2022-06-02 10:07:49.666
221.0, 20212.637807445266, 4064.5306187308574, -73059.94010686161, -55894.4932692639, -45685.15517534676, -47781.34647385436, -18573.09264815958, -50837.165217061665, 0.01, 0.792, 0.65, 192.0, 0.0, 0.0, 0.0, 0.0, 0.0, 0.0, 0.0, 0.0, 0.0, 1.654157269666634E9, 0.0, 2022-06-02 10:07:49.666
222.0, 20200.90314160623, 4059.1438483171287, -73056.11795855976, -55893.152164596584, -45686.98801839209, -47777.21140113013, -18552.48433977179, -50833.43247573763, 0.01, 0.792, 0.65, 192.0, 0.0, 0.0, 0.0, 0.0, 0.0, 0.0, 0.0, 0.0, 0.0, 1.6541572696666515E9, 0.0, 2022-06-02 10:07:49.666
223.0, 20197.729193893578, 4057.199246549517, -73057.19084229361, -55893.06275761876, -45680.34955028886, -47781.52528781001, -18580.24520638528, -50849.056345111894, 0.01, 0.792, 0.65, 192.0, 0.0, 0.0, 0.0, 0.0, 0.0, 0.0, 0.0, 0.0, 0.0, 1.654157269666658E9, 0.0, 2022-06-02 10:07:49.666
224.0, 20197.729193893578, 4053.511208714391, -73078.11207510377, -55905.043292646806, -45688.26206782604, -47797.21621241763, -18622.490003405812, -50884.997950196026, 0.01, 0.792, 0.65, 192.0, 0.0, 0.0, 0.0, 0.0, 0.0, 0.0, 0.0, 0.0, 0.0, 1.6541572696666644E9, 0.0, 2022-06-02 10:07:49.666
225.0, 20194.979929325575, 4045.0175458213744, -73087.92449091966, -55914.20750787348, -45702.65659125526, -47802.267706664534, -18633.375302955545, -50867.76475522098, 0.018000000000000002, 0.788, 0.654, 192.0, 0.0, 144.0, 24.0, 160.0, 20.0, 112.0, 0.0, 0.0, 0.0, 1.65415726966667E9, 0.0, 2022-06-02 10:07:49.666
226.0, 20203.42888872968, 4053.6229674366678, -73061.21415629557, -55895.655559975574, -45684.52932650201, -47784.14044191127, -18606.19558169789, -50835.846464138805, 0.018000000000000002, 0.788, 0.654, 192.0, 0.0, 0.0, 0.0, 0.0, 0.0, 0.0, 0.0, 0.0, 0.0, 1.65415726966668E9, 0.0, 2022-06-02 10:07:49.666
227.0, 20188.207350755616, 4037.7979323623103, -73064.96924936405, -55901.98110365643, -45687.77032944803, -47793.97520947161, -18617.192639969904, -50852.43145852465, 0.018000000000000002, 0.788, 0.654, 192.0, 0.0, 0.0, 0.0, 0.0, 0.0, 0.0, 0.0, 0.0, 0.0, 1.6541572696666856E9, 0.0, 2022-06-02 10:07:49.666
228.0, 20183.848760586832, 4032.165292759573, -73071.76417967847, -55899.18713559952, -45685.71396895814, -47795.696293794674, -18624.836936573618, -50873.956188435106, 0.018000000000000002, 0.788, 0.654, 192.0, 0.0, 0.0, 0.0, 0.0, 0.0, 0.0, 0.0, 0.0, 0.0, 1.6541572696666925E9, 0.0, 2022-06-02 10:07:49.666
229.0, 20193.839990358352, 4038.267318995872, -73083.07416237285, -55903.9480571685, -45695.548736518474, -47808.16856720073, -18659.102160823604, -50920.89485179125, 0.018000000000000002, 0.788, 0.654, 192.0, 0.0, 0.0, 0.0, 0.0, 0.0, 0.0, 0.0, 0.0, 0.0, 1.6541572696666977E9, 0.0, 2022-06-02 10:07:49.666
230.0, 20191.604815912822, 4031.450036937003, -73084.59408099581, -55910.65358050509, -45697.18041386371, -47810.582555601904, -18612.387014912012, -50868.79293546593, 0.018000000000000002, 0.788, 0.654, 192.0, 0.0, 0.0, 0.0, 0.0, 0.0, 0.0, 0.0, 0.0, 0.0, 1.6541572696667056E9, 0.0, 2022-06-02 10:07:49.666
231.0, 20189.03436530046, 4030.064228780774, -73070.17720582214, -55899.656522233076, -45689.62552423782, -47792.8799739933, -18581.228683141315, -50816.691019140606, 0.018000000000000002, 0.788, 0.654, 192.0, 0.0, 0.0, 0.0, 0.0, 0.0, 0.0, 0.0, 0.0, 0.0, 1.6541572696667116E9, 0.0, 2022-06-02 10:07:49.666
232.0, 20197.885656104765, 4046.381002233148, -73049.68065615662, -55882.4903824914, -45675.27570429751, -47775.26679936252, -18580.021688940727, -50812.354780716276, 0.018000000000000002, 0.788, 0.654, 192.0, 0.0, 0.0, 0.0, 0.0, 0.0, 0.0, 0.0, 0.0, 0.0, 1.6541572696667182E9, 0.0, 2022-06-02 10:07:49.666
233.0, 20193.43765895816, 4047.833865622743, -73049.5465456899, -55879.76346966785, -45672.414681007234, -47775.46796506262, -18571.773895236718, -50821.653106409685, 0.018000000000000002, 0.788, 0.654, 192.0, 0.0, 0.0, 0.0, 0.0, 0.0, 0.0, 0.0, 0.0, 0.0, 1.654157269666725E9, 0.0, 2022-06-02 10:07:49.666
234.0, 20184.072278031384, 4035.4733509389584, -73080.79428443841, -55896.3931675426, -45691.81599519444, -47791.74003502608, -18585.45316284337, -50842.551987475395, 0.018000000000000002, 0.788, 0.654, 192.0, 0.0, 0.0, 0.0, 0.0, 0.0, 0.0, 0.0, 0.0, 0.0, 1.654157269666734E9, 0.0, 2022-06-02 10:07:49.666
235.0, 20189.593158911845, 4037.1273800286513, -73088.48328453103, -55904.81977520225, -45705.78583547901, -47801.79832003097, -18602.596950840587, -50853.07965911385, 0.018000000000000002, 0.782, 0.66, 192.0, 0.0, 144.0, 24.0, 112.0, 20.0, 160.0, 0.0, 0.0, 0.0, 1.654157269666761E9, 0.0, 2022-06-02 10:07:49.666
236.0, 20194.108211291816, 4042.6259091646566, -73073.28409830143, -55895.70026346449, -45697.69450398618, -47790.108357680845, -18591.10815419056, -50832.0466675814, 0.018000000000000002, 0.782, 0.66, 192.0, 0.0, 0.0, 0.0, 0.0, 0.0, 0.0, 0.0, 0.0, 0.0, 1.654157269666771E9, 0.0, 2022-06-02 10:07:49.666
237.0, 20197.10334504883, 4044.2799382543494, -73062.08587432932, -55886.379586026625, -45686.49628001407, -47780.69827326516, -18602.48519211831, -50833.477179226546, 0.018000000000000002, 0.782, 0.66, 192.0, 0.0, 0.0, 0.0, 0.0, 0.0, 0.0, 0.0, 0.0, 0.0, 1.6541572696667876E9, 0.0, 2022-06-02 10:07:49.666
238.0, 20182.641766386245, 4034.378115460648, -73071.0489238559, -55890.96169363996, -45677.5332304875, -47788.78960475798, -18588.5377035782, -50852.43145852465, 0.018000000000000002, 0.782, 0.66, 192.0, 0.0, 0.0, 0.0, 0.0, 0.0, 0.0, 0.0, 0.0, 0.0, 1.6541572696668031E9, 0.0, 2022-06-02 10:07:49.666
239.0, 20177.880844817264, 4027.963164801975, -73080.07902861584, -55899.947094911, -45678.15907933225, -47792.65645654875, -18580.088744174092, -50846.24002531052, 0.018000000000000002, 0.782, 0.66, 192.0, 0.0, 0.0, 0.0, 0.0, 0.0, 0.0, 0.0, 0.0, 0.0, 1.6541572696668265E9, 0.0, 2022-06-02 10:07:49.666
240.0, 20186.955653066118, 4032.388810204126, -73074.55814773538, -55902.15991761207, -45693.69354172868, -47795.45042460566, -18594.997357725784, -50843.49076074252, 0.018000000000000002, 0.782, 0.66, 192.0, 0.0, 0.0, 0.0, 0.0, 0.0, 0.0, 0.0, 0.0, 0.0, 1.6541572696668394E9, 0.0, 2022-06-02 10:07:49.666
241.0, 20174.818655826886, 4018.12839724164, -73079.0508483709, -55913.60401077319, -45713.318373360446, -47809.4873201236, -18621.551230138688, -50862.467391785074, 0.018000000000000002, 0.782, 0.66, 192.0, 0.0, 0.0, 0.0, 0.0, 0.0, 0.0, 0.0, 0.0, 0.0, 1.654157270145144E9, 0.0, 2022-06-02 10:07:50.145
242.0, 20168.917795290687, 4011.355818671682, -73074.73696169103, -55911.882926450126, -45708.02100992454, -47810.67196257973, -18624.032273773228, -50873.15152563471, 0.018000000000000002, 0.782, 0.66, 192.0, 0.0, 0.0, 0.0, 0.0, 0.0, 0.0, 0.0, 0.0, 0.0, 1.6541572701453204E9, 0.0, 2022-06-02 10:07:50.145
243.0, 20169.38718192425, 4020.1400542426177, -73066.10918833128, -55901.06468213376, -45692.71006497265, -47800.099587452365, -18615.11392773556, -50872.72684249006, 0.018000000000000002, 0.782, 0.66, 192.0, 0.0, 0.0, 0.0, 0.0, 0.0, 0.0, 0.0, 0.0, 0.0, 1.654157270145327E9, 0.0, 2022-06-02 10:07:50.145
244.0, 20165.98971676704, 4016.675533852045, -73083.74471470651, -55910.81004271627, -45704.42237906723, -47810.247279435076, -18653.31305900968, -50906.92501150668, 0.018000000000000002, 0.782, 0.66, 192.0, 0.0, 0.0, 0.0, 0.0, 0.0, 0.0, 0.0, 0.0, 0.0, 1.6541572701453335E9, 0.0, 2022-06-02 10:07:50.145
245.0, 20163.03928649894, 4013.4121791615703, -73092.46189504408, -55924.176385900544, -45718.50397807408, -47824.39593367528, -18667.01467836078, -50907.081473717866, 0.016, 0.786, 0.654, 192.0, 0.0, 128.0, 24.0, 144.0, 20.0, 112.0, 0.0, 0.0, 0.0, 1.65415727014534E9, 0.0, 2022-06-02 10:07:50.145
246.0, 20158.747751563522, 4009.2100512039724, -73081.82246468336, -55918.74491199791, -45711.61964078184, -47815.835215548905, -18625.574544140643, -50873.665615757185, 0.016, 0.786, 0.654, 192.0, 0.0, 0.0, 0.0, 0.0, 0.0, 0.0, 0.0, 0.0, 0.0, 1.6541572701453457E9, 0.0, 2022-06-02 10:07:50.145
247.0, 20163.84394929933, 4017.3013826967936, -73055.26859227045, -55897.555458254275, -45687.166832347735, -47789.750729769556, -18571.81859872563, -50827.933946601624, 0.016, 0.786, 0.654, 192.0, 0.0, 0.0, 0.0, 0.0, 0.0, 0.0, 0.0, 0.0, 0.0, 1.6541572701453516E9, 0.0, 2022-06-02 10:07:50.145
248.0, 20170.70593484711, 4027.6278886351456, -73045.21030726556, -55884.7926121703, -45669.061919338936, -47778.55250579745, -18573.897310959972, -50825.58701343382, 0.016, 0.786, 0.654, 192.0, 0.0, 0.0, 0.0, 0.0, 0.0, 0.0, 0.0, 0.0, 0.0, 1.6541572701453571E9, 0.0, 2022-06-02 10:07:50.145
249.0, 20177.56792039489, 4025.9515078009977, -73056.56499344886, -55889.73234769492, -45671.69942518466, -47785.9285814677, -18567.504712045757, -50848.76577243397, 0.016, 0.786, 0.654, 192.0, 0.0, 0.0, 0.0, 0.0, 0.0, 0.0, 0.0, 0.0, 0.0, 1.654157270145363E9, 0.0, 2022-06-02 10:07:50.145
250.0, 20174.192806982137, 4020.698847854, -73061.23650804002, -55900.81881294475, -45689.44671028217, -47803.74292179858, -18599.758279294765, -50872.324511089864, 0.016, 0.786, 0.654, 192.0, 0.0, 0.0, 0.0, 0.0, 0.0, 0.0, 0.0, 0.0, 0.0, 1.6541572701453688E9, 0.0, 2022-06-02 10:07:50.145
251.0, 20166.146178978226, 4018.642487364112, -73058.39783649419, -55902.07051063425, -45698.43211155321, -47804.592288087886, -18615.24803820229, -50871.81042096739, 0.016, 0.786, 0.654, 192.0, 0.0, 0.0, 0.0, 0.0, 0.0, 0.0, 0.0, 0.0, 0.0, 1.6541572701453743E9, 0.0, 2022-06-02 10:07:50.145
252.0, 20165.632088855757, 4021.615269376668, -73053.25693526947, -55895.052062875286, -45688.61969573733, -47793.662285049235, -18597.76897403824, -50851.96207189108, 0.016, 0.786, 0.654, 192.0, 0.0, 0.0, 0.0, 0.0, 0.0, 0.0, 0.0, 0.0, 0.0, 1.6541572701453803E9, 0.0, 2022-06-02 10:07:50.145
253.0, 20175.668022116188, 4029.9301183140424, -73044.02566480944, -55882.4903824914, -45671.028872851, -47777.34551159686, -18572.802075481664, -50832.80662689288, 0.016, 0.786, 0.654, 192.0, 0.0, 0.0, 0.0, 0.0, 0.0, 0.0, 0.0, 0.0, 0.0, 1.654157270145386E9, 0.0, 2022-06-02 10:07:50.145
254.0, 20180.317184962892, 4034.065191038274, -73063.02464759644, -55888.27948430533, -45684.48462301309, -47787.8284797464, -18611.984683511815, -50872.36921457878, 0.016, 0.786, 0.654, 192.0, 0.0, 0.0, 0.0, 0.0, 0.0, 0.0, 0.0, 0.0, 0.0, 1.6541572701453917E9, 0.0, 2022-06-02 10:07:50.145
255.0, 20186.4639146881, 4040.5024934414023, -73068.03143835443, -55897.130775109625, -45698.05213189747, -47800.83719501939, -18636.616305901563, -50887.143717663734, 0.014, 0.784, 0.648, 192.0, 0.0, 112.0, 24.0, 128.0, 20.0, 64.0, 0.0, 0.0, 0.0, 1.6541572701453977E9, 0.0, 2022-06-02 10:07:50.145
0.0, 20175.80213258292, 4032.679382882045, -73065.95272612009, -55903.32220832375, -45701.67311449923, -47805.553413099464, -18626.31215170767, -50877.376005336766, 0.014, 0.784, 0.648, 192.0, 0.0, 0.0, 0.0, 0.0, 0.0, 0.0, 0.0, 0.0, 0.0, 1.6541572701454132E9, 0.0, 2022-06-02 10:07:50.145
1.0, 20165.453274900112, 4026.353839201193, -73065.70685693108, -55909.35717932668, -45705.04822791198, -47809.35320965686, -18625.798061585196, -50888.23895314204, 0.014, 0.784, 0.648, 192.0, 0.0, 0.0, 0.0, 0.0, 0.0, 0.0, 0.0, 0.0, 0.0, 1.6541572701454191E9, 0.0, 2022-06-02 10:07:50.145
2.0, 20180.361888451804, 4040.7036591415003, -73049.30067650088, -55891.96752214045, -45674.11341358584, -47784.721587267115, -18581.005165696763, -50854.77839169245, 0.014, 0.784, 0.648, 192.0, 0.0, 0.0, 0.0, 0.0, 0.0, 0.0, 0.0, 0.0, 0.0, 1.6541572701454246E9, 0.0, 2022-06-02 10:07:50.145
3.0, 20180.786571596454, 4032.2099962484835, -73068.07614184334, -55901.86934493415, -45686.00454163606, -47786.10739542334, -18593.5891978251, -50860.07575512836, 0.014, 0.784, 0.648, 192.0, 0.0, 0.0, 0.0, 0.0, 0.0, 0.0, 0.0, 0.0, 0.0, 1.65415727014543E9, 0.0, 2022-06-02 10:07:50.145
4.0, 20177.210292483604, 4024.386885689126, -73081.75540945, -55919.12489165365, -45703.863585455845, -47805.15108169927, -18608.989549754806, -50871.36338607829, 0.014, 0.784, 0.648, 192.0, 0.0, 0.0, 0.0, 0.0, 0.0, 0.0, 0.0, 0.0, 0.0, 1.654157270145435E9, 0.0, 2022-06-02 10:07:50.145
5.0, 20167.666097601188, 4021.682324610034, -73079.78845593792, -55917.604973030684, -45698.275649342024, -47805.26284042154, -18608.095479976593, -50858.77935394995, 0.014, 0.784, 0.648, 192.0, 0.0, 0.0, 0.0, 0.0, 0.0, 0.0, 0.0, 0.0, 0.0, 1.6541572701454403E9, 0.0, 2022-06-02 10:07:50.145
6.0, 20157.965440507585, 4009.522975626347, -73077.50857800349, -55917.6496765196, -45697.85096619737, -47808.973230001124, -18609.48128813282, -50868.30119708791, 0.014, 0.784, 0.648, 192.0, 0.0, 0.0, 0.0, 0.0, 0.0, 0.0, 0.0, 0.0, 0.0, 1.6541572701454458E9, 0.0, 2022-06-02 10:07:50.145
7.0, 20147.12484444676, 4001.543402855802, -73084.1023426178, -55925.27162137886, -45715.821768739435, -47824.06065750845, -18645.86992810606, -50917.989125012056, 0.014, 0.784, 0.648, 192.0, 0.0, 0.0, 0.0, 0.0, 0.0, 0.0, 0.0, 0.0, 0.0, 1.6541572701454513E9, 0.0, 2022-06-02 10:07:50.145
8.0, 20149.091797958827, 4006.773711058344, -73087.79038045292, -55922.03061843284, -45712.35724834887, -47806.179261944206, -18635.11873902306, -50874.559685535394, 0.014, 0.784, 0.648, 192.0, 0.0, 0.0, 0.0, 0.0, 0.0, 0.0, 0.0, 0.0, 0.0, 1.6541572701454563E9, 0.0, 2022-06-02 10:07:50.145
9.0, 20163.75454232151, 4016.3402576852154, -73080.88369141624, -55912.70994099497, -45708.89272795829, -47797.01504671753, -18640.863137348075, -50845.12243808776, 0.018000000000000002, 0.782, 0.652, 192.0, 0.0, 144.0, 24.0, 112.0, 20.0, 96.0, 0.0, 0.0, 0.0, 1.6541572701454616E9, 0.0, 2022-06-02 10:07:50.145
10.0, 20167.196710967626, 4018.6648391085673, -73072.07710410084, -55908.3960543151, -45706.724608746124, -47802.044189219974, -18645.69111415042, -50864.38964180823, 0.018000000000000002, 0.782, 0.652, 192.0, 0.0, 0.0, 0.0, 0.0, 0.0, 0.0, 0.0, 0.0, 0.0, 1.6541572701454668E9, 0.0, 2022-06-02 10:07:50.145
11.0, 20160.17826320866, 4015.9155745405646, -73063.24816504099, -55902.42813854553, -45689.04437888198, -47797.03739846199, -18599.378299639022, -50847.089391599824, 0.018000000000000002, 0.782, 0.652, 192.0, 0.0, 0.0, 0.0, 0.0, 0.0, 0.0, 0.0, 0.0, 0.0, 1.654157270145472E9, 0.0, 2022-06-02 10:07:50.145
12.0, 20159.28419343045, 4017.2790309523384, -73059.44836848359, -55897.890734421104, -45680.14838458877, -47792.343532126375, -18569.359906835547, -50838.72983917354, 0.018000000000000002, 0.782, 0.652, 192.0, 0.0, 0.0, 0.0, 0.0, 0.0, 0.0, 0.0, 0.0, 0.0, 1.6541572701454773E9, 0.0, 2022-06-02 10:07:50.145
13.0, 20161.497016131525, 4014.485062895425, -73078.55910999289, -55909.40188281559, -45697.9850766641, -47806.738055555594, -18605.614436342054, -50877.13013614776, 0.018000000000000002, 0.782, 0.652, 192.0, 0.0, 0.0, 0.0, 0.0, 0.0, 0.0, 0.0, 0.0, 0.0, 1.6541572701454828E9, 0.0, 2022-06-02 10:07:50.145
14.0, 20165.721495833575, 4013.4121791615703, -73088.1033048753, -55917.67202826405, -45703.50595754456, -47820.26086095105, -18625.842765074107, -50886.674331030175, 0.018000000000000002, 0.782, 0.652, 192.0, 0.0, 0.0, 0.0, 0.0, 0.0, 0.0, 0.0, 0.0, 0.0, 1.654157270145488E9, 0.0, 2022-06-02 10:07:50.145
15.0, 20170.907100547207, 4017.5919553747126, -73073.52996749044, -55907.94901942599, -45689.402006793265, -47811.47662538011, -18621.059491760672, -50865.149601119716, 0.018000000000000002, 0.782, 0.652, 192.0, 0.0, 0.0, 0.0, 0.0, 0.0, 0.0, 0.0, 0.0, 0.0, 1.6541572701454933E9, 0.0, 2022-06-02 10:07:50.145
16.0, 20168.291946445937, 4024.900975811598, -73056.20736553757, -55891.341673295705, -45684.68578871319, -47796.61271531734, -18621.84180281661, -50857.57235974936, 0.018000000000000002, 0.782, 0.652, 192.0, 0.0, 0.0, 0.0, 0.0, 0.0, 0.0, 0.0, 0.0, 0.0, 1.6541572701454985E9, 0.0, 2022-06-02 10:07:50.145
17.0, 20152.84689102732, 4013.769807072855, -73063.67284818564, -55895.36498729765, -45693.85000393987, -47798.87024150732, -18619.427814415434, -50868.36825232128, 0.018000000000000002, 0.782, 0.652, 192.0, 0.0, 0.0, 0.0, 0.0, 0.0, 0.0, 0.0, 0.0, 0.0, 1.6541572701455038E9, 0.0, 2022-06-02 10:07:50.145
18.0, 20149.18120493665, 4004.158556957073, -73085.77872345195, -55907.07730139224, -45710.300887858975, -47811.3872184023, -18616.00799751377, -50884.03682518445, 0.018000000000000002, 0.782, 0.646, 192.0, 0.0, 144.0, 24.0, 112.0, 20.0, 48.0, 0.0, 0.0, 0.0, 1.6541572701455095E9, 0.0, 2022-06-02 10:07:50.145
19.0, 20151.50578636, 4007.4442633920034, -73096.35109857931, -55918.14141489761, -45725.38831536631, -47825.960555787155, -18642.472462948856, -50893.62572355577, 0.018000000000000002, 0.782, 0.646, 192.0, 0.0, 0.0, 0.0, 0.0, 0.0, 0.0, 0.0, 0.0, 0.0, 1.6541572701455152E9, 0.0, 2022-06-02 10:07:50.145
20.0, 20149.4047223812, 4010.8864320381203, -73085.64461298521, -55908.75368222639, -45716.00058269508, -47818.80799756146, -18624.479308662332, -50874.73849949104, 0.018000000000000002, 0.782, 0.646, 192.0, 0.0, 0.0, 0.0, 0.0, 0.0, 0.0, 0.0, 0.0, 0.0, 1.6541572701455204E9, 0.0, 2022-06-02 10:07:50.145
21.0, 20135.591344307824, 4000.0458359772965, -73082.78358969494, -55912.374664828145, -45714.927698961226, -47819.92558478422, -18613.34813992359, -50870.98340642255, 0.018000000000000002, 0.782, 0.646, 192.0, 0.0, 0.0, 0.0, 0.0, 0.0, 0.0, 0.0, 0.0, 0.0, 1.6541572701455257E9, 0.0, 2022-06-02 10:07:50.145
22.0, 20146.342533390827, 4010.6629145935676, -73075.2510518135, -55906.60791475868, -45712.24548962659, -47808.07916022291, -18622.78057608373, -50878.11361290379, 0.018000000000000002, 0.782, 0.646, 192.0, 0.0, 0.0, 0.0, 0.0, 0.0, 0.0, 0.0, 0.0, 0.0, 1.654157270145533E9, 0.0, 2022-06-02 10:07:50.145
23.0, 20148.17537643616, 4009.522975626347, -73093.98181366704, -55918.72256025345, -45727.39997236729, -47818.29390743899, -18651.189643286427, -50910.05425573042, 0.018000000000000002, 0.782, 0.646, 192.0, 0.0, 0.0, 0.0, 0.0, 0.0, 0.0, 0.0, 0.0, 0.0, 1.6541572701455383E9, 0.0, 2022-06-02 10:07:50.145
24.0, 20135.993675708018, 3994.2790859078273, -73112.64552028722, -55938.19092967403, -45741.66038532977, -47837.82933209292, -18652.106064809093, -50891.65877004371, 0.018000000000000002, 0.782, 0.646, 192.0, 0.0, 0.0, 0.0, 0.0, 0.0, 0.0, 0.0, 0.0, 0.0, 1.6541572701455436E9, 0.0, 2022-06-02 10:07:50.145
25.0, 20140.285210643437, 3997.4306818760256, -73099.10036314731, -55930.68074353704, -45732.33970789191, -47827.726343599126, -18636.705712879386, -50866.73657497604, 0.018000000000000002, 0.782, 0.646, 192.0, 0.0, 0.0, 0.0, 0.0, 0.0, 0.0, 0.0, 0.0, 0.0, 1.6541572701455493E9, 0.0, 2022-06-02 10:07:50.145
26.0, 20140.79930076591, 3998.972952243442, -73087.6562699862, -55924.73517951193, -45721.47676008663, -47818.629183605815, -18625.172212740446, -50869.08350814385, 0.018000000000000002, 0.782, 0.646, 192.0, 0.0, 0.0, 0.0, 0.0, 0.0, 0.0, 0.0, 0.0, 0.0, 1.6541572701455543E9, 0.0, 2022-06-02 10:07:50.145
27.0, 20144.174414178662, 4004.65029533509, -73083.18592109512, -55917.02382767485, -45710.77027449254, -47813.42122714773, -18642.695980393408, -50879.052386170915, 0.018000000000000002, 0.782, 0.646, 192.0, 0.0, 0.0, 0.0, 0.0, 0.0, 0.0, 0.0, 0.0, 0.0, 1.65415727014556E9, 0.0, 2022-06-02 10:07:50.145
28.0, 20139.949934476608, 3997.7883097873105, -73102.8554562158, -55927.70796152449, -45716.022934439534, -47826.47464590963, -18646.473425206357, -50893.89394448924, 0.016, 0.778, 0.642, 192.0, 0.0, 128.0, 24.0, 80.0, 20.0, 16.0, 0.0, 0.0, 0.0, 1.6541572701455655E9, 0.0, 2022-06-02 10:07:50.145
29.0, 20142.766254277976, 3991.4404143620036, -73102.6542905157, -55933.16178717158, -45715.66530652825, -47838.544587915494, -18624.367549940056, -50888.551877564416, 0.016, 0.778, 0.642, 192.0, 0.0, 0.0, 0.0, 0.0, 0.0, 0.0, 0.0, 0.0, 0.0, 1.6541572701455712E9, 0.0, 2022-06-02 10:07:50.145
30.0, 20135.926620474653, 3986.0536439482744, -73090.22672059856, -55928.13264466914, -45716.82759723993, -47840.53389317202, -18632.950619810894, -50888.484822331055, 0.016, 0.778, 0.642, 192.0, 0.0, 0.0, 0.0, 0.0, 0.0, 0.0, 0.0, 0.0, 0.0, 1.654157270145577E9, 0.0, 2022-06-02 10:07:50.145
31.0, 20126.203611636593, 3986.232457903917, -73080.90604316069, -55920.86832772116, -45707.61867852434, -47831.41438143425, -18616.522087636244, -50881.779298994465, 0.016, 0.778, 0.642, 192.0, 0.0, 0.0, 0.0, 0.0, 0.0, 0.0, 0.0, 0.0, 0.0, 1.6541572701455824E9, 0.0, 2022-06-02 10:07:50.145
32.0, 20120.928599945142, 3985.2713328923387, -73086.33751706332, -55918.76726374236, -45709.51857680304, -47822.250166207574, -18621.17125048295, -50873.19622912363, 0.016, 0.778, 0.642, 192.0, 0.0, 0.0, 0.0, 0.0, 0.0, 0.0, 0.0, 0.0, 0.0, 1.6541572701455877E9, 0.0, 2022-06-02 10:07:50.145
33.0, 20140.084044943338, 4000.850498777688, -73083.83412168433, -55905.22210660245, -45708.065713413445, -47808.615602089834, -18627.988532541818, -50870.40226106671, 0.016, 0.778, 0.642, 192.0, 0.0, 0.0, 0.0, 0.0, 0.0, 0.0, 0.0, 0.0, 0.0, 1.6541572701455932E9, 0.0, 2022-06-02 10:07:50.145
34.0, 20138.69823678711, 3994.010864974364, -73099.74856373652, -55924.98104870094, -45731.02095496905, -47832.57667214593, -18648.999172329804, -50898.54310733594, 0.016, 0.778, 0.642, 192.0, 0.0, 0.0, 0.0, 0.0, 0.0, 0.0, 0.0, 0.0, 0.0, 1.654157270145599E9, 0.0, 2022-06-02 10:07:50.145
35.0, 20130.785719249932, 3984.578428814224, -73100.93320619264, -55935.866348250674, -45735.80422828248, -47840.55624491647, -18644.528823438744, -50898.23018291357, 0.016, 0.778, 0.642, 192.0, 0.0, 0.0, 0.0, 0.0, 0.0, 0.0, 0.0, 0.0, 0.0, 1.6541572701456044E9, 0.0, 2022-06-02 10:07:50.145
36.0, 20125.644818025212, 3980.1527834120734, -73096.99929916851, -55934.43583660553, -45736.07244921594, -47835.549454158485, -18655.16825379947, -50894.81036601191, 0.016, 0.778, 0.642, 192.0, 0.0, 0.0, 0.0, 0.0, 0.0, 0.0, 0.0, 0.0, 0.0, 1.6541572701456096E9, 0.0, 2022-06-02 10:07:50.145
37.0, 20128.528193059945, 3983.93022822502, -73093.13244737773, -55932.17831041555, -45721.543815319994, -47830.18503548921, -18631.6989221214, -50883.34392110633, 0.016, 0.778, 0.642, 192.0, 0.0, 0.0, 0.0, 0.0, 0.0, 0.0, 0.0, 0.0, 0.0, 1.654157270145615E9, 0.0, 2022-06-02 10:07:50.145
38.0, 20131.389216350224, 3987.7300247824223, -73106.0517556729, -55941.253118664405, -45736.40772538278, -47840.6903553832, -18661.247928291312, -50916.98329651157, 0.014, 0.782, 0.65, 192.0, 0.0, 112.0, 24.0, 112.0, 20.0, 80.0, 0.0, 0.0, 0.0, 1.6541572701456208E9, 0.0, 2022-06-02 10:07:50.145
39.0, 20128.997579693507, 3982.1420886685955, -73117.4064418562, -55955.96056651599, -45752.21040871268, -47862.75152716059, -18679.911634911496, -50938.41861944421, 0.014, 0.782, 0.65, 192.0, 0.0, 0.0, 0.0, 0.0, 0.0, 0.0, 0.0, 0.0, 0.0, 1.6541572701456268E9, 0.0, 2022-06-02 10:07:50.145
40.0, 20137.424187353157, 3992.5356498403135, -73095.14410437872, -55937.78859827383, -45731.15506543578, -47849.720460143144, -18647.63571591803, -50913.36231390981, 0.014, 0.782, 0.65, 192.0, 0.0, 0.0, 0.0, 0.0, 0.0, 0.0, 0.0, 0.0, 0.0, 1.654157270145632E9, 0.0, 2022-06-02 10:07:50.145
41.0, 20126.807108736888, 3984.198449158484, -73090.89727293221, -55929.74197026992, -45722.594347309394, -47831.86141632336, -18628.39086394201, -50873.732670990554, 0.014, 0.782, 0.65, 192.0, 0.0, 0.0, 0.0, 0.0, 0.0, 0.0, 0.0, 0.0, 0.0, 1.6541572701456375E9, 0.0, 2022-06-02 10:07:50.145
42.0, 20119.65455051119, 3980.4433560899924, -73099.3015288474, -55928.22205164696, -45722.14731242029, -47826.586404631904, -18624.658122617977, -50870.804592466906, 0.014, 0.782, 0.65, 192.0, 0.0, 0.0, 0.0, 0.0, 0.0, 0.0, 0.0, 0.0, 0.0, 1.6541572701456432E9, 0.0, 2022-06-02 10:07:50.145
43.0, 20131.74684426151, 3993.0497399627857, -73100.66498525918, -55918.677856764545, -45716.78289375101, -47818.02568650552, -18632.570640155154, -50878.87357221527, 0.014, 0.782, 0.65, 192.0, 0.0, 0.0, 0.0, 0.0, 0.0, 0.0, 0.0, 0.0, 0.0, 1.654157270145652E9, 0.0, 2022-06-02 10:07:50.145
44.0, 20132.864431484275, 3990.83691726171, -73111.50558132, -55926.65742953509, -45734.64193757081, -47835.46004718066, -18669.138094084035, -50906.27681091748, 0.014, 0.782, 0.65, 192.0, 0.0, 0.0, 0.0, 0.0, 0.0, 0.0, 0.0, 0.0, 0.0, 1.6541572701456575E9, 0.0, 2022-06-02 10:07:50.145
45.0, 20126.98592269253, 3985.941885225998, -73108.28693011844, -55931.1501301706, -45726.43884735571, -47846.1441810303, -18647.7027711514, -50906.29916266193, 0.014, 0.782, 0.65, 192.0, 0.0, 0.0, 0.0, 0.0, 0.0, 0.0, 0.0, 0.0, 0.0, 1.6541572701456635E9, 0.0, 2022-06-02 10:07:50.145
46.0, 20118.78283247743, 3976.9341322105092, -73110.4103458417, -55933.02767670485, -45725.90240548878, -47849.02755606503, -18652.01665783127, -50911.03773248646, 0.014, 0.782, 0.65, 192.0, 0.0, 0.0, 0.0, 0.0, 0.0, 0.0, 0.0, 0.0, 0.0, 1.654157270145669E9, 0.0, 2022-06-02 10:07:50.145
47.0, 20118.60401852179, 3978.45405083347, -73108.44339232963, -55924.53401381183, -45728.204635167676, -47833.53779715751, -18660.175044557458, -50894.1621654227, 0.014, 0.782, 0.65, 192.0, 0.0, 0.0, 0.0, 0.0, 0.0, 0.0, 0.0, 0.0, 0.0, 1.6541572701456747E9, 0.0, 2022-06-02 10:07:50.145
48.0, 20122.359111590282, 3976.2635798768497, -73114.008976699, -55929.83137724774, -45738.97817599514, -47833.023707035034, -18653.89420436552, -50895.8608980013, 0.018000000000000002, 0.782, 0.65, 192.0, 0.0, 144.0, 24.0, 112.0, 20.0, 80.0, 0.0, 0.0, 0.0, 1.6541572701456804E9, 0.0, 2022-06-02 10:07:50.145
49.0, 20119.498088300003, 3972.709652508456, -73126.54830533842, -55944.73999079943, -45761.44167917272, -47849.60870142087, -18665.070076593172, -50909.98720049706, 0.018000000000000002, 0.782, 0.65, 192.0, 0.0, 0.0, 0.0, 0.0, 0.0, 0.0, 0.0, 0.0, 0.0, 1.654157270145686E9, 0.0, 2022-06-02 10:07:50.145
50.0, 20122.180297634637, 3982.3432543686936, -73107.28110161795, -55935.19579591701, -45735.62541432684, -47842.9925850621, -18637.26450649077, -50890.228258398565, 0.018000000000000002, 0.782, 0.65, 192.0, 0.0, 0.0, 0.0, 0.0, 0.0, 0.0, 0.0, 0.0, 0.0, 1.6541572701456923E9, 0.0, 2022-06-02 10:07:50.145
51.0, 20128.058806426383, 3991.105138195174, -73088.05860138638, -55920.421292832056, -45714.5924227944, -47824.775913331025, -18610.241247444304, -50867.94356917663, 0.018000000000000002, 0.782, 0.65, 192.0, 0.0, 0.0, 0.0, 0.0, 0.0, 0.0, 0.0, 0.0, 0.0, 1.654157270145698E9, 0.0, 2022-06-02 10:07:50.145
52.0, 20124.30371335789, 3992.088614951207, -73080.88369141624, -55910.45241480499, -45703.75182673357, -47810.00141024607, -18592.337500135603, -50850.57626373485, 0.018000000000000002, 0.782, 0.65, 192.0, 0.0, 0.0, 0.0, 0.0, 0.0, 0.0, 0.0, 0.0, 0.0, 1.6541572701457038E9, 0.0, 2022-06-02 10:07:50.145
53.0, 20106.93640791612, 3974.45308857597, -73113.87486623226, -55935.508720339385, -45736.18420793822, -47836.22000649214, -18645.914631594973, -50900.241839914546, 0.018000000000000002, 0.782, 0.65, 192.0, 0.0, 0.0, 0.0, 0.0, 0.0, 0.0, 0.0, 0.0, 0.0, 1.6541572701457095E9, 0.0, 2022-06-02 10:07:50.145
54.0, 20111.384405062727, 3975.6600827765565, -73125.96715998258, -55947.51160711189, -45754.825562813945, -47858.57175094745, -18666.36647777158, -50927.57802338339, 0.018000000000000002, 0.782, 0.65, 192.0, 0.0, 0.0, 0.0, 0.0, 0.0, 0.0, 0.0, 0.0, 0.0, 1.6541572701457152E9, 0.0, 2022-06-02 10:07:50.145
55.0, 20124.907210458186, 3990.702806794978, -73106.96817719558, -55930.85955749269, -45743.090896974914, -47847.95467233118, -18659.54919571271, -50926.371029182796, 0.018000000000000002, 0.782, 0.65, 192.0, 0.0, 0.0, 0.0, 0.0, 0.0, 0.0, 0.0, 0.0, 0.0, 1.6541572701457207E9, 0.0, 2022-06-02 10:07:50.145
56.0, 20118.335797588326, 3987.506507337869, -73103.12367714927, -55921.740045754916, -45743.359117908374, -47827.8381023214, -18655.771750899763, -50880.77347049397, 0.018000000000000002, 0.782, 0.65, 192.0, 0.0, 0.0, 0.0, 0.0, 0.0, 0.0, 0.0, 0.0, 0.0, 1.6541572701457274E9, 0.0, 2022-06-02 10:07:50.145
57.0, 20130.31633261637, 4002.169251700551, -73095.05469740089, -55903.25515309038, -45733.3455363924, -47807.34155265588, -18645.31113449468, -50861.081583628846, 0.018000000000000002, 0.782, 0.65, 192.0, 0.0, 0.0, 0.0, 0.0, 0.0, 0.0, 0.0, 0.0, 0.0, 1.6541572701457336E9, 0.0, 2022-06-02 10:07:50.145
58.0, 20136.910097230684, 4006.1478622135955, -73104.01774692748, -55906.20558335848, -45739.84989402889, -47819.29973593947, -18662.231405047347, -50910.41188364171, 0.018000000000000002, 0.78, 0.658, 192.0, 0.0, 144.0, 24.0, 96.0, 20.0, 144.0, 0.0, 0.0, 0.0, 1.6541572701457393E9, 0.0, 2022-06-02 10:07:50.145
59.0, 20127.16473664817, 3991.775690528833, -73120.93801748015, -55931.9994964599, -45761.86636231737, -47846.50180894158, -18679.285786066746, -50929.05323851744, 0.018000000000000002, 0.78, 0.658, 192.0, 0.0, 0.0, 0.0, 0.0, 0.0, 0.0, 0.0, 0.0, 0.0, 1.6541572701457453E9, 0.0, 2022-06-02 10:07:50.145
60.0, 20128.21526863757, 3991.686283551012, -73108.64455802973, -55929.719618525465, -45755.38435642533, -47840.66800363875, -18666.902919638505, -50904.6674853167, 0.018000000000000002, 0.78, 0.658, 192.0, 0.0, 0.0, 0.0, 0.0, 0.0, 0.0, 0.0, 0.0, 0.0, 1.6541572701457512E9, 0.0, 2022-06-02 10:07:50.145
61.0, 20120.950951689596, 3986.3442166261934, -73099.34623233632, -55924.44460683401, -45740.83337078492, -47837.69522162619, -18650.228518274846, -50901.58294458186, 0.018000000000000002, 0.78, 0.658, 192.0, 0.0, 0.0, 0.0, 0.0, 0.0, 0.0, 0.0, 0.0, 0.0, 1.6541572701457565E9, 0.0, 2022-06-02 10:07:50.145
62.0, 20118.6487220107, 3985.450146847981, -73092.77481946646, -55915.593316029706, -45729.12105669035, -47825.78174183152, -18641.287820492726, -50884.79678449593, 0.018000000000000002, 0.78, 0.658, 192.0, 0.0, 0.0, 0.0, 0.0, 0.0, 0.0, 0.0, 0.0, 0.0, 1.6541572701457624E9, 0.0, 2022-06-02 10:07:50.145
63.0, 20116.88293419873, 3982.3656061131487, -73103.749525994, -55922.87998472214, -45738.754658550584, -47829.827407577926, -18649.334448496636, -50894.78801426745, 0.018000000000000002, 0.78, 0.658, 192.0, 0.0, 0.0, 0.0, 0.0, 0.0, 0.0, 0.0, 0.0, 0.0, 1.654157270145768E9, 0.0, 2022-06-02 10:07:50.145
64.0, 20112.16671611866, 3975.3024548652716, -73117.65231104521, -55938.5038540964, -45754.04325175801, -47854.1461055453, -18673.22846331936, -50917.430331400676, 0.018000000000000002, 0.78, 0.658, 192.0, 0.0, 0.0, 0.0, 0.0, 0.0, 0.0, 0.0, 0.0, 0.0, 1.6541572701457772E9, 0.0, 2022-06-02 10:07:50.145
65.0, 20110.40092830669, 3971.0332716743083, -73111.1032499198, -55937.72154304046, -45749.595254611406, -47851.70976539967, -18662.410219002988, -50899.951267236625, 0.018000000000000002, 0.78, 0.658, 192.0, 0.0, 0.0, 0.0, 0.0, 0.0, 0.0, 0.0, 0.0, 0.0, 1.6541572701457827E9, 0.0, 2022-06-02 10:07:50.145
66.0, 20110.579742262333, 3973.156687397562, -73099.3015288474, -55928.42321734706, -45732.38441138082, -47846.457105452675, -18648.865061863075, -50901.337075392854, 0.018000000000000002, 0.78, 0.658, 192.0, 0.0, 0.0, 0.0, 0.0, 0.0, 0.0, 0.0, 0.0, 0.0, 1.6541572701457882E9, 0.0, 2022-06-02 10:07:50.145
67.0, 20101.348471802292, 3962.383146570104, -73109.06924117438, -55935.665182550576, -45733.09966720339, -47852.20150377769, -18641.399579215, -50906.96971499559, 0.018000000000000002, 0.78, 0.658, 192.0, 0.0, 0.0, 0.0, 0.0, 0.0, 0.0, 0.0, 0.0, 0.0, 1.6541572701457937E9, 0.0, 2022-06-02 10:07:50.145
68.0, 20106.243503838006, 3961.6008355141685, -73122.32382563637, -55937.6544878071, -45738.86641727286, -47845.831256607926, -18625.999227285294, -50888.52952581996, 0.016, 0.78, 0.654, 192.0, 0.0, 128.0, 24.0, 96.0, 20.0, 112.0, 0.0, 0.0, 0.0, 1.6541572701457992E9, 0.0, 2022-06-02 10:07:50.145
69.0, 20108.25516083898, 3960.5279517803137, -73132.87384901928, -55948.96447050148, -45744.700222575695, -47858.37058524735, -18652.64250667602, -50908.37787489628, 0.016, 0.78, 0.654, 192.0, 0.0, 0.0, 0.0, 0.0, 0.0, 0.0, 0.0, 0.0, 0.0, 1.6541572701458044E9, 0.0, 2022-06-02 10:07:50.145
70.0, 20107.428146294136, 3959.1197918796292, -73124.64840705972, -55952.361935658686, -45739.939301006714, -47863.153858560785, -18682.50443726831, -50921.56540412491, 0.016, 0.78, 0.654, 192.0, 0.0, 0.0, 0.0, 0.0, 0.0, 0.0, 0.0, 0.0, 0.0, 1.6541572701458104E9, 0.0, 2022-06-02 10:07:50.145
71.0, 20108.679843983635, 3960.460896546948, -73108.3539853518, -55944.941156499524, -45740.207521940174, -47855.17428579024, -18661.762018413785, -50903.92987774967, 0.016, 0.78, 0.654, 192.0, 0.0, 0.0, 0.0, 0.0, 0.0, 0.0, 0.0, 0.0, 0.0, 1.6541572701458168E9, 0.0, 2022-06-02 10:07:50.145
72.0, 20109.395099806203, 3964.327748337716, -73106.4540870731, -55941.811912275785, -45743.13560046382, -47848.200541520186, -18659.728009668353, -50902.119386448794, 0.016, 0.78, 0.654, 192.0, 0.0, 0.0, 0.0, 0.0, 0.0, 0.0, 0.0, 0.0, 0.0, 1.6541572701458228E9, 0.0, 2022-06-02 10:07:50.145
73.0, 20119.36397783327, 3974.520143809336, -73108.9574824521, -55935.732237783945, -45734.46312361516, -47841.2938524835, -18632.97297155535, -50902.45466261562, 0.016, 0.78, 0.654, 192.0, 0.0, 0.0, 0.0, 0.0, 0.0, 0.0, 0.0, 0.0, 0.0, 1.6541572701458285E9, 0.0, 2022-06-02 10:07:50.145
74.0, 20121.576800534345, 3977.783498499811, -73115.77476451096, -55942.16954018707, -45743.20265569719, -47855.77778289054, -18633.68822737792, -50908.690799318654, 0.016, 0.78, 0.654, 192.0, 0.0, 0.0, 0.0, 0.0, 0.0, 0.0, 0.0, 0.0, 0.0, 1.654157270145834E9, 0.0, 2022-06-02 10:07:50.145
75.0, 20126.494184314513, 3983.639655547101, -73100.53087479244, -55936.6039558177, -45737.59236783891, -47850.10043979889, -18647.188681028925, -50889.49065083154, 0.016, 0.78, 0.654, 192.0, 0.0, 0.0, 0.0, 0.0, 0.0, 0.0, 0.0, 0.0, 0.0, 1.6541572701458397E9, 0.0, 2022-06-02 10:07:50.145
76.0, 20122.69438775711, 3982.0750334352297, -73090.40553455419, -55931.41835110407, -45735.51365560456, -47840.4891896831, -18657.53753871173, -50886.92020021918, 0.016, 0.78, 0.654, 192.0, 0.0, 0.0, 0.0, 0.0, 0.0, 0.0, 0.0, 0.0, 0.0, 1.6541572701458447E9, 0.0, 2022-06-02 10:07:50.145
77.0, 20118.872239455253, 3982.812641002255, -73093.26655784447, -55928.959659213986, -45742.77797255254, -47840.35507921637, -18645.46759670587, -50906.07564521738, 0.016, 0.78, 0.654, 192.0, 0.0, 0.0, 0.0, 0.0, 0.0, 0.0, 0.0, 0.0, 0.0, 1.6541572701458502E9, 0.0, 2022-06-02 10:07:50.145
78.0, 20115.184201620126, 3976.397690343582, -73115.2606743885, -55941.878967509154, -45751.115173234364, -47856.11305905737, -18647.769826384763, -50934.84234033136, 0.014, 0.778, 0.65, 192.0, 0.0, 112.0, 24.0, 80.0, 20.0, 80.0, 0.0, 0.0, 0.0, 1.6541572701458557E9, 0.0, 2022-06-02 10:07:50.145
79.0, 20105.01415789296, 3962.874884948121, -73132.3597588968, -55959.983880517946, -45769.175382754256, -47872.742756932115, -18666.478236493855, -50929.43321817317, 0.014, 0.778, 0.65, 192.0, 0.0, 0.0, 0.0, 0.0, 0.0, 0.0, 0.0, 0.0, 0.0, 1.6541572701458611E9, 0.0, 2022-06-02 10:07:50.145
80.0, 20102.77898344743, 3960.036213402297, -73119.77572676846, -55953.81479904828, -45763.0510047735, -47863.13150681633, -18666.299422538214, -50908.80255804093, 0.014, 0.778, 0.65, 192.0, 0.0, 0.0, 0.0, 0.0, 0.0, 0.0, 0.0, 0.0, 0.0, 1.6541572701458666E9, 0.0, 2022-06-02 10:07:50.145
81.0, 20107.182277105127, 3968.5969315286798, -73100.53087479244, -55934.257022649894, -45744.05202198649, -47838.81280884896, -18652.329582253646, -50881.68989201664, 0.014, 0.778, 0.65, 192.0, 0.0, 0.0, 0.0, 0.0, 0.0, 0.0, 0.0, 0.0, 0.0, 1.6541572701458719E9, 0.0, 2022-06-02 10:07:50.145
82.0, 20097.995710133997, 3958.1810186125067, -73105.26944461698, -55934.391133116624, -45751.71867033466, -47840.6903553832, -18664.80185565971, -50896.173822423676, 0.014, 0.778, 0.65, 192.0, 0.0, 0.0, 0.0, 0.0, 0.0, 0.0, 0.0, 0.0, 0.0, 1.6541572701458771E9, 0.0, 2022-06-02 10:07:50.145
83.0, 20099.761497945965, 3959.7009372354673, -73117.78642151195, -55939.844958763715, -45751.80807731248, -47846.07712579693, -18656.464654977877, -50907.79672954044, 0.014, 0.778, 0.65, 192.0, 0.0, 0.0, 0.0, 0.0, 0.0, 0.0, 0.0, 0.0, 0.0, 1.6541572701458824E9, 0.0, 2022-06-02 10:07:50.145
84.0, 20100.767326446454, 3962.1149256366407, -73128.67172106168, -55950.52909261335, -45763.81096408498, -47864.986701606125, -18685.588978003143, -50940.69849737865, 0.014, 0.778, 0.65, 192.0, 0.0, 0.0, 0.0, 0.0, 0.0, 0.0, 0.0, 0.0, 0.0, 1.6541572701458879E9, 0.0, 2022-06-02 10:07:50.145
85.0, 20099.94031190161, 3963.5454372817803, -73116.1100406778, -55940.58256633074, -45760.86053381688, -47858.57175094745, -18693.188571117946, -50933.36712519731, 0.014, 0.778, 0.65, 192.0, 0.0, 0.0, 0.0, 0.0, 0.0, 0.0, 0.0, 0.0, 0.0, 1.654157270145893E9, 0.0, 2022-06-02 10:07:50.145
86.0, 20097.45926826707, 3968.5298762953134, -73100.9555579371, -55927.28327837984, -45751.472801145654, -47841.830294350424, -18675.798913931718, -50907.2155841846, 0.014, 0.778, 0.65, 192.0, 0.0, 0.0, 0.0, 0.0, 0.0, 0.0, 0.0, 0.0, 0.0, 1.654157270145902E9, 0.0, 2022-06-02 10:07:50.145
87.0, 20095.581721732822, 3966.898198950076, -73097.82631371336, -55923.841109733716, -45738.64289982831, -47837.04702103699, -18649.267393263268, -50898.02901721347, 0.014, 0.778, 0.65, 192.0, 0.0, 0.0, 0.0, 0.0, 0.0, 0.0, 0.0, 0.0, 0.0, 1.6541572701459088E9, 0.0, 2022-06-02 10:07:50.145
88.0, 20085.97047161704, 3955.0964778776743, -73126.07891870486, -55941.186063431036, -45751.338690678924, -47854.28021601203, -18660.89030038003, -50930.41669492921, 0.018000000000000002, 0.78, 0.644, 192.0, 0.0, 144.0, 24.0, 96.0, 20.0, 32.0, 0.0, 0.0, 0.0, 1.654157270145914E9, 0.0, 2022-06-02 10:07:50.145
89.0, 20097.07928861133, 3962.718422736934, -73133.27618041947, -55946.52813035585, -45764.45916467418, -47860.6951666707, -18685.968957658883, -50932.16013099672, 0.018000000000000002, 0.78, 0.644, 192.0, 0.0, 0.0, 0.0, 0.0, 0.0, 0.0, 0.0, 0.0, 0.0, 1.6541572701459196E9, 0.0, 2022-06-02 10:07:50.145
90.0, 20104.008329392473, 3971.2120856299507, -73114.99245345504, -55938.14622618511, -45757.53012389304, -47846.61356766386, -18679.643413978032, -50901.87351725978, 0.018000000000000002, 0.78, 0.644, 192.0, 0.0, 0.0, 0.0, 0.0, 0.0, 0.0, 0.0, 0.0, 0.0, 1.6541572701459248E9, 0.0, 2022-06-02 10:07:50.145
91.0, 20095.425259521635, 3967.7252134949226, -73110.03036618595, -55937.542729084824, -45758.08891750442, -47843.21610250665, -18669.473370250867, -50900.711226548105, 0.018000000000000002, 0.78, 0.644, 192.0, 0.0, 0.0, 0.0, 0.0, 0.0, 0.0, 0.0, 0.0, 0.0, 1.6541572701459305E9, 0.0, 2022-06-02 10:07:50.145
92.0, 20095.089983354806, 3969.5357047958023, -73108.84572372983, -55931.597165059706, -45752.21040871268, -47841.31620422795, -18656.12937881105, -50913.228203443075, 0.018000000000000002, 0.78, 0.644, 192.0, 0.0, 0.0, 0.0, 0.0, 0.0, 0.0, 0.0, 0.0, 0.0, 1.6541572701459365E9, 0.0, 2022-06-02 10:07:50.145
93.0, 20091.87133215324, 3963.031347159308, -73128.67172106168, -55943.3541826432, -45755.13848723632, -47848.71463164266, -18650.854367119595, -50918.14558722325, 0.018000000000000002, 0.78, 0.644, 192.0, 0.0, 0.0, 0.0, 0.0, 0.0, 0.0, 0.0, 0.0, 0.0, 1.6541572701459432E9, 0.0, 2022-06-02 10:07:50.145
94.0, 20094.911169399165, 3960.7961727137777, -73141.30045667893, -55961.90613054111, -45767.29783622001, -47864.22674229464, -18672.334393541147, -50926.03575301597, 0.018000000000000002, 0.78, 0.644, 192.0, 0.0, 0.0, 0.0, 0.0, 0.0, 0.0, 0.0, 0.0, 0.0, 1.6541572701459513E9, 0.0, 2022-06-02 10:07:50.145
95.0, 20093.055974609375, 3956.325823822716, -73139.62407584478, -55967.09173525474, -45773.57867641195, -47872.452184254194, -18712.791051005253, -50944.14066602477, 0.018000000000000002, 0.78, 0.644, 192.0, 0.0, 0.0, 0.0, 0.0, 0.0, 0.0, 0.0, 0.0, 0.0, 1.6541572701459568E9, 0.0, 2022-06-02 10:07:50.145
96.0, 20097.481620011524, 3953.0848208766965, -73128.80583152841, -55961.43674390754, -45770.60589439939, -47867.08776558492, -18685.14194311404, -50930.439046673666, 0.018000000000000002, 0.78, 0.644, 192.0, 0.0, 0.0, 0.0, 0.0, 0.0, 0.0, 0.0, 0.0, 0.0, 1.654157270145962E9, 0.0, 2022-06-02 10:07:50.145
97.0, 20098.82272467884, 3960.483248291403, -73112.01967144247, -55949.4562088795, -45763.699205362704, -47852.8944078558, -18664.868910893074, -50914.23403194357, 0.016, 0.786, 0.644, 192.0, 0.0, 128.0, 24.0, 144.0, 20.0, 32.0, 0.0, 0.0, 0.0, 1.6541572701459675E9, 0.0, 2022-06-02 10:07:50.145
98.0, 20098.26393106746, 3964.9312454380092, -73119.84278200183, -55948.13745595664, -45757.82069657096, -47855.86718986835, -18668.378134772556, -50938.10569502183, 0.016, 0.786, 0.644, 192.0, 0.0, 0.0, 0.0, 0.0, 0.0, 0.0, 0.0, 0.0, 0.0, 1.6541572701459732E9, 0.0, 2022-06-02 10:07:50.145
99.0, 20095.425259521635, 3955.230588344406, -73134.37141589778, -55964.186008475546, -45772.28227523354, -47876.83312616743, -18689.925216427473, -50955.540055696976, 0.016, 0.786, 0.644, 192.0, 0.0, 0.0, 0.0, 0.0, 0.0, 0.0, 0.0, 0.0, 0.0, 1.6541572701459837E9, 0.0, 2022-06-02 10:07:50.145
100.0, 20089.569102474346, 3950.357908053149, -73132.02448272998, -55965.61652012069, -45780.32890323745, -47872.943922632214, -18686.192475103435, -50928.76266583952, 0.016, 0.786, 0.644, 192.0, 0.0, 0.0, 0.0, 0.0, 0.0, 0.0, 0.0, 0.0, 0.0, 1.65415727014599E9, 0.0, 2022-06-02 10:07:50.145
101.0, 20088.809143162864, 3949.9555766529534, -73117.13822092274, -55955.088848482235, -45770.60589439939, -47858.43764048072, -18666.433533004943, -50897.64903755773, 0.016, 0.786, 0.644, 192.0, 0.0, 0.0, 0.0, 0.0, 0.0, 0.0, 0.0, 0.0, 0.0, 1.654157270145998E9, 0.0, 2022-06-02 10:07:50.145
102.0, 20098.93448340112, 3960.8632279471435, -73105.29179636143, -55937.78859827383, -45750.37756566734, -47836.08589602541, -18646.11579729507, -50880.12526990477, 0.016, 0.786, 0.644, 192.0, 0.0, 0.0, 0.0, 0.0, 0.0, 0.0, 0.0, 0.0, 0.0, 1.6541572701460116E9, 0.0, 2022-06-02 10:07:50.146
103.0, 20102.577817747333, 3962.9866436703974, -73119.84278200183, -55947.57866234525, -45748.81294355547, -47846.74767813059, -18661.627907947055, -50919.2184709571, 0.016, 0.786, 0.644, 192.0, 0.0, 0.0, 0.0, 0.0, 0.0, 0.0, 0.0, 0.0, 0.0, 1.6541572701460228E9, 0.0, 2022-06-02 10:07:50.146
104.0, 20106.176448604638, 3957.2422453453837, -73132.33740715234, -55963.895435797625, -45770.58354265494, -47866.90895162928, -18701.79399273324, -50945.70528813664, 0.016, 0.786, 0.644, 192.0, 0.0, 0.0, 0.0, 0.0, 0.0, 0.0, 0.0, 0.0, 0.0, 1.6541572701460352E9, 0.0, 2022-06-02 10:07:50.146
105.0, 20110.333873073327, 3960.3044343357606, -73121.18388666915, -55955.96056651599, -45769.91299032128, -47862.5503614605, -18693.635606007054, -50935.043506031456, 0.016, 0.786, 0.644, 192.0, 0.0, 0.0, 0.0, 0.0, 0.0, 0.0, 0.0, 0.0, 0.0, 1.6541572706264107E9, 0.0, 2022-06-02 10:07:50.626
106.0, 20111.630274251733, 3962.807829714755, -73101.22377887057, -55946.572833844766, -45752.612740112876, -47847.3958787198, -18640.59491641461, -50908.22141268509, 0.016, 0.786, 0.644, 192.0, 0.0, 0.0, 0.0, 0.0, 0.0, 0.0, 0.0, 0.0, 0.0, 1.6541572706266298E9, 0.0, 2022-06-02 10:07:50.626
107.0, 20121.08506215633, 3968.194600128484, -73093.71359273358, -55936.76041802888, -45744.32024291995, -47835.10241926937, -18621.484174905323, -50897.134947435254, 0.016, 0.782, 0.646, 192.0, 0.0, 128.0, 24.0, 112.0, 20.0, 48.0, 0.0, 0.0, 0.0, 1.6541572706266432E9, 0.0, 2022-06-02 10:07:50.626
108.0, 20120.436861567123, 3968.4181175730373, -73113.69605227662, -55945.097618710715, -45760.972292539154, -47842.16557051725, -18671.440323762934, -50924.71700009311, 0.016, 0.782, 0.646, 192.0, 0.0, 0.0, 0.0, 0.0, 0.0, 0.0, 0.0, 0.0, 0.0, 1.654157270626649E9, 0.0, 2022-06-02 10:07:50.626
109.0, 20102.80133519189, 3954.895312177576, -73141.8145468014, -55968.45519166651, -45783.72636839466, -47869.70291968619, -18716.99317896285, -50967.38648025829, 0.016, 0.782, 0.646, 192.0, 0.0, 0.0, 0.0, 0.0, 0.0, 0.0, 0.0, 0.0, 0.0, 1.654157270626654E9, 0.0, 2022-06-02 10:07:50.626
110.0, 20091.714869942054, 3949.8885214195875, -73139.62407584478, -55968.723412599975, -45778.63017065885, -47873.14508833231, -18701.771640988783, -50948.16398002672, 0.016, 0.782, 0.646, 192.0, 0.0, 0.0, 0.0, 0.0, 0.0, 0.0, 0.0, 0.0, 0.0, 1.6541572706266592E9, 0.0, 2022-06-02 10:07:50.626
111.0, 20099.962663646063, 3963.657196004057, -73119.03811920145, -55949.74678155742, -45755.71963259216, -47849.51929444305, -18660.26445153528, -50895.07858694537, 0.016, 0.782, 0.646, 192.0, 0.0, 0.0, 0.0, 0.0, 0.0, 0.0, 0.0, 0.0, 0.0, 1.6541572706266644E9, 0.0, 2022-06-02 10:07:50.626
112.0, 20097.436916522613, 3962.092573892185, -73124.53664833745, -55949.52326411287, -45765.174420496754, -47848.17818977573, -18682.236216334848, -50906.522680106485, 0.016, 0.782, 0.646, 192.0, 0.0, 0.0, 0.0, 0.0, 0.0, 0.0, 0.0, 0.0, 0.0, 1.6541572706266696E9, 0.0, 2022-06-02 10:07:50.626
113.0, 20095.469963010546, 3958.2480738458726, -73140.58520085635, -55956.206435705004, -45780.44066195973, -47860.851628881894, -18714.355673117123, -50940.922014823205, 0.016, 0.782, 0.646, 192.0, 0.0, 0.0, 0.0, 0.0, 0.0, 0.0, 0.0, 0.0, 0.0, 1.654157270626675E9, 0.0, 2022-06-02 10:07:50.626
114.0, 20103.02485263644, 3961.444373302981, -73142.73096832406, -55957.659299094594, -45782.56407768298, -47869.43469875273, -18694.328510085168, -50937.74806711055, 0.016, 0.782, 0.646, 192.0, 0.0, 0.0, 0.0, 0.0, 0.0, 0.0, 0.0, 0.0, 0.0, 1.65415727062668E9, 0.0, 2022-06-02 10:07:50.626
115.0, 20109.775079461942, 3963.9477686819755, -73128.35879663931, -55950.39498214662, -45772.34933046691, -47864.00322485009, -18668.802817917207, -50916.871537789295, 0.016, 0.782, 0.646, 192.0, 0.0, 0.0, 0.0, 0.0, 0.0, 0.0, 0.0, 0.0, 0.0, 1.6541572706266851E9, 0.0, 2022-06-02 10:07:50.626
116.0, 20107.472849783047, 3960.97498666942, -73113.71840402109, -55946.014040233385, -45766.4037664418, -47861.343367259906, -18672.200283074413, -50918.771436068, 0.016, 0.782, 0.646, 192.0, 0.0, 0.0, 0.0, 0.0, 0.0, 0.0, 0.0, 0.0, 0.0, 1.6541572706266904E9, 0.0, 2022-06-02 10:07:50.626
117.0, 20107.986939905517, 3967.1217163946294, -73108.64455802973, -55942.19189193152, -45755.898446547806, -47860.650463181795, -18661.002059102306, -50916.17863371118, 0.012, 0.784, 0.648, 192.0, 0.0, 96.0, 24.0, 128.0, 20.0, 64.0, 0.0, 0.0, 0.0, 1.6541572706266956E9, 0.0, 2022-06-02 10:07:50.626
118.0, 20117.397024321202, 3975.615379287646, -73107.39286034023, -55936.6039558177, -45749.86347554487, -47844.93718682971, -18664.064248092684, -50902.521717848984, 0.012, 0.784, 0.648, 192.0, 0.0, 0.0, 0.0, 0.0, 0.0, 0.0, 0.0, 0.0, 0.0, 1.654157270626701E9, 0.0, 2022-06-02 10:07:50.626
119.0, 20123.230829624037, 3974.2966263647827, -73114.27719763246, -55946.68459256704, -45766.69433911971, -47857.85649512488, -18687.824152448673, -50922.32536343639, 0.012, 0.784, 0.648, 192.0, 0.0, 0.0, 0.0, 0.0, 0.0, 0.0, 0.0, 0.0, 0.0, 1.6541572706267068E9, 0.0, 2022-06-02 10:07:50.626
120.0, 20118.6487220107, 3972.6649490195455, -73106.99052894003, -55946.5057786114, -45769.75652811009, -47867.75831791858, -18685.36546055859, -50929.723790851094, 0.012, 0.784, 0.648, 192.0, 0.0, 0.0, 0.0, 0.0, 0.0, 0.0, 0.0, 0.0, 0.0, 1.654157270626712E9, 0.0, 2022-06-02 10:07:50.626
121.0, 20108.389271305714, 3967.5687512837353, -73099.25682535849, -55946.23755767794, -45769.242437987625, -47860.42694573724, -18668.31107953919, -50906.813252784406, 0.012, 0.784, 0.648, 192.0, 0.0, 0.0, 0.0, 0.0, 0.0, 0.0, 0.0, 0.0, 0.0, 1.6541572706267176E9, 0.0, 2022-06-02 10:07:50.626
122.0, 20098.39804153419, 3962.740774481389, -73104.97887193905, -55951.378458902655, -45765.06266177448, -47861.38807074882, -18667.685230694442, -50913.38466565427, 0.012, 0.784, 0.648, 192.0, 0.0, 0.0, 0.0, 0.0, 0.0, 0.0, 0.0, 0.0, 0.0, 1.6541572706267228E9, 0.0, 2022-06-02 10:07:50.626
123.0, 20107.718718972053, 3975.6600827765565, -73103.52600854945, -55949.41150539059, -45751.78572556803, -47860.94103585971, -18656.3528962556, -50932.875386819294, 0.012, 0.784, 0.648, 192.0, 0.0, 0.0, 0.0, 0.0, 0.0, 0.0, 0.0, 0.0, 0.0, 1.654157270626728E9, 0.0, 2022-06-02 10:07:50.626
124.0, 20110.155059117682, 3969.491001306892, -73120.17805816866, -55968.991633533435, -45761.620493128365, -47882.71163495918, -18692.07098389518, -50960.70330866615, 0.012, 0.784, 0.648, 192.0, 0.0, 0.0, 0.0, 0.0, 0.0, 0.0, 0.0, 0.0, 0.0, 1.6541572706267333E9, 0.0, 2022-06-02 10:07:50.626
125.0, 20100.409698535168, 3956.0128994003417, -73129.56579083989, -55981.79918310633, -45778.36194972539, -47888.7019024732, -18733.75698730433, -50948.543959682465, 0.012, 0.784, 0.648, 192.0, 0.0, 0.0, 0.0, 0.0, 0.0, 0.0, 0.0, 0.0, 0.0, 1.6541572706267383E9, 0.0, 2022-06-02 10:07:50.626
126.0, 20097.97335838954, 3955.9905476558865, -73117.11586917829, -55977.41824119309, -45764.414461185275, -47879.47063201316, -18683.286748324248, -50920.09018899086, 0.012, 0.784, 0.648, 192.0, 0.0, 0.0, 0.0, 0.0, 0.0, 0.0, 0.0, 0.0, 0.0, 1.6541572706267438E9, 0.0, 2022-06-02 10:07:50.626
127.0, 20102.399003791692, 3965.4900390493917, -73108.8010202409, -55969.416316678085, -45745.84016154292, -47875.894352900315, -18655.3023642662, -50929.388514684266, 0.012, 0.778, 0.65, 192.0, 0.0, 96.0, 24.0, 80.0, 20.0, 80.0, 0.0, 0.0, 0.0, 1.6541572706267493E9, 0.0, 2022-06-02 10:07:50.626
128.0, 20103.11425961426, 3960.9526349249645, -73125.00603497101, -55976.74768885943, -45757.61953087086, -47881.03525412503, -18678.4587715219, -50948.20868351564, 0.012, 0.778, 0.65, 192.0, 0.0, 0.0, 0.0, 0.0, 0.0, 0.0, 0.0, 0.0, 0.0, 1.6541572706267593E9, 0.0, 2022-06-02 10:07:50.626
129.0, 20108.053995138886, 3961.489076791892, -73134.59493334233, -55984.68255814107, -45769.242437987625, -47884.74564370461, -18682.41503029049, -50935.73641010957, 0.012, 0.778, 0.65, 192.0, 0.0, 0.0, 0.0, 0.0, 0.0, 0.0, 0.0, 0.0, 0.0, 1.6541572706267645E9, 0.0, 2022-06-02 10:07:50.626
130.0, 20110.020948650952, 3965.8476669606766, -73127.37531988327, -55980.77100286139, -45768.191905998225, -47879.09065235742, -18681.967995401385, -50930.08141876238, 0.012, 0.778, 0.65, 192.0, 0.0, 0.0, 0.0, 0.0, 0.0, 0.0, 0.0, 0.0, 0.0, 1.6541572706267698E9, 0.0, 2022-06-02 10:07:50.626
131.0, 20105.01415789296, 3967.7028617504675, -73111.93026446465, -55967.806991077305, -45755.83139131444, -47862.66212018277, -18664.421876003966, -50912.78116855397, 0.012, 0.778, 0.65, 192.0, 0.0, 0.0, 0.0, 0.0, 0.0, 0.0, 0.0, 0.0, 0.0, 1.654157270626775E9, 0.0, 2022-06-02 10:07:50.626
132.0, 20107.606960249777, 3972.173210641529, -73103.59306378283, -55955.96056651599, -45751.49515289011, -47856.91772185775, -18672.021469118772, -50923.46530240361, 0.012, 0.778, 0.65, 192.0, 0.0, 0.0, 0.0, 0.0, 0.0, 0.0, 0.0, 0.0, 0.0, 1.6541572706267803E9, 0.0, 2022-06-02 10:07:50.626
133.0, 20101.75080320249, 3966.2052948719615, -73119.79807851292, -55967.62817712167, -45768.594237398414, -47865.83606789543, -18701.36930958859, -50942.397229957256, 0.012, 0.778, 0.65, 192.0, 0.0, 0.0, 0.0, 0.0, 0.0, 0.0, 0.0, 0.0, 0.0, 1.6541572706267855E9, 0.0, 2022-06-02 10:07:50.626
134.0, 20099.40387003468, 3963.768954726333, -73129.29756990643, -55974.33370045826, -45774.38333921234, -47878.129527345845, -18697.770678731285, -50940.58673865638, 0.012, 0.778, 0.65, 192.0, 0.0, 0.0, 0.0, 0.0, 0.0, 0.0, 0.0, 0.0, 0.0, 1.6541572706267905E9, 0.0, 2022-06-02 10:07:50.626
135.0, 20106.93640791612, 3970.876809463121, -73113.8078109989, -55956.65347059411, -45761.21816172817, -47858.795268392, -18679.73282095585, -50909.540165607956, 0.012, 0.778, 0.65, 192.0, 0.0, 0.0, 0.0, 0.0, 0.0, 0.0, 0.0, 0.0, 0.0, 1.6541572706267958E9, 0.0, 2022-06-02 10:07:50.626
136.0, 20098.040413622908, 3964.014823915342, -73104.24126437203, -55952.160769958595, -45754.04325175801, -47851.26273051056, -18656.285841022236, -50889.02126419798, 0.012, 0.778, 0.65, 192.0, 0.0, 0.0, 0.0, 0.0, 0.0, 0.0, 0.0, 0.0, 0.0, 1.654157270626801E9, 0.0, 2022-06-02 10:07:50.626
137.0, 20099.985015390517, 3966.741736738889, -73097.37927882424, -55945.723467555465, -45749.81877205596, -47858.75056490309, -18661.49379748032, -50924.22526171509, 0.012, 0.782, 0.646, 192.0, 0.0, 96.0, 24.0, 112.0, 20.0, 48.0, 0.0, 0.0, 0.0, 1.6541572706268063E9, 0.0, 2022-06-02 10:07:50.626
138.0, 20110.065652139863, 3972.575542041724, -73102.52018004897, -55938.21328141848, -45750.6010831119, -47858.817620136455, -18681.900940168016, -50951.56144518393, 0.012, 0.782, 0.646, 192.0, 0.0, 0.0, 0.0, 0.0, 0.0, 0.0, 0.0, 0.0, 0.0, 1.6541572706268117E9, 0.0, 2022-06-02 10:07:50.626
139.0, 20112.010253907472, 3968.999262928875, -73111.88556097574, -55944.78469428834, -45765.800269341504, -47855.48721021262, -18677.899977910518, -50911.618877842295, 0.012, 0.782, 0.646, 192.0, 0.0, 0.0, 0.0, 0.0, 0.0, 0.0, 0.0, 0.0, 0.0, 1.654157270626817E9, 0.0, 2022-06-02 10:07:50.626
140.0, 20114.69246324211, 3970.7203472519336, -73109.11394466329, -55947.28808966734, -45769.60006589891, -47856.8953701133, -18671.261509807293, -50903.46049111611, 0.012, 0.782, 0.646, 192.0, 0.0, 0.0, 0.0, 0.0, 0.0, 0.0, 0.0, 0.0, 0.0, 1.6541572706268227E9, 0.0, 2022-06-02 10:07:50.626
141.0, 20116.257085353984, 3974.475440320425, -73101.46964805957, -55945.567005344274, -45751.78572556803, -47849.742811887605, -18653.581279943144, -50898.52075559149, 0.012, 0.782, 0.646, 192.0, 0.0, 0.0, 0.0, 0.0, 0.0, 0.0, 0.0, 0.0, 0.0, 1.654157270626828E9, 0.0, 2022-06-02 10:07:50.626
142.0, 20118.8498877108, 3977.381167099615, -73094.40649681169, -55946.014040233385, -45742.44269638571, -47842.791419362, -18655.838806133128, -50896.9114299907, 0.012, 0.782, 0.646, 192.0, 0.0, 0.0, 0.0, 0.0, 0.0, 0.0, 0.0, 0.0, 0.0, 1.6541572706268332E9, 0.0, 2022-06-02 10:07:50.626
143.0, 20109.819782950854, 3965.1547628825624, -73118.27815988996, -55966.22001722098, -45753.10447849089, -47861.03044283753, -18692.674480995476, -50939.446799689154, 0.012, 0.782, 0.646, 192.0, 0.0, 0.0, 0.0, 0.0, 0.0, 0.0, 0.0, 0.0, 0.0, 1.6541572706268392E9, 0.0, 2022-06-02 10:07:50.626
144.0, 20098.040413622908, 3946.111076606641, -73145.54728812544, -55999.971151348494, -45772.528144422555, -47894.066321142476, -18709.55004805923, -50967.25236979155, 0.012, 0.782, 0.646, 192.0, 0.0, 0.0, 0.0, 0.0, 0.0, 0.0, 0.0, 0.0, 0.0, 1.6541572706268444E9, 0.0, 2022-06-02 10:07:50.626
145.0, 20092.854808909276, 3943.898253905565, -73133.23147693057, -55997.378348991675, -45764.66033037428, -47890.981780407645, -18673.809608675198, -50939.80442760044, 0.012, 0.782, 0.646, 192.0, 0.0, 0.0, 0.0, 0.0, 0.0, 0.0, 0.0, 0.0, 0.0, 1.6541572706268497E9, 0.0, 2022-06-02 10:07:50.626
146.0, 20085.92576812813, 3941.0148788708307, -73125.31895939338, -55992.215096022504, -45766.44846993071, -47881.124661102855, -18683.08558262415, -50922.951212281136, 0.012, 0.782, 0.646, 192.0, 0.0, 0.0, 0.0, 0.0, 0.0, 0.0, 0.0, 0.0, 0.0, 1.654157270626855E9, 0.0, 2022-06-02 10:07:50.626
147.0, 20087.244521050994, 3944.7029167059563, -73119.97689246856, -55986.44834595303, -45764.07918501845, -47878.30834130148, -18703.313911356203, -50936.18344499868, 0.012, 0.784, 0.648, 192.0, 0.0, 96.0, 24.0, 128.0, 20.0, 64.0, 0.0, 0.0, 0.0, 1.65415727062686E9, 0.0, 2022-06-02 10:07:50.626
148.0, 20086.909244884166, 3942.2442248158727, -73134.4608228756, -55988.19178202055, -45762.313397206475, -47886.28791407203, -18700.251722365825, -50949.54978818295, 0.012, 0.784, 0.648, 192.0, 0.0, 0.0, 0.0, 0.0, 0.0, 0.0, 0.0, 0.0, 0.0, 1.6541572706268651E9, 0.0, 2022-06-02 10:07:50.626
149.0, 20097.682785711622, 3947.675698718512, -73140.69695957864, -55989.08585179876, -45778.27254274757, -47900.0565886565, -18704.766774745796, -50967.85586689185, 0.012, 0.784, 0.648, 192.0, 0.0, 0.0, 0.0, 0.0, 0.0, 0.0, 0.0, 0.0, 0.0, 1.6541572706268709E9, 0.0, 2022-06-02 10:07:50.626
150.0, 20096.676957211133, 3953.4200970435263, -73130.48221236256, -55977.86527608219, -45769.84593508791, -47883.56100124848, -18672.98259413035, -50925.09697974884, 0.012, 0.784, 0.648, 192.0, 0.0, 0.0, 0.0, 0.0, 0.0, 0.0, 0.0, 0.0, 0.0, 1.654157270626878E9, 0.0, 2022-06-02 10:07:50.626
151.0, 20094.620596721245, 3959.075088390719, -73118.03229070095, -55964.096601497724, -45756.97133028166, -47862.70682367168, -18665.53946322673, -50900.35359863682, 0.012, 0.784, 0.648, 192.0, 0.0, 0.0, 0.0, 0.0, 0.0, 0.0, 0.0, 0.0, 0.0, 1.6541572706268833E9, 0.0, 2022-06-02 10:07:50.626
