%OpenBCI Raw EEG Data
%Number of channels = 8
%Sample Rate = 250 Hz
%Board = OpenBCI_GUI$BoardCytonSerial
Sample Index, EXG Channel 0, EXG Channel 1, EXG Channel 2, EXG Channel 3, EXG Channel 4, EXG Channel 5, EXG Channel 6, EXG Channel 7, Accel Channel 0, Accel Channel 1, Accel Channel 2, Other, Other, Other, Other, Other, Other, Other, Analog Channel 0, Analog Channel 1, Analog Channel 2, Timestamp, Other, Timestamp (Formatted)
166.0, 49055.395907806866, 20055.952078813563, 9048.969632264332, -7130.407646943051, 13309.636808590509, 13330.558041400676, 14291.325425067596, 1073.30841699939, 0.0, 0.0, 0.0, 192.0, 0.0, 0.0, 0.0, 0.0, 0.0, 0.0, 0.0, 0.0, 0.0, 1.6546745225918996E9, 0.0, 2022-06-08 09:48:42.591
167.0, 49031.43483775078, 20040.01528501693, 9000.242829351762, -7194.177173874042, 13253.891557918974, 13252.550453251655, 14206.925238004356, 977.4641367750331, 0.0, 0.0, 0.0, 192.0, 0.0, 0.0, 0.0, 0.0, 0.0, 0.0, 0.0, 0.0, 0.0, 1.654674522591905E9, 0.0, 2022-06-08 09:48:42.591
168.0, 48993.526279154576, 19974.05528712932, 8929.879537806457, -7271.044823055843, 13172.46415286829, 13181.337795417046, 14108.152879256355, 914.4769208999778, 0.0, 0.0, 0.0, 192.0, 0.0, 0.0, 0.0, 0.0, 0.0, 0.0, 0.0, 0.0, 0.0, 1.6546745225919096E9, 0.0, 2022-06-08 09:48:42.591
169.0, 48966.72653755266, 19951.971763607475, 8913.71922656527, -7272.944721334544, 13169.558426089101, 13193.117164744994, 14132.739798157192, 930.1454937631481, 0.0, 0.0, 0.0, 192.0, 0.0, 0.0, 0.0, 0.0, 0.0, 0.0, 0.0, 0.0, 0.0, 1.6546745225919137E9, 0.0, 2022-06-08 09:48:42.591
170.0, 49014.4698637092, 20007.426441601092, 8984.574256488593, -7188.18690636002, 13249.510616005733, 13269.738944737786, 14236.831872085557, 1023.2852129084126, 0.0, 0.0, 0.0, 192.0, 0.0, 0.0, 0.0, 0.0, 0.0, 0.0, 0.0, 0.0, 0.0, 1.654674522591918E9, 0.0, 2022-06-08 09:48:42.591
171.0, 49042.76717218962, 20066.25623300746, 9050.26603344274, -7135.570899912227, 13302.81952653164, 13316.297628438191, 14299.483811793783, 1079.0528153244038, 0.05, 0.794, 0.634, 192.0, 1.0, 144.0, 24.0, 208.0, 19.0, 208.0, 0.0, 0.0, 0.0, 1.6546745225919235E9, 0.0, 2022-06-08 09:48:42.591
172.0, 49029.98197436118, 20054.07453227932, 9014.21266963633, -7177.122792854642, 13252.259880573736, 13277.96438669734, 14245.303183234118, 1022.7711227859405, 0.05, 0.794, 0.634, 192.0, 0.0, 0.0, 0.0, 0.0, 0.0, 0.0, 0.0, 0.0, 0.0, 1.6546745225919275E9, 0.0, 2022-06-08 09:48:42.591
173.0, 48982.21629646019, 19986.728726235477, 8939.043753033133, -7257.097334515731, 13170.720716800775, 13195.285283957159, 14123.530879441605, 937.3651072222123, 0.05, 0.794, 0.634, 192.0, 0.0, 0.0, 0.0, 0.0, 0.0, 0.0, 0.0, 0.0, 0.0, 1.6546745225919316E9, 0.0, 2022-06-08 09:48:42.591
174.0, 48926.828673699936, 19926.04374003932, 8883.052633172589, -7303.58896298277, 13126.598373245999, 13149.352449101503, 14057.436771087263, 892.9521909895171, 0.05, 0.794, 0.634, 192.0, 0.0, 0.0, 0.0, 0.0, 0.0, 0.0, 0.0, 0.0, 0.0, 1.6546745225919359E9, 0.0, 2022-06-08 09:48:42.591
175.0, 48975.197848701224, 19986.05817390182, 8953.34886948453, -7210.270429881863, 13229.975191351796, 13246.38137178199, 14209.719206061269, 993.9150206941391, 0.05, 0.794, 0.634, 192.0, 0.0, 0.0, 0.0, 0.0, 0.0, 0.0, 0.0, 0.0, 0.0, 1.6546745225919397E9, 0.0, 2022-06-08 09:48:42.591
176.0, 49052.49018102768, 20064.378686473214, 9026.081445942098, -7141.024725559321, 13302.193677686892, 13318.465747650356, 14307.463384564327, 1076.3482542453116, 0.05, 0.794, 0.634, 192.0, 0.0, 0.0, 0.0, 0.0, 0.0, 0.0, 0.0, 0.0, 0.0, 1.654674522591944E9, 0.0, 2022-06-08 09:48:42.591
177.0, 49050.925558915806, 20057.471997436525, 9007.104814899541, -7177.502772510383, 13269.962462182339, 13279.305491364657, 14270.784171913168, 1034.3493264137896, 0.05, 0.794, 0.634, 192.0, 0.0, 0.0, 0.0, 0.0, 0.0, 0.0, 0.0, 0.0, 0.0, 1.654674522591948E9, 0.0, 2022-06-08 09:48:42.591
178.0, 48997.4154826898, 20002.777278754387, 8939.714305366791, -7243.283956442351, 13191.619597866487, 13207.891667829952, 14185.176990649343, 944.5623689368211, 0.05, 0.794, 0.634, 192.0, 0.0, 0.0, 0.0, 0.0, 0.0, 0.0, 0.0, 0.0, 0.0, 1.654674522591952E9, 0.0, 2022-06-08 09:48:42.591
179.0, 48967.84412477543, 19967.550929492823, 8904.219735171764, -7265.032203797366, 13160.75183877371, 13189.607940865511, 14144.31800178504, 920.8471680697404, 0.05, 0.794, 0.634, 192.0, 0.0, 0.0, 0.0, 0.0, 0.0, 0.0, 0.0, 0.0, 0.0, 1.654674522591956E9, 0.0, 2022-06-08 09:48:42.591
180.0, 49006.55734617202, 20002.553761309835, 8963.071878322588, -7198.513412298372, 13238.692371689365, 13253.377467796501, 14211.484993873239, 982.3144653218347, 0.05, 0.794, 0.634, 192.0, 0.0, 0.0, 0.0, 0.0, 0.0, 0.0, 0.0, 0.0, 0.0, 1.65467452259196E9, 0.0, 2022-06-08 09:48:42.591
181.0, 49053.89834092836, 20067.083247552306, 9029.59066982158, -7135.2579754898525, 13306.06052947766, 13302.171325942438, 14269.8677503905, 1033.276442679935, 0.058, 0.782, 0.63, 192.0, 1.0, 208.0, 24.0, 112.0, 19.0, 176.0, 0.0, 0.0, 0.0, 1.6546745225919642E9, 0.0, 2022-06-08 09:48:42.591
182.0, 49034.16175057433, 20052.21933748953, 8989.938675157866, -7182.8001359462905, 13244.90615664794, 13259.479494032801, 14211.484993873239, 1013.562204070354, 0.058, 0.782, 0.63, 192.0, 0.0, 0.0, 0.0, 0.0, 0.0, 0.0, 0.0, 0.0, 0.0, 1.6546745225919683E9, 0.0, 2022-06-08 09:48:42.591
183.0, 49010.42419796279, 20007.694662534555, 8920.603563857505, -7263.847561341234, 13165.423353364868, 13186.143420474938, 14140.22763254972, 937.9462525780502, 0.058, 0.782, 0.63, 192.0, 0.0, 0.0, 0.0, 0.0, 0.0, 0.0, 0.0, 0.0, 0.0, 1.6546745225919724E9, 0.0, 2022-06-08 09:48:42.591
184.0, 48966.92770325276, 19962.655897457113, 8895.56961006756, -7276.610407425214, 13148.547786301111, 13169.312556900091, 14119.194641017277, 917.2708889568912, 0.058, 0.782, 0.63, 192.0, 0.0, 0.0, 0.0, 0.0, 0.0, 0.0, 0.0, 0.0, 0.0, 1.6546745225919764E9, 0.0, 2022-06-08 09:48:42.591
185.0, 49011.40767471882, 20005.34772936675, 8965.8658463795, -7188.343368571207, 13235.71958967681, 13258.29485157667, 14201.471412357261, 1005.1802998996139, 0.058, 0.782, 0.63, 192.0, 0.0, 0.0, 0.0, 0.0, 0.0, 0.0, 0.0, 0.0, 0.0, 1.6546745225919805E9, 0.0, 2022-06-08 09:48:42.591
186.0, 49065.29773060056, 20067.01619231894, 9018.057169682643, -7142.142312782087, 13288.715575780341, 13303.087747465104, 14264.615090443504, 1033.2317391910242, 0.058, 0.782, 0.63, 192.0, 0.0, 0.0, 0.0, 0.0, 0.0, 0.0, 0.0, 0.0, 0.0, 1.6546745225919845E9, 0.0, 2022-06-08 09:48:42.591
187.0, 49035.681669197285, 20058.76839861493, 8994.990169404766, -7178.150973099587, 13252.036363129184, 13266.989680169783, 14243.157415766409, 1018.9713262285384, 0.058, 0.782, 0.63, 192.0, 0.0, 0.0, 0.0, 0.0, 0.0, 0.0, 0.0, 0.0, 0.0, 1.6546745225919886E9, 0.0, 2022-06-08 09:48:42.591
188.0, 48954.96951996917, 19989.925025692588, 8925.073912748565, -7253.00696528041, 13171.078344712061, 13194.927656045873, 14150.576490232526, 966.6235407142092, 0.058, 0.782, 0.63, 192.0, 0.0, 0.0, 0.0, 0.0, 0.0, 0.0, 0.0, 0.0, 0.0, 1.6546745225919952E9, 0.0, 2022-06-08 09:48:42.591
189.0, 48936.462275560174, 19954.117531075186, 8895.457851345283, -7277.817401625801, 13152.12406541396, 13180.019042494183, 14100.262713463631, 929.8102175963185, 0.058, 0.782, 0.63, 192.0, 0.0, 0.0, 0.0, 0.0, 0.0, 0.0, 0.0, 0.0, 0.0, 1.6546745225919993E9, 0.0, 2022-06-08 09:48:42.591
190.0, 48994.643866377344, 20002.06202293182, 8959.093267809543, -7189.706824982981, 13235.09374083206, 13258.80894169914, 14173.263510854664, 996.9772096845162, 0.058, 0.782, 0.63, 192.0, 0.0, 0.0, 0.0, 0.0, 0.0, 0.0, 0.0, 0.0, 0.0, 1.654674522592003E9, 0.0, 2022-06-08 09:48:42.592
191.0, 49039.14618958786, 20062.903471339163, 9025.522652330716, -7125.60202188516, 13290.637825803498, 13314.10715748157, 14253.506273449217, 1048.1850562316247, 0.058, 0.8, 0.634, 192.0, 1.0, 208.0, 25.0, 0.0, 19.0, 208.0, 0.0, 0.0, 0.0, 1.6546745225920072E9, 0.0, 2022-06-08 09:48:42.592
192.0, 49041.761343689126, 20050.185328744094, 8996.286570583174, -7175.84874342069, 13247.856586916041, 13270.364793582536, 14213.831927041047, 999.9052882081614, 0.058, 0.8, 0.634, 192.0, 0.0, 0.0, 0.0, 0.0, 0.0, 0.0, 0.0, 0.0, 0.0, 1.6546745225920112E9, 0.0, 2022-06-08 09:48:42.592
193.0, 49000.47767168018, 19991.37788908218, 8920.000066757211, -7261.098296773232, 13166.093905698528, 13191.396080421935, 14152.901071655879, 932.8053513533297, 0.058, 0.8, 0.634, 192.0, 0.0, 0.0, 0.0, 0.0, 0.0, 0.0, 0.0, 0.0, 0.0, 1.6546745225920155E9, 0.0, 2022-06-08 09:48:42.592
194.0, 48973.76733705609, 19965.561624236303, 8888.081775675033, -7279.8290586267785, 13150.22416713526, 13174.006423235705, 14166.736801473715, 931.0395635413604, 0.058, 0.8, 0.634, 192.0, 0.0, 0.0, 0.0, 0.0, 0.0, 0.0, 0.0, 0.0, 0.0, 1.6546745225920193E9, 0.0, 2022-06-08 09:48:42.592
195.0, 48984.67498835027, 19994.4177263281, 8950.599604916526, -7201.150918144098, 13231.159833807926, 13249.354153794546, 14241.123407020976, 1017.6972767945858, 0.058, 0.8, 0.634, 192.0, 0.0, 0.0, 0.0, 0.0, 0.0, 0.0, 0.0, 0.0, 0.0, 1.6546745225920236E9, 0.0, 2022-06-08 09:48:42.592
196.0, 49019.811930634016, 20049.49242466598, 9012.983323691287, -7145.092743050188, 13282.993529199783, 13301.210200930858, 14278.137895838965, 1060.4785156820435, 0.058, 0.8, 0.634, 192.0, 0.0, 0.0, 0.0, 0.0, 0.0, 0.0, 0.0, 0.0, 0.0, 1.6546745225920277E9, 0.0, 2022-06-08 09:48:42.592
197.0, 49021.2200905347, 20046.944325798075, 8988.955198401833, -7173.434755019517, 13242.849796158052, 13266.833217958596, 14222.839680056535, 1003.3251051098234, 0.058, 0.8, 0.634, 192.0, 0.0, 0.0, 0.0, 0.0, 0.0, 0.0, 0.0, 0.0, 0.0, 1.6546745225920317E9, 0.0, 2022-06-08 09:48:42.592
198.0, 48968.87230502037, 19980.514941276902, 8910.858203274991, -7254.862160070201, 13159.500141084212, 13188.825629809575, 14131.197527789776, 906.3185341737908, 0.058, 0.8, 0.634, 192.0, 0.0, 0.0, 0.0, 0.0, 0.0, 0.0, 0.0, 0.0, 0.0, 1.6546745225920355E9, 0.0, 2022-06-08 09:48:42.592
199.0, 48952.01908970107, 19938.426606467558, 8874.290749346108, -7282.555971450326, 13131.962791915274, 13162.070591696573, 14110.343350212974, 881.4186908505787, 0.058, 0.8, 0.634, 192.0, 0.0, 0.0, 0.0, 0.0, 0.0, 0.0, 0.0, 0.0, 0.0, 1.6546745225920398E9, 0.0, 2022-06-08 09:48:42.592
200.0, 48969.38639514284, 19983.085391889264, 8944.050543791122, -7201.754415244391, 13220.18512728037, 13244.928508392395, 14192.329548875041, 975.2736658184131, 0.058, 0.8, 0.634, 192.0, 0.0, 0.0, 0.0, 0.0, 0.0, 0.0, 0.0, 0.0, 0.0, 1.6546745225920444E9, 0.0, 2022-06-08 09:48:42.592
201.0, 49019.70017191174, 20045.223241475018, 9018.727722016301, -7134.855644089657, 13284.088764678094, 13311.961390013861, 14260.904700863923, 1045.078163752337, 0.054, 0.808, 0.632, 192.0, 1.0, 176.0, 25.0, 64.0, 19.0, 192.0, 0.0, 0.0, 0.0, 1.6546745225920484E9, 0.0, 2022-06-08 09:48:42.592
202.0, 49024.08111382498, 20050.855881077754, 8992.196201347853, -7175.357005042673, 13240.81578741262, 13262.116999878526, 14211.887325273434, 983.3649973112342, 0.054, 0.808, 0.632, 192.0, 0.0, 0.0, 0.0, 0.0, 0.0, 0.0, 0.0, 0.0, 0.0, 1.6546745225920527E9, 0.0, 2022-06-08 09:48:42.592
203.0, 48983.55740112751, 19981.990156410953, 8912.556935853594, -7261.210055495508, 13161.332984129547, 13180.935464016851, 14099.905085552346, 869.6169697781766, 0.054, 0.808, 0.632, 192.0, 0.0, 0.0, 0.0, 0.0, 0.0, 0.0, 0.0, 0.0, 0.0, 1.6546745225920568E9, 0.0, 2022-06-08 09:48:42.592
204.0, 48952.22025540117, 19952.57526070777, 8885.220752384754, -7273.369404479195, 13143.764512987676, 13170.385440633947, 14057.235605387164, 844.1359810991265, 0.054, 0.808, 0.632, 192.0, 0.0, 0.0, 0.0, 0.0, 0.0, 0.0, 0.0, 0.0, 0.0, 1.6546745225920608E9, 0.0, 2022-06-08 09:48:42.592
205.0, 48956.66825254777, 19980.514941276902, 8936.808578587601, -7210.985685704432, 13217.592324923555, 13235.786644910175, 14197.537505333126, 966.1541540806478, 0.054, 0.808, 0.632, 192.0, 0.0, 0.0, 0.0, 0.0, 0.0, 0.0, 0.0, 0.0, 0.0, 1.6546745225920649E9, 0.0, 2022-06-08 09:48:42.592
206.0, 49029.534939472076, 20045.558517641846, 9004.243791609262, -7158.101458323176, 13278.701994264364, 13291.308378137157, 14302.233076361785, 1052.8565708227839, 0.054, 0.808, 0.632, 192.0, 0.0, 0.0, 0.0, 0.0, 0.0, 0.0, 0.0, 0.0, 0.0, 1.654674522592069E9, 0.0, 2022-06-08 09:48:42.592
207.0, 48996.7672821006, 20008.298159634847, 8970.157381314919, -7202.782595489335, 13227.494147717256, 13246.76135143773, 14230.126348748965, 1011.6176023027424, 0.054, 0.808, 0.632, 192.0, 0.0, 0.0, 0.0, 0.0, 0.0, 0.0, 0.0, 0.0, 0.0, 1.6546745225920727E9, 0.0, 2022-06-08 09:48:42.592
208.0, 48930.96374642417, 19956.978554365465, 8901.291656648118, -7276.900980103133, 13157.779056761154, 13183.215341951292, 14157.438475780305, 961.3261772783014, 0.054, 0.808, 0.632, 192.0, 0.0, 0.0, 0.0, 0.0, 0.0, 0.0, 0.0, 0.0, 0.0, 1.6546745225920775E9, 0.0, 2022-06-08 09:48:42.592
209.0, 48897.41377799676, 19928.9047633296, 8860.075039872532, -7310.383893297183, 13126.173690101348, 13151.185292146838, 14135.869042380935, 921.2942029588465, 0.054, 0.808, 0.632, 192.0, 0.0, 0.0, 0.0, 0.0, 0.0, 0.0, 0.0, 0.0, 0.0, 1.6546745225920832E9, 0.0, 2022-06-08 09:48:42.592
210.0, 48950.63328154484, 19968.33324054876, 8921.140005724432, -7231.169310947575, 13201.297903215636, 13222.040322070161, 14223.174956223364, 1001.3134481088458, 0.054, 0.808, 0.632, 192.0, 0.0, 0.0, 0.0, 0.0, 0.0, 0.0, 0.0, 0.0, 0.0, 1.6546745225920873E9, 0.0, 2022-06-08 09:48:42.592
211.0, 49008.971334573194, 20026.53718311038, 8986.384747789472, -7169.366737528651, 13259.881825432996, 13283.82054374463, 14269.77834341268, 1057.7068993695855, 0.054, 0.778, 0.622, 192.0, 1.0, 176.0, 24.0, 80.0, 19.0, 112.0, 0.0, 0.0, 0.0, 1.654674522592091E9, 0.0, 2022-06-08 09:48:42.592
212.0, 49006.51264268311, 20017.372967883704, 8961.39549748844, -7211.812700249279, 13215.6700749004, 13240.927546134895, 14202.968979235768, 989.3999683141672, 0.054, 0.778, 0.622, 192.0, 0.0, 0.0, 0.0, 0.0, 0.0, 0.0, 0.0, 0.0, 0.0, 1.6546745225920951E9, 0.0, 2022-06-08 09:48:42.592
213.0, 48951.75086876761, 19965.315755047293, 8890.0487291871, -7289.596770953748, 13135.740236728221, 13157.443780594323, 14110.633922890893, 900.6858945710534, 0.054, 0.778, 0.622, 192.0, 0.0, 0.0, 0.0, 0.0, 0.0, 0.0, 0.0, 0.0, 0.0, 1.6546745225920992E9, 0.0, 2022-06-08 09:48:42.592
214.0, 48943.480723319146, 19938.27014425637, 8856.096429359488, -7312.3508468092505, 13114.394320773403, 13130.018190147663, 14094.920646538812, 869.4158040780788, 0.054, 0.778, 0.622, 192.0, 0.0, 0.0, 0.0, 0.0, 0.0, 0.0, 0.0, 0.0, 0.0, 1.6546745225921035E9, 0.0, 2022-06-08 09:48:42.592
215.0, 48968.11234570889, 19968.847330671233, 8904.33149389404, -7243.015735508888, 13177.895626770929, 13209.970380064295, 14169.351955574984, 965.1259738357037, 0.054, 0.778, 0.622, 192.0, 0.0, 0.0, 0.0, 0.0, 0.0, 0.0, 0.0, 0.0, 0.0, 1.6546745225921073E9, 0.0, 2022-06-08 09:48:42.592
216.0, 49021.756532401625, 20031.700436079554, 8985.088346611064, -7165.455182248972, 13248.974174138806, 13291.442488603889, 14267.364355011507, 1053.7059371120856, 0.054, 0.778, 0.622, 192.0, 0.0, 0.0, 0.0, 0.0, 0.0, 0.0, 0.0, 0.0, 0.0, 1.6546745225921113E9, 0.0, 2022-06-08 09:48:42.592
217.0, 49029.244366794155, 20051.369971200227, 8987.189410589865, -7182.263694079363, 13243.09566534706, 13270.34244183808, 14246.085494290053, 1023.0616954638596, 0.054, 0.778, 0.622, 192.0, 0.0, 0.0, 0.0, 0.0, 0.0, 0.0, 0.0, 0.0, 0.0, 1.6546745225921154E9, 0.0, 2022-06-08 09:48:42.592
218.0, 48981.501040637624, 19996.96582519601, 8917.206098700297, -7258.080811271765, 13174.65462382491, 13190.926693788373, 14161.126513615432, 944.8305898702848, 0.054, 0.778, 0.622, 192.0, 0.0, 0.0, 0.0, 0.0, 0.0, 0.0, 0.0, 0.0, 0.0, 1.6546745225921195E9, 0.0, 2022-06-08 09:48:42.592
219.0, 48917.84327242891, 19958.05143809932, 8871.876760944935, -7291.228448298985, 13133.50506228269, 13154.716867770776, 14143.245118051187, 898.9648102479947, 0.054, 0.778, 0.622, 192.0, 0.0, 0.0, 0.0, 0.0, 0.0, 0.0, 0.0, 0.0, 0.0, 1.6546745225921235E9, 0.0, 2022-06-08 09:48:42.592
220.0, 48957.78583977054, 19993.657767016623, 8939.24491873323, -7207.923496714056, 13214.865412100007, 13236.703066432843, 14229.09816850402, 980.0792908763041, 0.054, 0.778, 0.622, 192.0, 0.0, 0.0, 0.0, 0.0, 0.0, 0.0, 0.0, 0.0, 0.0, 1.6546745225921276E9, 0.0, 2022-06-08 09:48:42.592
221.0, 49014.291049753556, 20049.827700832808, 9011.865736468522, -7140.041248803288, 13278.523180308723, 13309.100366723582, 14269.77834341268, 1062.266655238468, 0.05, 0.79, 0.618, 192.0, 1.0, 144.0, 24.0, 176.0, 19.0, 80.0, 0.0, 0.0, 0.0, 1.6546745225921316E9, 0.0, 2022-06-08 09:48:42.592
222.0, 49005.37270371589, 20048.128968254205, 8974.493619739249, -7184.141240613609, 13225.102511060539, 13261.938185922883, 14186.42868833884, 1009.6059453017647, 0.05, 0.79, 0.618, 192.0, 0.0, 0.0, 0.0, 0.0, 0.0, 0.0, 0.0, 0.0, 0.0, 1.6546745225921357E9, 0.0, 2022-06-08 09:48:42.592
223.0, 48968.40291838681, 20008.85695324623, 8894.183801911331, -7267.848523598734, 13146.312611855581, 13172.41944937938, 14108.599914145461, 899.1436242036372, 0.05, 0.79, 0.618, 192.0, 0.0, 0.0, 0.0, 0.0, 0.0, 0.0, 0.0, 0.0, 0.0, 1.6546745225921395E9, 0.0, 2022-06-08 09:48:42.592
224.0, 48936.328165093444, 19960.95716487851, 8860.969109650745, -7291.384910510173, 13133.03567564913, 13148.503082812202, 14129.454091722262, 871.7403855014308, 0.05, 0.79, 0.618, 192.0, 0.0, 0.0, 0.0, 0.0, 0.0, 0.0, 0.0, 0.0, 0.0, 1.6546745225921435E9, 0.0, 2022-06-08 09:48:42.592
225.0, 48978.32709292497, 19986.90754019112, 8924.895098792924, -7212.460900838483, 13210.037435297661, 13233.842043142564, 14230.774549338168, 975.5195350074215, 0.05, 0.79, 0.618, 192.0, 0.0, 0.0, 0.0, 0.0, 0.0, 0.0, 0.0, 0.0, 0.0, 1.6546745225921478E9, 0.0, 2022-06-08 09:48:42.592
226.0, 49039.99555587716, 20053.046352034373, 8997.001826405743, -7140.287117992297, 13273.471686061823, 13309.323884168136, 14280.59658772905, 1054.1306202567364, 0.05, 0.79, 0.618, 192.0, 0.0, 0.0, 0.0, 0.0, 0.0, 0.0, 0.0, 0.0, 0.0, 1.6546745225921519E9, 0.0, 2022-06-08 09:48:42.592
227.0, 49020.013096334114, 20045.24559321947, 8975.208875561819, -7173.390051530606, 13240.10053159005, 13272.421154072423, 14230.081645260054, 1015.1044744377703, 0.05, 0.79, 0.618, 192.0, 0.0, 0.0, 0.0, 0.0, 0.0, 0.0, 0.0, 0.0, 0.0, 1.6546745225921557E9, 0.0, 2022-06-08 09:48:42.592
228.0, 48952.86845599037, 19973.988231895954, 8885.958359951777, -7262.417049696094, 13144.74798974371, 13179.393193649435, 14130.526975456116, 916.9132610456063, 0.05, 0.79, 0.618, 192.0, 0.0, 0.0, 0.0, 0.0, 0.0, 0.0, 0.0, 0.0, 0.0, 1.65467452259216E9, 0.0, 2022-06-08 09:48:42.592
229.0, 48912.076522359435, 19928.86005984069, 8832.090655814489, -7303.343093793762, 13095.864724619953, 13131.60516400399, 14075.586387584972, 864.2301993644476, 0.05, 0.79, 0.618, 192.0, 0.0, 0.0, 0.0, 0.0, 0.0, 0.0, 0.0, 0.0, 0.0, 1.654674522592164E9, 0.0, 2022-06-08 09:48:42.592
230.0, 48957.98700547064, 19974.47997027397, 8897.38010136844, -7217.780616018846, 13186.27753094167, 13215.535964433666, 14164.881606683924, 954.374784752701, 0.054, 0.804, 0.626, 192.0, 1.0, 176.0, 25.0, 32.0, 19.0, 144.0, 0.0, 0.0, 0.0, 1.6546745225921695E9, 0.0, 2022-06-08 09:48:42.592
231.0, 48999.13656701286, 20021.95507549704, 8965.932901612867, -7159.151990312575, 13253.62333698551, 13285.161648411948, 14220.29158118863, 990.115224136737, 0.054, 0.804, 0.626, 192.0, 0.0, 0.0, 0.0, 0.0, 0.0, 0.0, 0.0, 0.0, 0.0, 1.6546745225921736E9, 0.0, 2022-06-08 09:48:42.592
232.0, 48975.53312486805, 20002.553761309835, 8938.730828610758, -7208.23642113643, 13198.727452603276, 13243.4756450028, 14173.956414932778, 928.7373338624637, 0.054, 0.804, 0.626, 192.0, 0.0, 0.0, 0.0, 0.0, 0.0, 0.0, 0.0, 0.0, 0.0, 1.6546745225921776E9, 0.0, 2022-06-08 09:48:42.592
233.0, 48919.65376372979, 19935.43147271055, 8871.742650478203, -7278.957340593021, 13126.240745334715, 13169.670184811377, 14086.985777257178, 864.9454551870174, 0.054, 0.804, 0.626, 192.0, 0.0, 0.0, 0.0, 0.0, 0.0, 0.0, 0.0, 0.0, 0.0, 1.6546745225921817E9, 0.0, 2022-06-08 09:48:42.592
234.0, 48884.58387667941, 19895.108925713175, 8845.211129809753, -7292.524849477393, 13114.014341117661, 13158.762533517187, 14071.898349749847, 873.1261936576598, 0.054, 0.804, 0.626, 192.0, 0.0, 0.0, 0.0, 0.0, 0.0, 0.0, 0.0, 0.0, 0.0, 1.6546745225921855E9, 0.0, 2022-06-08 09:48:42.592
235.0, 48929.66734524576, 19934.22447850996, 8903.817403771569, -7207.85644148069, 13195.151173490427, 13245.777874681697, 14185.020528438155, 993.4903375494883, 0.054, 0.804, 0.626, 192.0, 0.0, 0.0, 0.0, 0.0, 0.0, 0.0, 0.0, 0.0, 0.0, 1.6546745225921896E9, 0.0, 2022-06-08 09:48:42.592
236.0, 48962.56911308398, 19976.29046157485, 8964.97177660129, -7141.896443593078, 13254.33859280808, 13300.271427663736, 14246.174901267876, 1020.8265210183289, 0.054, 0.804, 0.626, 192.0, 0.0, 0.0, 0.0, 0.0, 0.0, 0.0, 0.0, 0.0, 0.0, 1.6546745225921936E9, 0.0, 2022-06-08 09:48:42.592
237.0, 48922.11245561987, 19948.060208327795, 8928.583136628049, -7194.467746551961, 13208.226943996782, 13248.214214827325, 14200.152659434398, 958.1298778211925, 0.054, 0.804, 0.626, 192.0, 0.0, 0.0, 0.0, 0.0, 0.0, 0.0, 0.0, 0.0, 0.0, 1.654674522592198E9, 0.0, 2022-06-08 09:48:42.592
238.0, 48884.40506272377, 19897.20998969197, 8872.390851067406, -7255.577415892771, 13144.882100210441, 13194.480621156767, 14149.905937898868, 952.6089969407317, 0.054, 0.804, 0.626, 192.0, 0.0, 0.0, 0.0, 0.0, 0.0, 0.0, 0.0, 0.0, 0.0, 1.654674522592202E9, 0.0, 2022-06-08 09:48:42.592
239.0, 48841.35560290285, 19838.715474452434, 8824.669876655325, -7292.994236110954, 13105.721843924743, 13156.259138138192, 14096.865248306423, 928.245595484447, 0.054, 0.804, 0.626, 192.0, 0.0, 0.0, 0.0, 0.0, 0.0, 0.0, 0.0, 0.0, 0.0, 1.654674522592206E9, 0.0, 2022-06-08 09:48:42.592
240.0, 48883.01925456754, 19879.775629016833, 8880.884513960424, -7210.672761282059, 13178.409716893402, 13233.52911872019, 14161.66295548236, 979.4087385426449, 0.062, 0.806, 0.636, 192.0, 1.0, 240.0, 25.0, 48.0, 19.0, 224.0, 0.0, 0.0, 0.0, 1.65467452259221E9, 0.0, 2022-06-08 09:48:42.592
241.0, 48952.53317982354, 19948.79781589482, 8957.618052675492, -7132.598117899671, 13254.629165485998, 13315.247096448791, 14238.195328497332, 1083.0314258374485, 0.062, 0.806, 0.636, 192.0, 0.0, 0.0, 0.0, 0.0, 0.0, 0.0, 0.0, 0.0, 0.0, 1.654674522592214E9, 0.0, 2022-06-08 09:48:42.592
242.0, 48933.623604014356, 19934.64916165461, 8938.417904188384, -7168.047984605788, 13221.727397647786, 13276.355061096558, 14208.467508371772, 1041.3230706838453, 0.062, 0.806, 0.636, 192.0, 0.0, 0.0, 0.0, 0.0, 0.0, 0.0, 0.0, 0.0, 0.0, 1.6546745225922184E9, 0.0, 2022-06-08 09:48:42.592
243.0, 48856.57714087691, 19858.07208515073, 8856.252891570675, -7254.638642625648, 13130.64403899241, 13190.390251921446, 14130.437568478295, 952.988976596472, 0.062, 0.806, 0.636, 192.0, 0.0, 0.0, 0.0, 0.0, 0.0, 0.0, 0.0, 0.0, 0.0, 1.6546745225922225E9, 0.0, 2022-06-08 09:48:42.592
244.0, 48807.917393197706, 19791.35212795164, 8806.855536324447, -7294.402396011638, 13099.820983388541, 13154.068667181573, 14094.250094205154, 902.8540137832182, 0.062, 0.806, 0.636, 192.0, 0.0, 0.0, 0.0, 0.0, 0.0, 0.0, 0.0, 0.0, 0.0, 1.6546745225922265E9, 0.0, 2022-06-08 09:48:42.592
245.0, 48845.021288993514, 19833.775738927812, 8867.473467287238, -7218.272354396863, 13187.08219374206, 13231.964496608318, 14166.043897395599, 968.9928256264718, 0.062, 0.806, 0.636, 192.0, 0.0, 0.0, 0.0, 0.0, 0.0, 0.0, 0.0, 0.0, 0.0, 1.6546745225922303E9, 0.0, 2022-06-08 09:48:42.592
246.0, 48906.86856590135, 19905.45778339598, 8950.398439216428, -7136.263803990341, 13269.046040659672, 13316.901125538485, 14246.286659990152, 1069.9556553310938, 0.062, 0.806, 0.636, 192.0, 0.0, 0.0, 0.0, 0.0, 0.0, 0.0, 0.0, 0.0, 0.0, 1.6546745225922344E9, 0.0, 2022-06-08 09:48:42.592
247.0, 48904.029894355524, 19902.75322231689, 8930.013648273189, -7171.579560229727, 13232.299772775146, 13286.502753079267, 14215.843584042024, 1042.2841956954237, 0.062, 0.806, 0.636, 192.0, 0.0, 0.0, 0.0, 0.0, 0.0, 0.0, 0.0, 0.0, 0.0, 1.6546745225922387E9, 0.0, 2022-06-08 09:48:42.592
248.0, 48856.353623432355, 19860.307259596262, 8865.908845175367, -7243.507473886904, 13155.70034452681, 13209.389234708457, 14125.251963764664, 957.4146219986227, 0.062, 0.806, 0.636, 192.0, 0.0, 0.0, 0.0, 0.0, 0.0, 0.0, 0.0, 0.0, 0.0, 1.6546745225922427E9, 0.0, 2022-06-08 09:48:42.592
249.0, 48804.22935536258, 19791.665052374014, 8809.224821236709, -7295.922314634599, 13113.187326572815, 13156.572062560566, 14085.085878978478, 870.0193011783721, 0.062, 0.806, 0.636, 192.0, 0.0, 0.0, 0.0, 0.0, 0.0, 0.0, 0.0, 0.0, 0.0, 1.6546745225922465E9, 0.0, 2022-06-08 09:48:42.592
250.0, 48837.131123200794, 19820.834078888187, 8857.28107181562, -7224.7096567999915, 13188.08802224255, 13231.852737886042, 14173.419973065851, 950.5079329619329, 0.066, 0.784, 0.628, 192.0, 2.0, 16.0, 24.0, 128.0, 19.0, 160.0, 0.0, 0.0, 0.0, 1.6546745225922508E9, 0.0, 2022-06-08 09:48:42.592
251.0, 48890.32827500442, 19885.587082575214, 8927.420845916373, -7156.089801322199, 13255.657345730942, 13295.622264817031, 14265.464456732805, 1042.3288991843342, 0.066, 0.784, 0.628, 192.0, 0.0, 0.0, 0.0, 0.0, 0.0, 0.0, 0.0, 0.0, 0.0, 1.6546745225922549E9, 0.0, 2022-06-08 09:48:42.592
252.0, 48901.928830376724, 19886.36939363115, 8915.57442135506, -7181.66019697907, 13231.025723341194, 13264.061601646139, 14270.605357957525, 1071.654387909697, 0.066, 0.784, 0.628, 192.0, 0.0, 0.0, 0.0, 0.0, 0.0, 0.0, 0.0, 0.0, 0.0, 1.6546745225922601E9, 0.0, 2022-06-08 09:48:42.592
253.0, 48860.66751011223, 19845.175128600018, 8848.742705433691, -7249.318927445284, 13157.935518972341, 13193.385385678457, 14177.242121367708, 1013.5175005814434, 0.066, 0.784, 0.628, 192.0, 0.0, 0.0, 0.0, 0.0, 0.0, 0.0, 0.0, 0.0, 0.0, 1.6546745225922642E9, 0.0, 2022-06-08 09:48:42.592
254.0, 48819.65205903674, 19805.813706614223, 8799.635922865382, -7284.142945306653, 13123.4467772778, 13171.190103434337, 14137.791292404092, 965.3271395358014, 0.066, 0.784, 0.628, 192.0, 0.0, 0.0, 0.0, 0.0, 0.0, 0.0, 0.0, 0.0, 0.0, 1.6546745225922682E9, 0.0, 2022-06-08 09:48:42.592
255.0, 48857.42650716621, 19831.87584064911, 8847.13337983291, -7220.820453264768, 13188.378594920468, 13237.61948795551, 14199.57151407856, 1024.91689025365, 0.066, 0.784, 0.628, 192.0, 0.0, 0.0, 0.0, 0.0, 0.0, 0.0, 0.0, 0.0, 0.0, 1.6546745225922723E9, 0.0, 2022-06-08 09:48:42.592
0.0, 48918.40206604029, 19909.838725309222, 8924.38100867045, -7152.379411742618, 13263.301642334658, 13299.4891166078, 14266.023250344188, 1070.4250419646553, 0.066, 0.784, 0.628, 192.0, 0.0, 0.0, 0.0, 0.0, 0.0, 0.0, 0.0, 0.0, 0.0, 1.6546745225922763E9, 0.0, 2022-06-08 09:48:42.592
1.0, 48929.980269668136, 19912.342120688216, 8907.639552073426, -7187.337540070718, 13235.876051887995, 13264.396877812967, 14243.760912866703, 1035.042230491904, 0.066, 0.784, 0.628, 192.0, 0.0, 0.0, 0.0, 0.0, 0.0, 0.0, 0.0, 0.0, 0.0, 1.6546745225922804E9, 0.0, 2022-06-08 09:48:42.592
2.0, 48899.87246988684, 19855.993372916386, 8838.058571584055, -7257.633776382659, 13156.437952093835, 13189.518533887689, 14151.090580355, 961.9296743785948, 0.066, 0.784, 0.628, 192.0, 0.0, 0.0, 0.0, 0.0, 0.0, 0.0, 0.0, 0.0, 0.0, 1.6546745225922844E9, 0.0, 2022-06-08 09:48:42.592
3.0, 48850.966853018625, 19830.73590168189, 8794.517373385117, -7289.037977342365, 13116.87536440794, 13151.162940402382, 14086.40463190134, 894.6062200792098, 0.066, 0.784, 0.628, 192.0, 0.0, 0.0, 0.0, 0.0, 0.0, 0.0, 0.0, 0.0, 0.0, 1.6546745225922885E9, 0.0, 2022-06-08 09:48:42.592
4.0, 48870.47992592811, 19856.015724660843, 8842.41716175284, -7233.046857481821, 13186.143420474938, 13215.692426644853, 14171.318909087053, 953.8383428857736, 0.052000000000000005, 0.804, 0.63, 192.0, 1.0, 160.0, 25.0, 32.0, 19.0, 176.0, 0.0, 0.0, 0.0, 1.6546745225922928E9, 0.0, 2022-06-08 09:48:42.592
5.0, 48942.78781924103, 19926.736644117434, 8920.402398157406, -7168.696185194992, 13260.462970788834, 13292.358910126557, 14272.326442280584, 1071.4085187206888, 0.052000000000000005, 0.804, 0.63, 192.0, 0.0, 0.0, 0.0, 0.0, 0.0, 0.0, 0.0, 0.0, 0.0, 1.6546745225922985E9, 0.0, 2022-06-08 09:48:42.592
6.0, 48988.85476456342, 19959.638411955646, 8911.014665486176, -7193.394862818106, 13226.555374450134, 13265.246244102269, 14242.509215177204, 1036.4280386481332, 0.052000000000000005, 0.804, 0.63, 192.0, 0.0, 0.0, 0.0, 0.0, 0.0, 0.0, 0.0, 0.0, 0.0, 1.6546745225923023E9, 0.0, 2022-06-08 09:48:42.592
7.0, 48961.33976713893, 19925.99903655041, 8844.786446665103, -7260.047764783832, 13144.12214089896, 13191.574894377578, 14152.677554211326, 956.9675871095166, 0.052000000000000005, 0.804, 0.63, 192.0, 0.0, 0.0, 0.0, 0.0, 0.0, 0.0, 0.0, 0.0, 0.0, 1.6546745225923064E9, 0.0, 2022-06-08 09:48:42.592
8.0, 48887.24373426959, 19874.344155114195, 8798.540687387072, -7309.378064796694, 13104.917181124352, 13138.55655652959, 14103.79428908757, 916.5556331343214, 0.052000000000000005, 0.804, 0.63, 192.0, 0.0, 0.0, 0.0, 0.0, 0.0, 0.0, 0.0, 0.0, 0.0, 1.6546745225923107E9, 0.0, 2022-06-08 09:48:42.592
9.0, 48922.62654574234, 19900.406289149083, 8842.819493153036, -7262.886436329656, 13159.455437595301, 13186.03166175266, 14151.984650133212, 965.8412296582735, 0.052000000000000005, 0.804, 0.63, 192.0, 0.0, 0.0, 0.0, 0.0, 0.0, 0.0, 0.0, 0.0, 0.0, 1.6546745225923145E9, 0.0, 2022-06-08 09:48:42.592
10.0, 48981.009302259605, 19976.692792975045, 8915.797938799613, -7191.427909306039, 13219.089891802061, 13261.222930100314, 14218.749310821213, 1021.1170936962478, 0.052000000000000005, 0.804, 0.63, 192.0, 0.0, 0.0, 0.0, 0.0, 0.0, 0.0, 0.0, 0.0, 0.0, 1.6546745225923188E9, 0.0, 2022-06-08 09:48:42.592
11.0, 48991.02288377558, 19990.439115815057, 8908.399511384907, -7213.600839805704, 13201.521420660189, 13241.307525790637, 14202.119612946464, 995.3231805948235, 0.052000000000000005, 0.804, 0.63, 192.0, 0.0, 0.0, 0.0, 0.0, 0.0, 0.0, 0.0, 0.0, 0.0, 1.6546745225923228E9, 0.0, 2022-06-08 09:48:42.592
12.0, 48948.37575535486, 19938.448958212015, 8825.943926089278, -7311.747349708957, 13117.367102785958, 13148.167806645371, 14111.46093743574, 880.7928420058302, 0.052000000000000005, 0.804, 0.63, 192.0, 0.0, 0.0, 0.0, 0.0, 0.0, 0.0, 0.0, 0.0, 0.0, 1.6546745225923269E9, 0.0, 2022-06-08 09:48:42.592
13.0, 48942.60900528538, 19906.105983985184, 8772.120925440899, -7331.998030185465, 13085.87349484843, 13113.79082367311, 14069.104381692932, 820.7113529099647, 0.052000000000000005, 0.804, 0.63, 192.0, 0.0, 0.0, 0.0, 0.0, 0.0, 0.0, 0.0, 0.0, 0.0, 1.654674522592331E9, 0.0, 2022-06-08 09:48:42.592
14.0, 48999.65065713533, 19952.262336285396, 8832.336525003497, -7246.480255899461, 13160.394210862425, 13192.983054278262, 14137.098388325978, 901.6470195826316, 0.062, 0.798, 0.638, 192.0, 1.0, 240.0, 24.0, 240.0, 19.0, 240.0, 0.0, 0.0, 0.0, 1.654674522592335E9, 0.0, 2022-06-08 09:48:42.592
15.0, 49044.75647744614, 20036.81898555982, 8928.203156972308, -7162.79532465879, 13230.24341228526, 13285.854552490062, 14224.001970768211, 1020.5806518293205, 0.062, 0.798, 0.638, 192.0, 0.0, 0.0, 0.0, 0.0, 0.0, 0.0, 0.0, 0.0, 0.0, 1.654674522592339E9, 0.0, 2022-06-08 09:48:42.592
16.0, 49036.41927676431, 20038.07068324932, 8904.443252616316, -7224.173214933064, 13196.157001990916, 13257.646650987464, 14206.992293237721, 1033.790532802407, 0.062, 0.798, 0.638, 192.0, 0.0, 0.0, 0.0, 0.0, 0.0, 0.0, 0.0, 0.0, 0.0, 1.654674522592343E9, 0.0, 2022-06-08 09:48:42.592
17.0, 48989.681779108265, 19986.57226402429, 8814.991571306178, -7350.281757149906, 13120.518698754157, 13160.88594924044, 14113.65140839236, 910.5206621313885, 0.062, 0.798, 0.638, 192.0, 0.0, 0.0, 0.0, 0.0, 0.0, 0.0, 0.0, 0.0, 0.0, 1.6546745225923488E9, 0.0, 2022-06-08 09:48:42.592
18.0, 48961.51858109458, 19958.94550787753, 8778.222951677199, -7310.562707252826, 13083.794782614086, 13124.005570889185, 14081.64371033236, 839.1068385966825, 0.062, 0.798, 0.638, 192.0, 0.0, 0.0, 0.0, 0.0, 0.0, 0.0, 0.0, 0.0, 0.0, 1.6546745225923533E9, 0.0, 2022-06-08 09:48:42.592
19.0, 49009.105445039924, 20001.413822342616, 8870.200380110786, -7193.350159329196, 13165.043373709128, 13189.965568776795, 14156.678516468826, 932.8277030977849, 0.062, 0.798, 0.638, 192.0, 0.0, 0.0, 0.0, 0.0, 0.0, 0.0, 0.0, 0.0, 0.0, 1.6546745225923574E9, 0.0, 2022-06-08 09:48:42.592
20.0, 49075.22190513872, 20070.21249177605, 8947.336250226052, -7142.097609293176, 13243.833272914086, 13278.4337733309, 14231.534508649649, 1045.145218985703, 0.062, 0.798, 0.638, 192.0, 0.0, 0.0, 0.0, 0.0, 0.0, 0.0, 0.0, 0.0, 0.0, 1.6546745225923615E9, 0.0, 2022-06-08 09:48:42.592
21.0, 49079.89341972988, 20075.84513137879, 8922.212889458286, -7186.354063314684, 13210.149194019938, 13247.074275860105, 14196.799897766103, 992.4398055600889, 0.062, 0.798, 0.638, 192.0, 0.0, 0.0, 0.0, 0.0, 0.0, 0.0, 0.0, 0.0, 0.0, 1.6546745225923655E9, 0.0, 2022-06-08 09:48:42.592
22.0, 49033.75941917413, 20013.550819581847, 8838.572661706527, -7277.593884181248, 13124.363198800469, 13161.51179808519, 14114.07609153701, 923.0376390263605, 0.062, 0.798, 0.638, 192.0, 0.0, 0.0, 0.0, 0.0, 0.0, 0.0, 0.0, 0.0, 0.0, 1.6546745225923696E9, 0.0, 2022-06-08 09:48:42.592
23.0, 48984.33971218344, 19971.015449883398, 8791.857515794934, -7321.135082380186, 13083.906541336364, 13122.105672610483, 14074.40174512884, 890.9852374774501, 0.062, 0.798, 0.638, 192.0, 0.0, 0.0, 0.0, 0.0, 0.0, 0.0, 0.0, 0.0, 0.0, 1.6546745225923736E9, 0.0, 2022-06-08 09:48:42.592
24.0, 49018.403770733334, 20021.15041269665, 8854.107124102966, -7242.233424452952, 13166.496237098723, 13199.912095059408, 14168.65905149687, 951.9384446070725, 0.058, 0.798, 0.632, 192.0, 1.0, 208.0, 24.0, 240.0, 19.0, 192.0, 0.0, 0.0, 0.0, 1.6546745225923777E9, 0.0, 2022-06-08 09:48:42.592
25.0, 49112.214042212254, 20102.6448729807, 8937.926165810368, -7166.729231682924, 13250.807017184141, 13277.070316919127, 14250.108808292009, 1042.3959544177, 0.058, 0.798, 0.632, 192.0, 0.0, 0.0, 0.0, 0.0, 0.0, 0.0, 0.0, 0.0, 0.0, 1.6546745225923817E9, 0.0, 2022-06-08 09:48:42.592
26.0, 49111.43173115632, 20114.915980686663, 8924.917450537378, -7195.160650630075, 13230.556336707634, 13254.785627697185, 14219.375159665962, 1043.3123759403677, 0.058, 0.798, 0.632, 192.0, 0.0, 0.0, 0.0, 0.0, 0.0, 0.0, 0.0, 0.0, 0.0, 1.6546745225923858E9, 0.0, 2022-06-08 09:48:42.592
27.0, 49072.71850975973, 20077.409753490658, 8867.920502176345, -7256.538540904348, 13168.932577244352, 13190.65847285491, 14149.66006870986, 959.4262789996004, 0.058, 0.798, 0.632, 192.0, 0.0, 0.0, 0.0, 0.0, 0.0, 0.0, 0.0, 0.0, 0.0, 1.65467452259239E9, 0.0, 2022-06-08 09:48:42.592
28.0, 49039.07913435449, 20042.384569929192, 8821.853556853957, -7297.598695468748, 13134.063855894072, 13141.752855986699, 14097.446393662261, 882.9162577290842, 0.058, 0.798, 0.632, 192.0, 0.0, 0.0, 0.0, 0.0, 0.0, 0.0, 0.0, 0.0, 0.0, 1.654674522592394E9, 0.0, 2022-06-08 09:48:42.592
29.0, 49055.93234967379, 20076.24746277898, 8857.124609604432, -7242.725162830969, 13187.283359442159, 13200.873220070986, 14147.0896180975, 939.309708989824, 0.058, 0.798, 0.632, 192.0, 0.0, 0.0, 0.0, 0.0, 0.0, 0.0, 0.0, 0.0, 0.0, 1.6546745225923982E9, 0.0, 2022-06-08 09:48:42.592
30.0, 49122.67465861734, 20151.08110321535, 8938.0602762771, -7159.911949624056, 13267.347308081069, 13280.087802420594, 14225.611296368992, 1041.4795328950327, 0.058, 0.798, 0.632, 192.0, 0.0, 0.0, 0.0, 0.0, 0.0, 0.0, 0.0, 0.0, 0.0, 1.6546745225924025E9, 0.0, 2022-06-08 09:48:42.592
31.0, 49117.57846088153, 20144.420283367668, 8915.552069610605, -7197.127604142142, 13223.649647670944, 13231.718627419308, 14189.08854592902, 1014.1209976817368, 0.058, 0.798, 0.632, 192.0, 0.0, 0.0, 0.0, 0.0, 0.0, 0.0, 0.0, 0.0, 0.0, 1.6546745225924065E9, 0.0, 2022-06-08 09:48:42.592
32.0, 49076.11597491694, 20095.335852543816, 8851.0896386015, -7267.334433476261, 13149.665373523876, 13152.593452047522, 14114.74664387067, 922.0988657592376, 0.058, 0.798, 0.632, 192.0, 0.0, 0.0, 0.0, 0.0, 0.0, 0.0, 0.0, 0.0, 0.0, 1.6546745225924108E9, 0.0, 2022-06-08 09:48:42.592
33.0, 49047.39398329186, 20054.186291001595, 8806.453204924252, -7304.527736249893, 13107.97937011473, 13107.912314881363, 14057.325012364987, 874.60140879171, 0.058, 0.798, 0.632, 192.0, 0.0, 0.0, 0.0, 0.0, 0.0, 0.0, 0.0, 0.0, 0.0, 1.654674522592415E9, 0.0, 2022-06-08 09:48:42.592
0.0, 0.0, 0.0, 0.0, 0.0, 0.0, 0.0, 0.0, 0.0, 0.098, 0.85, 0.53, 192.0, 3.0, 16.0, 26.0, 144.0, 16.0, 144.0, 0.0, 0.0, 0.0, 1.6546745226948676E9, 0.0, 2022-06-08 09:48:42.694
1.0, 24686.004184008147, 26693.39200179482, -9742.052524334495, -12986.497639000136, 5599.380206987883, 7789.404128718869, 12166.389783190463, -1920.2830696443405, 0.098, 0.85, 0.53, 192.0, 0.0, 0.0, 0.0, 0.0, 0.0, 0.0, 0.0, 0.0, 0.0, 1.6546745231729414E9, 0.0, 2022-06-08 09:48:43.172
2.0, 24687.680564842292, 26677.634021953825, -9734.229413775136, -12976.796981906533, 5589.836012105467, 7778.719994869232, 12198.710405672839, -1889.4153105515613, 0.098, 0.85, 0.53, 192.0, 0.0, 0.0, 0.0, 0.0, 0.0, 0.0, 0.0, 0.0, 0.0, 1.6546745231729567E9, 0.0, 2022-06-08 09:48:43.172
3.0, 24687.367640419918, 26667.642792182305, -9734.87761436434, -12982.675490698277, 5586.639712648358, 7768.237026719693, 12193.569504448118, -1901.1499763905974, 0.098, 0.85, 0.53, 192.0, 0.0, 0.0, 0.0, 0.0, 0.0, 0.0, 0.0, 0.0, 0.0, 1.6546745231729643E9, 0.0, 2022-06-08 09:48:43.172
4.0, 24677.622279837404, 26678.036353354022, -9749.02626860455, -12991.19150533575, 5569.227703717674, 7758.692831837277, 12167.797943091147, -1938.3209274197732, 0.098, 0.85, 0.53, 192.0, 0.0, 0.0, 0.0, 0.0, 0.0, 0.0, 0.0, 0.0, 0.0, 1.6546745231729991E9, 0.0, 2022-06-08 09:48:43.172
5.0, 24671.810826279027, 26673.677763185235, -9758.45870476469, -12998.47817402818, 5561.114020480397, 7751.540273611578, 12165.786286090171, -1963.421936443083, 0.098, 0.85, 0.53, 192.0, 0.0, 0.0, 0.0, 0.0, 0.0, 0.0, 0.0, 0.0, 0.0, 1.6546745231730037E9, 0.0, 2022-06-08 09:48:43.173
6.0, 24680.88563452788, 26677.7457806761, -9736.755160898587, -12973.913606871798, 5589.634846405369, 7774.20494248926, 12194.329463759597, -1936.5774913522591, 0.098, 0.85, 0.53, 192.0, 0.0, 0.0, 0.0, 0.0, 0.0, 0.0, 0.0, 0.0, 0.0, 1.65467452317301E9, 0.0, 2022-06-08 09:48:43.173
7.0, 24695.727192846203, 26706.89245544582, -9719.343151967902, -12953.126484528362, 5600.095462810453, 7789.8064601190645, 12212.389673279486, -1904.0557031697874, 0.098, 0.85, 0.53, 192.0, 0.0, 0.0, 0.0, 0.0, 0.0, 0.0, 0.0, 0.0, 0.0, 1.654674523173014E9, 0.0, 2022-06-08 09:48:43.173
8.0, 24690.36277417693, 26697.14709486331, -9720.907774079773, -12954.311126984494, 5592.2500005066395, 7797.49546021169, 12200.36443476253, -1889.6611797405697, 0.128, 0.898, 0.47000000000000003, 192.0, 4.0, 0.0, 28.0, 16.0, 14.0, 176.0, 0.0, 0.0, 0.0, 1.6546745231730187E9, 0.0, 2022-06-08 09:48:43.173
9.0, 24679.969213005214, 26682.819626667457, -9738.476245221646, -12975.120601072384, 5572.312244452506, 7781.558666415056, 12198.978626606302, -1913.2422701409187, 0.128, 0.898, 0.47000000000000003, 192.0, 0.0, 0.0, 0.0, 0.0, 0.0, 0.0, 0.0, 0.0, 0.0, 1.654674523173025E9, 0.0, 2022-06-08 09:48:43.173
10.0, 24680.237433938677, 26689.748667448603, -9739.415018488768, -12980.194447063739, 5562.3657181698945, 7775.0096052896515, 12194.485925970785, -1910.8282817397455, 0.128, 0.898, 0.47000000000000003, 192.0, 0.0, 0.0, 0.0, 0.0, 0.0, 0.0, 0.0, 0.0, 0.0, 1.65467452317303E9, 0.0, 2022-06-08 09:48:43.173
11.0, 24696.353041690953, 26713.821496226967, -9732.97771608564, -12969.75618240311, 5565.33850018245, 7786.677215895322, 12182.415983964918, -1898.490118800416, 0.128, 0.898, 0.47000000000000003, 192.0, 0.0, 0.0, 0.0, 0.0, 0.0, 0.0, 0.0, 0.0, 0.0, 1.654674523173034E9, 0.0, 2022-06-08 09:48:43.173
12.0, 24709.719384875225, 26715.34141484993, -9721.444215946702, -12952.210063005694, 5576.827296832478, 7806.503213227179, 12186.104021800045, -1895.942019932511, 0.128, 0.898, 0.47000000000000003, 192.0, 0.0, 0.0, 0.0, 0.0, 0.0, 0.0, 0.0, 0.0, 0.0, 1.6546745231730385E9, 0.0, 2022-06-08 09:48:43.173
13.0, 24706.344271462476, 26718.85063872941, -9718.136157767316, -12952.27711823906, 5583.108137024419, 7810.839451651508, 12202.912533630435, -1906.1120636596756, 0.128, 0.898, 0.47000000000000003, 192.0, 0.0, 0.0, 0.0, 0.0, 0.0, 0.0, 0.0, 0.0, 0.0, 1.654674523173044E9, 0.0, 2022-06-08 09:48:43.173
14.0, 24699.951672548257, 26737.089662204944, -9734.296469008503, -12972.952481860219, 5573.832163075467, 7795.796727633086, 12188.473306712307, -1914.002229452399, 0.128, 0.898, 0.47000000000000003, 192.0, 0.0, 0.0, 0.0, 0.0, 0.0, 0.0, 0.0, 0.0, 0.0, 1.65467452317305E9, 0.0, 2022-06-08 09:48:43.173
15.0, 24686.875902041902, 26689.502798259593, -9749.428600004745, -12980.686185441755, 5554.341441910439, 7789.046500807584, 12179.711422885826, -1936.5774913522591, 0.128, 0.898, 0.47000000000000003, 192.0, 0.0, 0.0, 0.0, 0.0, 0.0, 0.0, 0.0, 0.0, 0.0, 1.6546745231730556E9, 0.0, 2022-06-08 09:48:43.173
16.0, 24692.732059089194, 26697.46001928568, -9746.187597058726, -12990.766822191099, 5563.14802922583, 7776.484820423701, 12177.543303673661, -1913.3540288631953, 0.128, 0.898, 0.47000000000000003, 192.0, 0.0, 0.0, 0.0, 0.0, 0.0, 0.0, 0.0, 0.0, 0.0, 1.65467452317306E9, 0.0, 2022-06-08 09:48:43.173
17.0, 24726.93022810581, 26720.05763293, -9719.611372901365, -12961.128409043362, 5585.745642870145, 7807.598448705488, 12195.31294051563, -1855.395955490584, 0.134, 0.902, 0.448, 192.0, 4.0, 48.0, 28.0, 48.0, 14.0, 0.0, 0.0, 0.0, 0.0, 1.6546745231730647E9, 0.0, 2022-06-08 09:48:43.173
18.0, 24712.51335293214, 26736.217944171185, -9724.506404937078, -12965.531702701057, 5576.0449857765425, 7814.706303442276, 12194.955312604347, -1871.9809498764218, 0.134, 0.902, 0.448, 192.0, 0.0, 0.0, 0.0, 0.0, 0.0, 0.0, 0.0, 0.0, 0.0, 1.6546745231730688E9, 0.0, 2022-06-08 09:48:43.173
19.0, 24695.21310272373, 26724.215057398687, -9744.868844135863, -12983.301339543026, 5566.456087405216, 7795.372044488436, 12182.840667109569, -1924.0828662017425, 0.134, 0.902, 0.448, 192.0, 0.0, 0.0, 0.0, 0.0, 0.0, 0.0, 0.0, 0.0, 0.0, 1.6546745231730733E9, 0.0, 2022-06-08 09:48:43.173
20.0, 24697.247111469165, 26704.18789436673, -9748.579233715443, -12982.340214531449, 5568.981834528665, 7794.634436921411, 12196.586989949583, -1903.0275229248434, 0.134, 0.902, 0.448, 192.0, 0.0, 0.0, 0.0, 0.0, 0.0, 0.0, 0.0, 0.0, 0.0, 1.654674523173078E9, 0.0, 2022-06-08 09:48:43.173
21.0, 24701.89627431587, 26720.415260841284, -9742.11957956786, -12965.039964323041, 5582.884619579866, 7803.73159691472, 12214.04370236918, -1862.2132375494525, 0.134, 0.902, 0.448, 192.0, 0.0, 0.0, 0.0, 0.0, 0.0, 0.0, 0.0, 0.0, 0.0, 1.6546745231730847E9, 0.0, 2022-06-08 09:48:43.173
22.0, 24706.813658096034, 26730.42884235726, -9738.006858588084, -12963.385935233347, 5587.91376208231, 7808.246649294692, 12211.249734312265, -1861.0509468377766, 0.134, 0.902, 0.448, 192.0, 0.0, 0.0, 0.0, 0.0, 0.0, 0.0, 0.0, 0.0, 0.0, 1.6546745231730897E9, 0.0, 2022-06-08 09:48:43.173
23.0, 24708.378280207908, 26737.33553139395, -9745.718210425164, -12974.561807461001, 5582.079956779476, 7798.344826500992, 12188.0262718232, -1898.132490889131, 0.134, 0.902, 0.448, 192.0, 0.0, 0.0, 0.0, 0.0, 0.0, 0.0, 0.0, 0.0, 0.0, 1.6546745231730962E9, 0.0, 2022-06-08 09:48:43.173
24.0, 24699.258768470143, 26715.43082182775, -9759.68805070973, -12982.899008142831, 5569.630035117869, 7780.329320470014, 12180.717251386315, -1928.7320290484465, 0.134, 0.902, 0.448, 192.0, 0.0, 0.0, 0.0, 0.0, 0.0, 0.0, 0.0, 0.0, 0.0, 1.6546745231731012E9, 0.0, 2022-06-08 09:48:43.173
25.0, 24703.662062127838, 26718.113031162386, -9749.182730815737, -12968.079801568962, 5576.849648576934, 7799.484765468213, 12190.84259162457, -1906.6261537821476, 0.134, 0.902, 0.448, 192.0, 0.0, 0.0, 0.0, 0.0, 0.0, 0.0, 0.0, 0.0, 0.0, 1.654674523173107E9, 0.0, 2022-06-08 09:48:43.173
26.0, 24701.60570163795, 26724.751499265614, -9750.210911060682, -12972.483095226658, 5584.069262035998, 7801.295256769092, 12207.762862177236, -1874.394938277595, 0.134, 0.902, 0.448, 192.0, 0.0, 0.0, 0.0, 0.0, 0.0, 0.0, 0.0, 0.0, 0.0, 1.6546745231731207E9, 0.0, 2022-06-08 09:48:43.173
27.0, 24713.966216321733, 26731.412319113293, -9735.391704486812, -12968.19156029124, 5596.385073230872, 7814.907469142374, 12227.924135675925, -1873.098537099187, 0.128, 0.91, 0.428, 192.0, 4.0, 0.0, 28.0, 112.0, 13.0, 96.0, 0.0, 0.0, 0.0, 1.6546745231731255E9, 0.0, 2022-06-08 09:48:43.173
28.0, 24714.83793435549, 26735.547391837525, -9731.63661141832, -12966.068144567984, 5589.277218494084, 7811.510003985168, 12226.650086241973, -1868.494077741394, 0.128, 0.91, 0.428, 192.0, 0.0, 0.0, 0.0, 0.0, 0.0, 0.0, 0.0, 0.0, 0.0, 1.65467452317313E9, 0.0, 2022-06-08 09:48:43.173
29.0, 24710.65815814235, 26715.52022880557, -9745.517044725066, -12976.70757492871, 5577.050814277031, 7789.8064601190645, 12215.60832448105, -1866.8624003961565, 0.128, 0.91, 0.428, 192.0, 0.0, 0.0, 0.0, 0.0, 0.0, 0.0, 0.0, 0.0, 0.0, 1.6546745231731353E9, 0.0, 2022-06-08 09:48:43.173
30.0, 24718.101289045968, 26701.483333287637, -9755.016536118572, -12987.391708778348, 5559.90702627981, 7797.249591022682, 12188.383899734486, -1892.5669065197596, 0.128, 0.91, 0.428, 192.0, 0.0, 0.0, 0.0, 0.0, 0.0, 0.0, 0.0, 0.0, 0.0, 1.6546745231731408E9, 0.0, 2022-06-08 09:48:43.173
31.0, 24751.51714700665, 26734.563915081493, -9720.371332212846, -12958.51325494209, 5581.364700956906, 7822.864690168463, 12210.55683023415, -1884.006188393377, 0.128, 0.91, 0.428, 192.0, 0.0, 0.0, 0.0, 0.0, 0.0, 0.0, 0.0, 0.0, 0.0, 1.6546745231731453E9, 0.0, 2022-06-08 09:48:43.173
32.0, 24739.67072244534, 26757.9661915262, -9704.859221560862, -12947.94087981473, 5598.3520267429385, 7827.3126873150695, 12231.23219385531, -1874.104365599676, 0.128, 0.91, 0.428, 192.0, 0.0, 0.0, 0.0, 0.0, 0.0, 0.0, 0.0, 0.0, 0.0, 1.65467452317315E9, 0.0, 2022-06-08 09:48:43.173
33.0, 24710.769916864625, 26756.87095604789, -9711.140061752803, -12949.192577504227, 5585.276256236584, 7810.97356211824, 12214.423682024919, -1900.5017758013937, 0.128, 0.91, 0.428, 192.0, 0.0, 0.0, 0.0, 0.0, 0.0, 0.0, 0.0, 0.0, 0.0, 1.6546745231731546E9, 0.0, 2022-06-08 09:48:43.173
34.0, 24697.537684147082, 26742.43172912976, -9731.368390484857, -12968.37037424688, 5567.551322883525, 7788.06302405155, 12200.006806851246, -1917.71261903198, 0.128, 0.91, 0.428, 192.0, 0.0, 0.0, 0.0, 0.0, 0.0, 0.0, 0.0, 0.0, 0.0, 1.654674523173159E9, 0.0, 2022-06-08 09:48:43.173
35.0, 24715.486134944695, 26751.014799000597, -9729.982582328628, -12974.181827805261, 5562.745697825635, 7779.479954180712, 12199.760937662237, -1903.8992409586003, 0.128, 0.91, 0.428, 192.0, 0.0, 0.0, 0.0, 0.0, 0.0, 0.0, 0.0, 0.0, 0.0, 1.6546745231731632E9, 0.0, 2022-06-08 09:48:43.173
36.0, 24712.781573865603, 26726.04790044402, -9729.513195695066, -12962.80478987751, 5564.757354826612, 7800.691759668799, 12196.0281963382, -1882.6203802371479, 0.128, 0.91, 0.428, 192.0, 0.0, 0.0, 0.0, 0.0, 0.0, 0.0, 0.0, 0.0, 0.0, 1.6546745231731675E9, 0.0, 2022-06-08 09:48:43.173
37.0, 24701.717460360225, 26725.28794113254, -9724.439349703713, -12953.327650228459, 5574.793288087045, 7808.492518483701, 12186.79692587816, -1893.5503832757931, 0.11, 0.92, 0.426, 192.0, 3.0, 112.0, 28.0, 192.0, 13.0, 80.0, 0.0, 0.0, 0.0, 1.654674523173172E9, 0.0, 2022-06-08 09:48:43.173
38.0, 24711.9322075763, 26742.945819252232, -9727.814463116463, -12960.189635776238, 5569.808849073512, 7803.7763004036315, 12182.684204898384, -1912.7728835073572, 0.11, 0.92, 0.426, 192.0, 0.0, 0.0, 0.0, 0.0, 0.0, 0.0, 0.0, 0.0, 0.0, 1.6546745231731763E9, 0.0, 2022-06-08 09:48:43.173
39.0, 24714.949693077768, 26727.545467322525, -9743.550091213, -12988.799868679032, 5561.449296647227, 7779.748175114176, 12203.717196430827, -1935.9292907630554, 0.11, 0.92, 0.426, 192.0, 0.0, 0.0, 0.0, 0.0, 0.0, 0.0, 0.0, 0.0, 0.0, 1.65467452317318E9, 0.0, 2022-06-08 09:48:43.173
40.0, 24710.65815814235, 26731.166449924287, -9736.129312053838, -12991.660891969312, 5572.826334574978, 7794.567381688044, 12208.723987188816, -1910.2694881283628, 0.11, 0.92, 0.426, 192.0, 0.0, 0.0, 0.0, 0.0, 0.0, 0.0, 0.0, 0.0, 0.0, 1.6546745231731844E9, 0.0, 2022-06-08 09:48:43.173
41.0, 24707.46185868524, 26737.894325005334, -9729.870823606352, -12967.498656213123, 5575.8661718209, 7801.0717393245395, 12197.682225427894, -1900.8594037126786, 0.11, 0.92, 0.426, 192.0, 0.0, 0.0, 0.0, 0.0, 0.0, 0.0, 0.0, 0.0, 0.0, 1.6546745231731887E9, 0.0, 2022-06-08 09:48:43.173
42.0, 24717.989530323688, 26735.94972323772, -9727.836814860919, -12956.881577596854, 5577.430793932771, 7790.007625819162, 12207.382882521497, -1892.3880925641172, 0.11, 0.92, 0.426, 192.0, 0.0, 0.0, 0.0, 0.0, 0.0, 0.0, 0.0, 0.0, 0.0, 1.654674523173194E9, 0.0, 2022-06-08 09:48:43.173
43.0, 24720.828201869514, 26742.43172912976, -9728.373256727846, -12958.781475875554, 5575.217971231696, 7799.663579423855, 12218.22347858232, -1852.6466909225812, 0.11, 0.92, 0.426, 192.0, 0.0, 0.0, 0.0, 0.0, 0.0, 0.0, 0.0, 0.0, 0.0, 1.6546745231731985E9, 0.0, 2022-06-08 09:48:43.173
44.0, 24729.1877542958, 26746.700912320724, -9735.145835297804, -12963.050659066517, 5568.24422696164, 7798.858916623464, 12214.200164580365, -1843.1471995290758, 0.11, 0.92, 0.426, 192.0, 0.0, 0.0, 0.0, 0.0, 0.0, 0.0, 0.0, 0.0, 0.0, 1.6546745231732028E9, 0.0, 2022-06-08 09:48:43.173
45.0, 24721.74462339218, 26731.546429580027, -9749.048620349005, -12973.444220238236, 5562.186904214252, 7797.1378323004055, 12205.907667387446, -1856.6923566689918, 0.11, 0.92, 0.426, 192.0, 0.0, 0.0, 0.0, 0.0, 0.0, 0.0, 0.0, 0.0, 0.0, 1.6546745231732073E9, 0.0, 2022-06-08 09:48:43.173
46.0, 24721.69991990327, 26735.033301715055, -9747.282832537036, -12973.019537093585, 5563.036270503553, 7803.172803303338, 12199.626827195505, -1883.5144500153604, 0.11, 0.92, 0.426, 192.0, 0.0, 0.0, 0.0, 0.0, 0.0, 0.0, 0.0, 0.0, 0.0, 1.6546745231732128E9, 0.0, 2022-06-08 09:48:43.173
47.0, 24697.805905080546, 26713.866199715878, -9761.498542010611, -12988.24107506765, 5546.563034839993, 7781.670425137333, 12168.915530313914, -1905.620325281659, 0.11800000000000001, 0.916, 0.428, 192.0, 3.0, 176.0, 28.0, 160.0, 13.0, 96.0, 0.0, 0.0, 0.0, 1.6546745231732192E9, 0.0, 2022-06-08 09:48:43.173
48.0, 24710.769916864625, 26729.355958623408, -9737.78334114353, -12968.951519602719, 5574.010977031109, 7801.027035835628, 12187.93686484538, -1852.6466909225812, 0.11800000000000001, 0.916, 0.428, 192.0, 0.0, 0.0, 0.0, 0.0, 0.0, 0.0, 0.0, 0.0, 0.0, 1.6546745231732235E9, 0.0, 2022-06-08 09:48:43.173
49.0, 24707.75243136316, 26723.52215332057, -9750.725001183153, -12976.238188295149, 5570.032366518065, 7789.202963018771, 12198.755109161748, -1869.522257986338, 0.11800000000000001, 0.916, 0.428, 192.0, 0.0, 0.0, 0.0, 0.0, 0.0, 0.0, 0.0, 0.0, 0.0, 1.6546745231732275E9, 0.0, 2022-06-08 09:48:43.173
50.0, 24701.65040512686, 26723.544505065027, -9760.425658276756, -12986.184714577761, 5565.1820379712635, 7782.564494915545, 12213.060225613144, -1877.166554590053, 0.11800000000000001, 0.916, 0.428, 192.0, 0.0, 0.0, 0.0, 0.0, 0.0, 0.0, 0.0, 0.0, 0.0, 1.654674523173232E9, 0.0, 2022-06-08 09:48:43.173
51.0, 24698.18588473629, 26728.305426634008, -9753.518969240067, -12992.264389069604, 5566.523142638582, 7784.307930983059, 12213.484908757795, -1875.1325458446202, 0.11800000000000001, 0.916, 0.428, 192.0, 0.0, 0.0, 0.0, 0.0, 0.0, 0.0, 0.0, 0.0, 0.0, 1.6546745231732364E9, 0.0, 2022-06-08 09:48:43.173
52.0, 24706.634844140393, 26735.72620579317, -9749.696820938208, -12976.238188295149, 5569.1159449953975, 7783.145640271383, 12216.100062859066, -1882.7768424483352, 0.11800000000000001, 0.916, 0.428, 192.0, 0.0, 0.0, 0.0, 0.0, 0.0, 0.0, 0.0, 0.0, 0.0, 1.6546745231732407E9, 0.0, 2022-06-08 09:48:43.173
53.0, 24713.94386457728, 26750.120729222388, -9749.227434304648, -12969.219740536182, 5577.766070099601, 7789.247666507682, 12217.597629737573, -1880.0946331136984, 0.11800000000000001, 0.916, 0.428, 192.0, 0.0, 0.0, 0.0, 0.0, 0.0, 0.0, 0.0, 0.0, 0.0, 1.6546745231732461E9, 0.0, 2022-06-08 09:48:43.173
54.0, 24711.999262809666, 26741.939990751744, -9756.961137886185, -12976.886388884353, 5568.087764750453, 7789.895867096886, 12204.253638297754, -1889.035330895821, 0.11800000000000001, 0.916, 0.428, 192.0, 0.0, 0.0, 0.0, 0.0, 0.0, 0.0, 0.0, 0.0, 0.0, 1.654674523173251E9, 0.0, 2022-06-08 09:48:43.173
55.0, 24708.579445908006, 26740.755348295614, -9765.298338568013, -12978.115734829395, 5559.772915813079, 7773.82496283352, 12189.255617768244, -1905.6426770261141, 0.11800000000000001, 0.916, 0.428, 192.0, 0.0, 0.0, 0.0, 0.0, 0.0, 0.0, 0.0, 0.0, 0.0, 1.6546745231732552E9, 0.0, 2022-06-08 09:48:43.173
56.0, 24725.52206820513, 26754.00993275761, -9761.163265843781, -12970.180865547762, 5564.399726915327, 7772.685023866299, 12184.338233988075, -1917.064418442776, 0.11800000000000001, 0.916, 0.428, 192.0, 0.0, 0.0, 0.0, 0.0, 0.0, 0.0, 0.0, 0.0, 0.0, 1.6546745231732607E9, 0.0, 2022-06-08 09:48:43.173
57.0, 24733.45693748676, 26745.225697186674, -9760.31389955448, -12971.633728937357, 5569.406517673317, 7771.0756982655175, 12184.472344454807, -1934.8564070292007, 0.132, 0.922, 0.426, 192.0, 4.0, 32.0, 28.0, 208.0, 13.0, 80.0, 0.0, 0.0, 0.0, 1.654674523173265E9, 0.0, 2022-06-08 09:48:43.173
58.0, 24730.864135129945, 26752.33355192346, -9753.4519140067, -12957.172150274773, 5573.742756097646, 7769.444020920279, 12195.044719582167, -1917.8020260098012, 0.132, 0.922, 0.426, 192.0, 0.0, 0.0, 0.0, 0.0, 0.0, 0.0, 0.0, 0.0, 0.0, 1.6546745231732693E9, 0.0, 2022-06-08 09:48:43.173
59.0, 24727.064338572545, 26755.976886269676, -9745.070009835961, -12949.952536815708, 5577.408442188316, 7772.43915467729, 12198.486888228284, -1884.7884994493127, 0.132, 0.922, 0.426, 192.0, 0.0, 0.0, 0.0, 0.0, 0.0, 0.0, 0.0, 0.0, 0.0, 1.6546745231732736E9, 0.0, 2022-06-08 09:48:43.173
60.0, 24705.025518539613, 26728.305426634008, -9758.749277442608, -12969.62207193638, 5565.427907160271, 7751.987308500685, 12197.279894027699, -1875.780746433824, 0.132, 0.922, 0.426, 192.0, 0.0, 0.0, 0.0, 0.0, 0.0, 0.0, 0.0, 0.0, 0.0, 1.6546745231732793E9, 0.0, 2022-06-08 09:48:43.173
61.0, 24716.40255646736, 26725.600865554916, -9750.255614549591, -12959.362621231392, 5572.021671774587, 7773.512038411145, 12215.27304831422, -1862.324996271729, 0.132, 0.922, 0.426, 192.0, 0.0, 0.0, 0.0, 0.0, 0.0, 0.0, 0.0, 0.0, 0.0, 1.654674523173286E9, 0.0, 2022-06-08 09:48:43.173
62.0, 24723.84568737098, 26726.897266733322, -9758.928091398251, -12959.697897398222, 5573.698052608735, 7792.108689797961, 12203.404272008453, -1879.267618568852, 0.132, 0.922, 0.426, 192.0, 0.0, 0.0, 0.0, 0.0, 0.0, 0.0, 0.0, 0.0, 0.0, 1.6546745231732912E9, 0.0, 2022-06-08 09:48:43.173
63.0, 24727.086690317, 26730.63000805736, -9763.93488215624, -12961.687202654744, 5557.448334389727, 7784.531448427612, 12176.917454828914, -1897.037255410821, 0.132, 0.922, 0.426, 192.0, 0.0, 0.0, 0.0, 0.0, 0.0, 0.0, 0.0, 0.0, 0.0, 1.654674523173298E9, 0.0, 2022-06-08 09:48:43.173
64.0, 24710.099364530965, 26733.893362747833, -9773.50142878311, -12973.243054538138, 5561.29283443604, 7763.029070261607, 12167.105039013033, -1925.491026102427, 0.132, 0.922, 0.426, 192.0, 0.0, 0.0, 0.0, 0.0, 0.0, 0.0, 0.0, 0.0, 0.0, 1.6546745231733022E9, 0.0, 2022-06-08 09:48:43.173
65.0, 24693.201445722752, 26718.135382906843, -9783.291492854536, -12989.984511135162, 5562.030442003065, 7744.275956663604, 12170.636614636973, -1940.354936165206, 0.132, 0.922, 0.426, 192.0, 0.0, 0.0, 0.0, 0.0, 0.0, 0.0, 0.0, 0.0, 0.0, 1.6546745231733067E9, 0.0, 2022-06-08 09:48:43.173
66.0, 24712.55805642105, 26737.894325005334, -9764.337213556435, -12967.498656213123, 5583.175192257785, 7778.8317535915085, 12218.759920449249, -1902.2228601244522, 0.132, 0.922, 0.426, 192.0, 0.0, 0.0, 0.0, 0.0, 0.0, 0.0, 0.0, 0.0, 0.0, 1.6546745231733115E9, 0.0, 2022-06-08 09:48:43.173
67.0, 24715.150858777866, 26743.43755763025, -9761.74441119962, -12968.526836458068, 5580.403575945327, 7782.497439682179, 12209.863926156037, -1897.5066420443825, 0.138, 0.9380000000000001, 0.43, 192.0, 4.0, 80.0, 29.0, 80.0, 13.0, 112.0, 0.0, 0.0, 0.0, 1.6546745231733165E9, 0.0, 2022-06-08 09:48:43.173
68.0, 24701.78451559359, 26742.54348785204, -9774.17198111677, -12986.430583766769, 5567.707785094713, 7762.962015028241, 12211.383844778997, -1935.8398837852342, 0.138, 0.9380000000000001, 0.43, 192.0, 0.0, 0.0, 0.0, 0.0, 0.0, 0.0, 0.0, 0.0, 0.0, 1.654674523173328E9, 0.0, 2022-06-08 09:48:43.173
69.0, 24698.297643458565, 26730.13826967934, -9790.22053363568, -13002.90381943033, 5552.307433165006, 7745.728820053198, 12210.22155406732, -1907.7660927493685, 0.138, 0.9380000000000001, 0.43, 192.0, 0.0, 0.0, 0.0, 0.0, 0.0, 0.0, 0.0, 0.0, 0.0, 1.6546745231733322E9, 0.0, 2022-06-08 09:48:43.173
70.0, 24718.995358824177, 26745.9633047537, -9793.08155692596, -12994.320749559492, 5549.133485452353, 7761.0397650050845, 12206.198240065365, -1881.2792755698295, 0.138, 0.9380000000000001, 0.43, 192.0, 0.0, 0.0, 0.0, 0.0, 0.0, 0.0, 0.0, 0.0, 0.0, 1.6546745231733365E9, 0.0, 2022-06-08 09:48:43.173
71.0, 24714.681472144304, 26731.63583655785, -9792.723929014675, -12994.454860026224, 5556.487209378149, 7759.832770804498, 12213.0825773576, -1890.2199733519524, 0.138, 0.9380000000000001, 0.43, 192.0, 0.0, 0.0, 0.0, 0.0, 0.0, 0.0, 0.0, 0.0, 0.0, 1.6546745231733408E9, 0.0, 2022-06-08 09:48:43.173
72.0, 24696.241282968676, 26703.450286799707, -9789.549981302021, -12990.364490790904, 5559.638805346347, 7762.291462694581, 12207.94167613288, -1889.9964559073992, 0.138, 0.9380000000000001, 0.43, 192.0, 0.0, 0.0, 0.0, 0.0, 0.0, 0.0, 0.0, 0.0, 0.0, 1.6546745231733449E9, 0.0, 2022-06-08 09:48:43.173
73.0, 24714.301492488565, 26730.741766779636, -9775.31192008399, -12961.597795676924, 5579.956541056221, 7801.228201535726, 12225.308981574653, -1867.1306213296202, 0.138, 0.9380000000000001, 0.43, 192.0, 0.0, 0.0, 0.0, 0.0, 0.0, 0.0, 0.0, 0.0, 0.0, 1.654674523173349E9, 0.0, 2022-06-08 09:48:43.173
74.0, 24705.070222028524, 26723.43274634275, -9796.479022083167, -12991.862057669408, 5566.344328682939, 7782.1174600264385, 12206.913495887935, -1880.0275778803323, 0.138, 0.9380000000000001, 0.43, 192.0, 0.0, 0.0, 0.0, 0.0, 0.0, 0.0, 0.0, 0.0, 0.0, 1.6546745231733537E9, 0.0, 2022-06-08 09:48:43.173
75.0, 24702.2315504827, 26708.635891513335, -9800.502336085121, -12997.47234552769, 5554.542607610537, 7768.572302886522, 12199.492716728773, -1896.3443513327065, 0.138, 0.9380000000000001, 0.43, 192.0, 0.0, 0.0, 0.0, 0.0, 0.0, 0.0, 0.0, 0.0, 0.0, 1.6546745231733584E9, 0.0, 2022-06-08 09:48:43.173
76.0, 24702.45506792725, 26721.130516663852, -9789.974664446672, -12985.715327944199, 5564.57854087097, 7782.2292187487155, 12209.551001733662, -1887.068377383754, 0.138, 0.9380000000000001, 0.43, 192.0, 0.0, 0.0, 0.0, 0.0, 0.0, 0.0, 0.0, 0.0, 0.0, 1.6546745231733627E9, 0.0, 2022-06-08 09:48:43.173
77.0, 24727.80194613957, 26736.687330804747, -9773.389670060835, -12970.42673473677, 5573.787459586556, 7786.967788573241, 12217.0835396151, -1874.7749179333352, 0.14200000000000002, 0.936, 0.432, 192.0, 4.0, 112.0, 29.0, 64.0, 13.0, 128.0, 0.0, 0.0, 0.0, 1.6546745231733675E9, 0.0, 2022-06-08 09:48:43.173
78.0, 24735.356835765462, 26731.702891791214, -9779.245827108125, -12977.445182495736, 5561.29283443604, 7768.929930797807, 12199.291551028677, -1893.6844937425249, 0.14200000000000002, 0.936, 0.432, 192.0, 0.0, 0.0, 0.0, 0.0, 0.0, 0.0, 0.0, 0.0, 0.0, 1.6546745231733718E9, 0.0, 2022-06-08 09:48:43.173
79.0, 24702.65623362735, 26733.91571449229, -9783.827934721463, -12996.466517027202, 5555.48138087766, 7765.86774180743, 12189.948521846358, -1899.652409512092, 0.14200000000000002, 0.936, 0.432, 192.0, 0.0, 0.0, 0.0, 0.0, 0.0, 0.0, 0.0, 0.0, 0.0, 1.6546745231733758E9, 0.0, 2022-06-08 09:48:43.173
80.0, 24674.56009084703, 26707.227731612653, -9796.859001738907, -13015.130223647384, 5536.728267279657, 7749.260395677137, 12161.360640688019, -1921.0877324447315, 0.14200000000000002, 0.936, 0.432, 192.0, 0.0, 0.0, 0.0, 0.0, 0.0, 0.0, 0.0, 0.0, 0.0, 1.65467452317338E9, 0.0, 2022-06-08 09:48:43.173
81.0, 24685.1771694633, 26704.09848738891, -9795.69671102723, -13011.084557900973, 5538.494055091626, 7759.072811493017, 12152.062314994611, -1917.9137847320778, 0.14200000000000002, 0.936, 0.432, 192.0, 0.0, 0.0, 0.0, 0.0, 0.0, 0.0, 0.0, 0.0, 0.0, 1.654674523173385E9, 0.0, 2022-06-08 09:48:43.173
82.0, 24707.12658251841, 26717.330720106453, -9785.727833000165, -12998.81345019501, 5553.9167587657885, 7765.510113896145, 12198.88921962848, -1898.0430839113099, 0.14200000000000002, 0.936, 0.432, 192.0, 0.0, 0.0, 0.0, 0.0, 0.0, 0.0, 0.0, 0.0, 0.0, 1.6546745231733887E9, 0.0, 2022-06-08 09:48:43.173
83.0, 24697.805905080546, 26722.069289930976, -9791.159306902804, -13013.00680792413, 5556.934244267255, 7755.697698080266, 12222.246792584276, -1912.1470346626086, 0.14200000000000002, 0.936, 0.432, 192.0, 0.0, 0.0, 0.0, 0.0, 0.0, 0.0, 0.0, 0.0, 0.0, 1.654674523173393E9, 0.0, 2022-06-08 09:48:43.173
84.0, 24713.519181432628, 26734.89919124832, -9797.641312794842, -13033.7268750342, 5546.071296461975, 7759.653956848855, 12198.50923997274, -1925.647488313614, 0.14200000000000002, 0.936, 0.432, 192.0, 0.0, 0.0, 0.0, 0.0, 0.0, 0.0, 0.0, 0.0, 0.0, 1.6546745231733973E9, 0.0, 2022-06-08 09:48:43.173
85.0, 24725.27619901612, 26723.09747017592, -9809.264219911602, -13026.23904064167, 5530.961517210188, 7741.347878139959, 12169.65313788094, -1948.0215845133764, 0.14200000000000002, 0.936, 0.432, 192.0, 0.0, 0.0, 0.0, 0.0, 0.0, 0.0, 0.0, 0.0, 0.0, 1.654674523173401E9, 0.0, 2022-06-08 09:48:43.173
86.0, 24698.588216136483, 26723.835077742944, -9806.604362321421, -13011.062206156517, 5526.088836918931, 7731.513110579624, 12161.651213365938, -1948.5356746358484, 0.14200000000000002, 0.936, 0.432, 192.0, 0.0, 0.0, 0.0, 0.0, 0.0, 0.0, 0.0, 0.0, 0.0, 1.6546745231734056E9, 0.0, 2022-06-08 09:48:43.173
87.0, 24722.348120492476, 26761.989505528156, -9788.633559779353, -12996.064185627007, 5557.269520434084, 7755.25066319116, 12203.404272008453, -1905.776787492846, 0.14200000000000002, 0.93, 0.428, 192.0, 4.0, 112.0, 29.0, 16.0, 13.0, 96.0, 0.0, 0.0, 0.0, 1.6546745231734104E9, 0.0, 2022-06-08 09:48:43.173
88.0, 24746.979742882224, 26762.88357530637, -9794.780289504562, -13009.676398000289, 5551.838046531445, 7765.733631340699, 12208.344007533075, -1931.1236657051643, 0.14200000000000002, 0.93, 0.428, 192.0, 0.0, 0.0, 0.0, 0.0, 0.0, 0.0, 0.0, 0.0, 0.0, 1.6546745231734147E9, 0.0, 2022-06-08 09:48:43.173
89.0, 24695.83895156848, 26727.23254290015, -9805.620885565388, -13029.882374987887, 5551.703936064713, 7743.739514796676, 12239.52469104823, -1955.0176805278875, 0.14200000000000002, 0.93, 0.428, 192.0, 0.0, 0.0, 0.0, 0.0, 0.0, 0.0, 0.0, 0.0, 0.0, 1.6546745231734188E9, 0.0, 2022-06-08 09:48:43.173
90.0, 24663.183052919278, 26681.255004555584, -9814.114548458403, -13047.495549618669, 5554.587311099447, 7732.049552446551, 12245.023220184234, -1947.3957356686278, 0.14200000000000002, 0.93, 0.428, 192.0, 0.0, 0.0, 0.0, 0.0, 0.0, 0.0, 0.0, 0.0, 0.0, 1.6546745231734245E9, 0.0, 2022-06-08 09:48:43.173
91.0, 24656.63399179387, 26702.04212689902, -9806.783176277064, -13011.106909645428, 5555.928415766766, 7751.495570122668, 12217.910554159947, -1875.9595603894666, 0.14200000000000002, 0.93, 0.428, 192.0, 0.0, 0.0, 0.0, 0.0, 0.0, 0.0, 0.0, 0.0, 0.0, 1.6546745231734285E9, 0.0, 2022-06-08 09:48:43.173
92.0, 24692.016803266622, 26728.35013012292, -9799.65296979582, -12999.215781595205, 5561.538703625048, 7773.512038411145, 12227.320638575631, -1823.7905888307798, 0.14200000000000002, 0.93, 0.428, 192.0, 0.0, 0.0, 0.0, 0.0, 0.0, 0.0, 0.0, 0.0, 0.0, 1.654674523173433E9, 0.0, 2022-06-08 09:48:43.173
93.0, 24707.46185868524, 26695.940100662723, -9811.901725757329, -13022.86392722892, 5553.000337243121, 7758.715183581732, 12203.31486503063, -1864.3143015282515, 0.14200000000000002, 0.93, 0.428, 192.0, 0.0, 0.0, 0.0, 0.0, 0.0, 0.0, 0.0, 0.0, 0.0, 1.6546745231734376E9, 0.0, 2022-06-08 09:48:43.173
94.0, 24728.025463584123, 26729.37831036786, -9819.300153172035, -13033.10102618945, 5548.2841191630505, 7749.528616610601, 12177.342137973565, -1887.9177436730558, 0.14200000000000002, 0.93, 0.428, 192.0, 0.0, 0.0, 0.0, 0.0, 0.0, 0.0, 0.0, 0.0, 0.0, 1.6546745231734416E9, 0.0, 2022-06-08 09:48:43.173
95.0, 24705.427849939806, 26738.520173850084, -9821.55767936202, -13022.841575484465, 5544.596081327925, 7750.132113710894, 12185.254655510744, -1897.7078077444803, 0.14200000000000002, 0.93, 0.428, 192.0, 0.0, 0.0, 0.0, 0.0, 0.0, 0.0, 0.0, 0.0, 0.0, 1.6546745231734457E9, 0.0, 2022-06-08 09:48:43.173
96.0, 24697.13535274689, 26724.662092287792, -9801.485812841156, -13001.853287440932, 5571.0605467630085, 7769.86870406493, 12227.499452531274, -1881.7039587144804, 0.14200000000000002, 0.93, 0.428, 192.0, 0.0, 0.0, 0.0, 0.0, 0.0, 0.0, 0.0, 0.0, 0.0, 1.6546745231734512E9, 0.0, 2022-06-08 09:48:43.173
97.0, 24693.35790793394, 26717.263664873084, -9803.564525075499, -13006.413043309814, 5571.753450841124, 7765.711279596243, 12244.263260872754, -1887.0013221503882, 0.148, 0.916, 0.436, 192.0, 4.0, 160.0, 28.0, 160.0, 13.0, 160.0, 0.0, 0.0, 0.0, 1.6546745231734557E9, 0.0, 2022-06-08 09:48:43.173
98.0, 24689.446352654264, 26709.261740358084, -9810.56062109001, -13012.895049201852, 5565.29379669354, 7768.415840675336, 12242.18454863841, -1899.652409512092, 0.148, 0.916, 0.436, 192.0, 0.0, 0.0, 0.0, 0.0, 0.0, 0.0, 0.0, 0.0, 0.0, 1.65467452317346E9, 0.0, 2022-06-08 09:48:43.173
99.0, 24677.287003670575, 26705.216074611675, -9821.870603784395, -13021.366360350414, 5553.134447709853, 7762.067945250028, 12221.442129783885, -1929.581395337748, 0.148, 0.916, 0.436, 192.0, 0.0, 0.0, 0.0, 0.0, 0.0, 0.0, 0.0, 0.0, 0.0, 1.6546745231734686E9, 0.0, 2022-06-08 09:48:43.173
100.0, 24670.715590800715, 26707.853580457402, -9833.404103923334, -13031.91638373332, 5543.500845849615, 7754.580110857501, 12213.104929102055, -1953.9895002829435, 0.148, 0.916, 0.436, 192.0, 0.0, 0.0, 0.0, 0.0, 0.0, 0.0, 0.0, 0.0, 0.0, 1.654674523173473E9, 0.0, 2022-06-08 09:48:43.173
101.0, 24682.852588039947, 26710.893417703322, -9824.75397881913, -13009.855211955932, 5550.653404075313, 7764.638395862388, 12210.825051167614, -1919.3889998661282, 0.148, 0.916, 0.436, 192.0, 0.0, 0.0, 0.0, 0.0, 0.0, 0.0, 0.0, 0.0, 0.0, 1.654674523173477E9, 0.0, 2022-06-08 09:48:43.173
102.0, 24681.176207205797, 26702.533865277037, -9814.583935091965, -12989.448069268235, 5564.869113548889, 7780.977521059218, 12221.285667572698, -1857.6311299361146, 0.148, 0.916, 0.436, 192.0, 0.0, 0.0, 0.0, 0.0, 0.0, 0.0, 0.0, 0.0, 0.0, 1.6546745231734815E9, 0.0, 2022-06-08 09:48:43.173
103.0, 24671.810826279027, 26693.660222728282, -9822.496452629144, -12998.969912406197, 5563.326843181472, 7774.137887255894, 12210.757995934247, -1874.8866766556118, 0.148, 0.916, 0.436, 192.0, 0.0, 0.0, 0.0, 0.0, 0.0, 0.0, 0.0, 0.0, 0.0, 1.6546745231734865E9, 0.0, 2022-06-08 09:48:43.173
104.0, 24669.97798323369, 26696.43183904074, -9839.506130159632, -13009.29641834455, 5541.086857448442, 7761.620910360923, 12165.585120390073, -1913.7116567744802, 0.148, 0.916, 0.436, 192.0, 0.0, 0.0, 0.0, 0.0, 0.0, 0.0, 0.0, 0.0, 0.0, 1.6546745231734908E9, 0.0, 2022-06-08 09:48:43.173
105.0, 24638.014988662602, 26669.118007316352, -9845.652859884842, -12996.578275749478, 5538.42699985826, 7767.9688057862295, 12154.945690029346, -1920.260717899885, 0.148, 0.916, 0.436, 192.0, 0.0, 0.0, 0.0, 0.0, 0.0, 0.0, 0.0, 0.0, 0.0, 1.654674523173495E9, 0.0, 2022-06-08 09:48:43.173
106.0, 24617.652549463815, 26666.078170070432, -9843.305926717036, -12988.062261112007, 5551.748639553623, 7779.7705268586315, 12189.054452068145, -1909.040142183321, 0.16, 0.922, 0.436, 192.0, 5.0, 0.0, 28.0, 208.0, 13.0, 160.0, 0.0, 0.0, 0.0, 1.654674523173499E9, 0.0, 2022-06-08 09:48:43.173
107.0, 24629.67778798077, 26686.552367991495, -9831.75007483364, -12972.438391737747, 5564.95852052671, 7798.098957311983, 12186.014614822223, -1864.3813567616173, 0.16, 0.922, 0.436, 192.0, 0.0, 0.0, 0.0, 0.0, 0.0, 0.0, 0.0, 0.0, 0.0, 1.6546745231735032E9, 0.0, 2022-06-08 09:48:43.173
108.0, 24625.654473978815, 26668.0451235825, -9840.154330748837, -12978.696880185233, 5560.644633846836, 7784.06206179405, 12196.810507394137, -1885.2802378273295, 0.16, 0.922, 0.436, 192.0, 0.0, 0.0, 0.0, 0.0, 0.0, 0.0, 0.0, 0.0, 0.0, 1.6546745231735075E9, 0.0, 2022-06-08 09:48:43.173
109.0, 24614.769174429082, 26652.577716419426, -9848.245662241658, -12983.435450009758, 5552.9109302653, 7780.910465825852, 12210.892106400981, -1909.1519009055974, 0.16, 0.922, 0.436, 192.0, 0.0, 0.0, 0.0, 0.0, 0.0, 0.0, 0.0, 0.0, 0.0, 1.6546745231735115E9, 0.0, 2022-06-08 09:48:43.173
110.0, 24634.528116527574, 26624.660387594748, -9865.747078150163, -13007.6200375104, 5541.556244082003, 7768.952282542263, 12191.22257128031, -1919.4337033550387, 0.16, 0.922, 0.436, 192.0, 0.0, 0.0, 0.0, 0.0, 0.0, 0.0, 0.0, 0.0, 0.0, 1.6546745231735156E9, 0.0, 2022-06-08 09:48:43.173
111.0, 24631.890610681847, 26648.621457650836, -9858.23689201318, -12987.861095411909, 5554.475552377171, 7777.535352413101, 12197.861039383537, -1909.6436392836142, 0.16, 0.922, 0.436, 192.0, 0.0, 0.0, 0.0, 0.0, 0.0, 0.0, 0.0, 0.0, 0.0, 1.6546745231735222E9, 0.0, 2022-06-08 09:48:43.173
112.0, 24583.990822314125, 26632.528201643017, -9841.696601116253, -12979.635653452357, 5573.563942142003, 7788.554762429567, 12245.649069028983, -1894.198583864997, 0.16, 0.922, 0.436, 192.0, 0.0, 0.0, 0.0, 0.0, 0.0, 0.0, 0.0, 0.0, 0.0, 1.6546745231735265E9, 0.0, 2022-06-08 09:48:43.173
113.0, 24576.145360010312, 26641.893582569788, -9827.615002109409, -12976.327595272971, 5578.503677666626, 7800.580000946522, 12275.443944387907, -1893.4833280424273, 0.16, 0.922, 0.436, 192.0, 0.0, 0.0, 0.0, 0.0, 0.0, 0.0, 0.0, 0.0, 0.0, 1.6546745231735303E9, 0.0, 2022-06-08 09:48:43.173
114.0, 24585.019002559067, 26643.74877735958, -9839.014391781617, -12982.384918020358, 5568.557151384014, 7787.772451373631, 12260.825903514136, -1915.4103893530835, 0.16, 0.922, 0.436, 192.0, 0.0, 0.0, 0.0, 0.0, 0.0, 0.0, 0.0, 0.0, 0.0, 1.6546745231735349E9, 0.0, 2022-06-08 09:48:43.173
115.0, 24590.137552039334, 26649.068492539944, -9851.352554720945, -12998.321711816992, 5560.532875124559, 7779.211733247249, 12226.583031008606, -1918.2490608989074, 0.16, 0.922, 0.436, 192.0, 0.0, 0.0, 0.0, 0.0, 0.0, 0.0, 0.0, 0.0, 0.0, 1.654674523173539E9, 0.0, 2022-06-08 09:48:43.173
116.0, 24621.58645648795, 26690.75449594909, -9841.89776681635, -12989.246903568139, 5567.372508927883, 7776.820096590531, 12215.697731458871, -1924.9769359799548, 0.15, 0.92, 0.434, 192.0, 4.0, 176.0, 28.0, 192.0, 13.0, 144.0, 0.0, 0.0, 0.0, 1.6546745231735432E9, 0.0, 2022-06-08 09:48:43.173
117.0, 24632.561163015507, 26683.065495856466, -9832.666496356309, -12974.606510949912, 5572.424003174782, 7797.83073637852, 12219.60928673855, -1884.0732436267429, 0.15, 0.92, 0.434, 192.0, 0.0, 0.0, 0.0, 0.0, 0.0, 0.0, 0.0, 0.0, 0.0, 1.6546745231735473E9, 0.0, 2022-06-08 09:48:43.173
118.0, 24621.988787888145, 26674.370667263353, -9825.84921429744, -12972.974833604674, 5578.414270688805, 7815.376855775936, 12225.331333319109, -1863.7331561724136, 0.15, 0.92, 0.434, 192.0, 0.0, 0.0, 0.0, 0.0, 0.0, 0.0, 0.0, 0.0, 0.0, 1.6546745231735513E9, 0.0, 2022-06-08 09:48:43.173
119.0, 24620.960607643203, 26677.164635320263, -9843.3729819504, -12992.33144430297, 5561.583407113959, 7789.49353569669, 12211.048568612166, -1943.618290855681, 0.15, 0.92, 0.434, 192.0, 0.0, 0.0, 0.0, 0.0, 0.0, 0.0, 0.0, 0.0, 0.0, 1.6546745231735556E9, 0.0, 2022-06-08 09:48:43.173
120.0, 24634.863392694402, 26681.009135366578, -9850.458484942734, -12997.360586805415, 5546.853607517911, 7779.949340814274, 12219.497528016273, -1959.1527532521193, 0.15, 0.92, 0.434, 192.0, 0.0, 0.0, 0.0, 0.0, 0.0, 0.0, 0.0, 0.0, 0.0, 1.6546745231735597E9, 0.0, 2022-06-08 09:48:43.173
121.0, 24645.72634049968, 26695.493065773615, -9836.734513847174, -12970.314976014493, 5558.342404167939, 7802.636361436411, 12234.696714245882, -1883.84972618219, 0.15, 0.92, 0.434, 192.0, 0.0, 0.0, 0.0, 0.0, 0.0, 0.0, 0.0, 0.0, 0.0, 1.654674523653499E9, 0.0, 2022-06-08 09:48:43.653
122.0, 24647.849756222935, 26719.074156173963, -9823.94931601874, -12957.954461330708, 5569.741793840146, 7822.417655279358, 12241.581051538116, -1796.3873501285734, 0.15, 0.92, 0.434, 192.0, 0.0, 0.0, 0.0, 0.0, 0.0, 0.0, 0.0, 0.0, 0.0, 1.6546745236536925E9, 0.0, 2022-06-08 09:48:43.653
123.0, 24657.349247616443, 26719.543542807525, -9819.724836316685, -12962.357754988403, 5575.843820076445, 7816.941477887807, 12226.292458330687, -1808.077312478699, 0.15, 0.92, 0.434, 192.0, 0.0, 0.0, 0.0, 0.0, 0.0, 0.0, 0.0, 0.0, 0.0, 1.6546745236536975E9, 0.0, 2022-06-08 09:48:43.653
124.0, 24641.479509053173, 26711.362804336884, -9833.046476012049, -12972.036060337552, 5561.449296647227, 7809.028960350628, 12204.566562720129, -1842.4766471954165, 0.15, 0.92, 0.434, 192.0, 0.0, 0.0, 0.0, 0.0, 0.0, 0.0, 0.0, 0.0, 0.0, 1.6546745236537025E9, 0.0, 2022-06-08 09:48:43.653
125.0, 24644.429939321275, 26711.362804336884, -9845.85402558494, -12982.630787209368, 5552.5085988651035, 7799.484765468213, 12192.161344547432, -1869.8575341531675, 0.15, 0.92, 0.434, 192.0, 0.0, 0.0, 0.0, 0.0, 0.0, 0.0, 0.0, 0.0, 0.0, 1.6546745236537085E9, 0.0, 2022-06-08 09:48:43.653
126.0, 24650.464910324208, 26710.155810136297, -9851.151389020848, -12989.805697179521, 5556.151933211319, 7793.405090976369, 12190.529667202196, -1887.9624471619663, 0.14, 0.9, 0.44, 192.0, 4.0, 96.0, 28.0, 32.0, 13.0, 192.0, 0.0, 0.0, 0.0, 1.6546745236537144E9, 0.0, 2022-06-08 09:48:43.653
127.0, 24652.431863836275, 26717.107202661897, -9842.635374383375, -12984.687147699255, 5561.941035025244, 7792.332207242514, 12192.720138158815, -1883.0674151262542, 0.14, 0.9, 0.44, 192.0, 0.0, 0.0, 0.0, 0.0, 0.0, 0.0, 0.0, 0.0, 0.0, 1.6546745236537187E9, 0.0, 2022-06-08 09:48:43.653
128.0, 24663.719494786204, 26728.394833611826, -9836.868624313907, -12983.726022687677, 5573.698052608735, 7790.0970327969835, 12217.150594848466, -1883.357987804173, 0.14, 0.9, 0.44, 192.0, 0.0, 0.0, 0.0, 0.0, 0.0, 0.0, 0.0, 0.0, 0.0, 1.6546745236537237E9, 0.0, 2022-06-08 09:48:43.653
129.0, 24657.058674938522, 26744.376330897372, -9840.958993549228, -12988.732813445666, 5569.1159449953975, 7788.107727540461, 12229.667571743437, -1897.193717622008, 0.14, 0.9, 0.44, 192.0, 0.0, 0.0, 0.0, 0.0, 0.0, 0.0, 0.0, 0.0, 0.0, 1.6546745236537297E9, 0.0, 2022-06-08 09:48:43.653
130.0, 24639.289038096555, 26736.821441271477, -9857.991022824172, -13005.29545608705, 5549.066430218987, 7774.96490180074, 12208.567524977629, -1897.7525112333908, 0.14, 0.9, 0.44, 192.0, 0.0, 0.0, 0.0, 0.0, 0.0, 0.0, 0.0, 0.0, 0.0, 1.654674523653736E9, 0.0, 2022-06-08 09:48:43.653
131.0, 24652.49891906964, 26725.66792078828, -9847.306888974535, -12988.084612856463, 5556.889540778344, 7782.497439682179, 12216.390635536985, -1883.357987804173, 0.14, 0.9, 0.44, 192.0, 0.0, 0.0, 0.0, 0.0, 0.0, 0.0, 0.0, 0.0, 0.0, 1.6546745236537404E9, 0.0, 2022-06-08 09:48:43.653
132.0, 24667.31812564351, 26729.423013856773, -9832.979420778684, -12974.561807461001, 5563.639767603847, 7800.803518391075, 12215.541269247684, -1883.4473947819943, 0.14, 0.9, 0.44, 192.0, 0.0, 0.0, 0.0, 0.0, 0.0, 0.0, 0.0, 0.0, 0.0, 1.6546745236537645E9, 0.0, 2022-06-08 09:48:43.653
133.0, 24663.674791297293, 26725.86908648838, -9837.60623188093, -12982.831952909464, 5569.630035117869, 7795.193230532794, 12207.539344732684, -1899.7194647454578, 0.14, 0.9, 0.44, 192.0, 0.0, 0.0, 0.0, 0.0, 0.0, 0.0, 0.0, 0.0, 0.0, 1.6546745236537688E9, 0.0, 2022-06-08 09:48:43.653
134.0, 24647.60388703393, 26720.750537008113, -9857.074601301503, -13001.160383362816, 5553.693241321235, 7769.10874475345, 12189.412079979431, -1941.5395786213373, 0.14, 0.9, 0.44, 192.0, 0.0, 0.0, 0.0, 0.0, 0.0, 0.0, 0.0, 0.0, 0.0, 1.6546745236537743E9, 0.0, 2022-06-08 09:48:43.653
135.0, 24641.479509053173, 26728.797165012023, -9875.581845710498, -13008.201182866238, 5533.107284677897, 7760.503323138157, 12166.188617490367, -1939.4832181314491, 0.14, 0.9, 0.44, 192.0, 0.0, 0.0, 0.0, 0.0, 0.0, 0.0, 0.0, 0.0, 0.0, 1.6546745236537788E9, 0.0, 2022-06-08 09:48:43.653
136.0, 24677.84579728196, 26744.868069275388, -9859.108610046937, -12988.352833789926, 5546.808904029001, 7785.090242038995, 12166.45683842383, -1893.9974181648993, 0.11800000000000001, 0.894, 0.44, 192.0, 3.0, 176.0, 27.0, 240.0, 13.0, 192.0, 0.0, 0.0, 0.0, 1.6546745236537833E9, 0.0, 2022-06-08 09:48:43.653
137.0, 24698.431753925295, 26753.58524961296, -9832.219461467203, -12960.055525309506, 5573.608645630914, 7818.371989532947, 12213.998998880268, -1834.1617982580422, 0.11800000000000001, 0.894, 0.44, 192.0, 0.0, 0.0, 0.0, 0.0, 0.0, 0.0, 0.0, 0.0, 0.0, 1.6546745236537874E9, 0.0, 2022-06-08 09:48:43.653
138.0, 24689.379297420895, 26748.466700132692, -9836.913327802817, -12967.588063190946, 5570.702918851724, 7806.234992293716, 12208.79104242218, -1849.7633158878466, 0.11800000000000001, 0.894, 0.44, 192.0, 0.0, 0.0, 0.0, 0.0, 0.0, 0.0, 0.0, 0.0, 0.0, 1.6546745236537914E9, 0.0, 2022-06-08 09:48:43.653
139.0, 24678.69516357126, 26735.502688348617, -9853.163046021826, -12987.27995005607, 5547.52415985157, 7785.358462972458, 12178.750297874249, -1893.3492175756953, 0.11800000000000001, 0.894, 0.44, 192.0, 0.0, 0.0, 0.0, 0.0, 0.0, 0.0, 0.0, 0.0, 0.0, 1.654674523653796E9, 0.0, 2022-06-08 09:48:43.653
140.0, 24667.69810529925, 26732.216981913687, -9857.588691423976, -12989.984511135162, 5545.333688894951, 7796.064948566551, 12168.60260589154, -1917.1761771650526, 0.11800000000000001, 0.894, 0.44, 192.0, 0.0, 0.0, 0.0, 0.0, 0.0, 0.0, 0.0, 0.0, 0.0, 1.6546745236538007E9, 0.0, 2022-06-08 09:48:43.653
141.0, 24659.807939506525, 26734.00512147011, -9856.582862923487, -12989.090441356951, 5551.882750020355, 7791.236971764204, 12188.160382289932, -1931.8836250166448, 0.11800000000000001, 0.894, 0.44, 192.0, 0.0, 0.0, 0.0, 0.0, 0.0, 0.0, 0.0, 0.0, 0.0, 1.654674523653805E9, 0.0, 2022-06-08 09:48:43.653
142.0, 24683.45608514024, 26756.155700225318, -9839.215557481713, -12961.955423588208, 5558.409459401305, 7791.929875842318, 12198.531591717196, -1922.3170783897733, 0.11800000000000001, 0.894, 0.44, 192.0, 0.0, 0.0, 0.0, 0.0, 0.0, 0.0, 0.0, 0.0, 0.0, 1.6546745236538093E9, 0.0, 2022-06-08 09:48:43.653
143.0, 24695.83895156848, 26753.227621701673, -9837.494473158655, -12956.702763641211, 5554.810828544, 7792.332207242514, 12175.151667016944, -1886.1743076055418, 0.11800000000000001, 0.894, 0.44, 192.0, 0.0, 0.0, 0.0, 0.0, 0.0, 0.0, 0.0, 0.0, 0.0, 1.654674523653814E9, 0.0, 2022-06-08 09:48:43.653
144.0, 24687.613509608927, 26744.9127727643, -9847.888034330374, -12968.70565041371, 5543.612604571892, 7781.581018159512, 12165.965100045813, -1903.7204270029579, 0.11800000000000001, 0.894, 0.44, 192.0, 0.0, 0.0, 0.0, 0.0, 0.0, 0.0, 0.0, 0.0, 0.0, 1.6546745236538188E9, 0.0, 2022-06-08 09:48:43.653
145.0, 24682.383201406385, 26745.940953009245, -9846.61398489642, -12973.891255127342, 5543.657308060802, 7788.644169407388, 12190.59672243556, -1916.5056248313936, 0.11800000000000001, 0.894, 0.44, 192.0, 0.0, 0.0, 0.0, 0.0, 0.0, 0.0, 0.0, 0.0, 0.0, 1.6546745236538231E9, 0.0, 2022-06-08 09:48:43.653
146.0, 24680.617413594417, 26754.233450202162, -9838.701467359242, -12968.012746335597, 5554.3861453993495, 7797.987198589707, 12229.891089187991, -1873.3444062881956, 0.106, 0.914, 0.442, 192.0, 3.0, 80.0, 28.0, 144.0, 13.0, 208.0, 0.0, 0.0, 0.0, 1.6546745236538277E9, 0.0, 2022-06-08 09:48:43.653
147.0, 24676.102361214445, 26750.254839689118, -9837.785045836574, -12969.197388791728, 5555.257863433107, 7790.54406768609, 12223.36437980704, -1865.3871852621062, 0.106, 0.914, 0.442, 192.0, 0.0, 0.0, 0.0, 0.0, 0.0, 0.0, 0.0, 0.0, 0.0, 1.654674523653834E9, 0.0, 2022-06-08 09:48:43.653
148.0, 24675.811788536525, 26747.930258265766, -9836.71216210272, -12961.08370555445, 5550.698107564224, 7785.067890294539, 12189.926170101902, -1897.9536769334886, 0.106, 0.914, 0.442, 192.0, 0.0, 0.0, 0.0, 0.0, 0.0, 0.0, 0.0, 0.0, 0.0, 1.6546745236538403E9, 0.0, 2022-06-08 09:48:43.653
149.0, 24674.291869913563, 26737.022606971575, -9853.453618699745, -12983.010766865107, 5529.866281731878, 7771.969768043729, 12158.20904471982, -1911.3423718622175, 0.106, 0.914, 0.442, 192.0, 0.0, 0.0, 0.0, 0.0, 0.0, 0.0, 0.0, 0.0, 0.0, 1.6546745236538465E9, 0.0, 2022-06-08 09:48:43.653
150.0, 24673.487207113172, 26732.44049935824, -9863.08722055998, -12982.653138953823, 5529.821578242967, 7776.618930890433, 12181.901893842447, -1907.9002032161002, 0.106, 0.914, 0.442, 192.0, 0.0, 0.0, 0.0, 0.0, 0.0, 0.0, 0.0, 0.0, 0.0, 1.6546745236538506E9, 0.0, 2022-06-08 09:48:43.653
151.0, 24699.772858592616, 26759.217889215695, -9839.260260970625, -12949.304336226503, 5559.236473946152, 7799.484765468213, 12209.193373822376, -1875.6466359670922, 0.106, 0.914, 0.442, 192.0, 0.0, 0.0, 0.0, 0.0, 0.0, 0.0, 0.0, 0.0, 0.0, 1.65467452365386E9, 0.0, 2022-06-08 09:48:43.653
152.0, 24700.868094070924, 26768.53856665356, -9826.832691053474, -12942.129426256352, 5568.378337428372, 7803.329265514525, 12221.50918501725, -1858.4804962254163, 0.106, 0.914, 0.442, 192.0, 0.0, 0.0, 0.0, 0.0, 0.0, 0.0, 0.0, 0.0, 0.0, 1.6546745236538656E9, 0.0, 2022-06-08 09:48:43.653
153.0, 24696.040117268578, 26771.220775988197, -9825.759807319619, -12947.359734458892, 5561.225779202674, 7799.998855590685, 12229.734626976804, -1866.8400486517012, 0.106, 0.914, 0.442, 192.0, 0.0, 0.0, 0.0, 0.0, 0.0, 0.0, 0.0, 0.0, 0.0, 1.65467452365387E9, 0.0, 2022-06-08 09:48:43.653
154.0, 24683.433733395785, 26759.620220615892, -9838.3214877035, -12954.668754895778, 5542.539720838037, 7791.058157808561, 12198.106908572545, -1886.4648802834608, 0.106, 0.914, 0.442, 192.0, 0.0, 0.0, 0.0, 0.0, 0.0, 0.0, 0.0, 0.0, 0.0, 1.6546745236538787E9, 0.0, 2022-06-08 09:48:43.653
155.0, 24674.291869913563, 26743.415205885794, -9857.923967590807, -12973.37716500487, 5523.630145028847, 7764.6830993512995, 12168.490847169263, -1928.8214360262677, 0.106, 0.914, 0.442, 192.0, 0.0, 0.0, 0.0, 0.0, 0.0, 0.0, 0.0, 0.0, 0.0, 1.6546745236538832E9, 0.0, 2022-06-08 09:48:43.653
156.0, 24686.85355029745, 26752.244144945642, -9850.682002387286, -12968.638595180344, 5540.058677203498, 7774.853143078464, 12190.999053835756, -1924.9992877244101, 0.108, 0.92, 0.45, 192.0, 3.0, 96.0, 28.0, 192.0, 14.0, 16.0, 0.0, 0.0, 0.0, 1.654674523653888E9, 0.0, 2022-06-08 09:48:43.653
157.0, 24704.08674527249, 26772.986563800165, -9838.030915025582, -12954.400533962315, 5560.935206524755, 7793.561553187556, 12210.22155406732, -1910.6047642951924, 0.108, 0.92, 0.45, 192.0, 0.0, 0.0, 0.0, 0.0, 0.0, 0.0, 0.0, 0.0, 0.0, 1.6546745236538928E9, 0.0, 2022-06-08 09:48:43.653
158.0, 24706.56778890703, 26773.72417136719, -9844.624679639897, -12951.740676372132, 5553.2685581765845, 7793.472146209735, 12196.207010293843, -1920.037200455332, 0.108, 0.92, 0.45, 192.0, 0.0, 0.0, 0.0, 0.0, 0.0, 0.0, 0.0, 0.0, 0.0, 1.6546745236538975E9, 0.0, 2022-06-08 09:48:43.653
159.0, 24700.823390582013, 26751.77475831208, -9867.490514217678, -12969.130333558362, 5528.659287531292, 7774.830791334009, 12163.1711319889, -1937.8068372973012, 0.108, 0.92, 0.45, 192.0, 0.0, 0.0, 0.0, 0.0, 0.0, 0.0, 0.0, 0.0, 0.0, 1.6546745236539032E9, 0.0, 2022-06-08 09:48:43.653
160.0, 24695.570730635016, 26756.021589758588, -9872.005566597649, -12970.359679503403, 5531.229738143652, 7772.01447153264, 12148.776608559681, -1918.517281832371, 0.108, 0.92, 0.45, 192.0, 0.0, 0.0, 0.0, 0.0, 0.0, 0.0, 0.0, 0.0, 0.0, 1.6546745236539078E9, 0.0, 2022-06-08 09:48:43.653
161.0, 24688.55228287605, 26765.521081152092, -9869.815095641028, -12970.829066136965, 5539.09755219192, 7776.238951234693, 12155.593890618551, -1901.8875839576226, 0.108, 0.92, 0.45, 192.0, 0.0, 0.0, 0.0, 0.0, 0.0, 0.0, 0.0, 0.0, 0.0, 1.654674523653912E9, 0.0, 2022-06-08 09:48:43.653
162.0, 24690.78745732158, 26764.49290090715, -9853.632432655386, -12956.099266540918, 5555.548436111026, 7799.887096868408, 12208.165193577433, -1856.8041153912684, 0.108, 0.92, 0.45, 192.0, 0.0, 0.0, 0.0, 0.0, 0.0, 0.0, 0.0, 0.0, 0.0, 1.654674523653917E9, 0.0, 2022-06-08 09:48:43.653
163.0, 24685.40068690785, 26758.927316537778, -9857.432229212789, -12955.51812118508, 5554.654366332814, 7796.489631711202, 12243.346839350086, -1847.7293071424137, 0.108, 0.92, 0.45, 192.0, 0.0, 0.0, 0.0, 0.0, 0.0, 0.0, 0.0, 0.0, 0.0, 1.6546745236539214E9, 0.0, 2022-06-08 09:48:43.653
164.0, 24696.800076580057, 26766.01281953011, -9866.350575250457, -12959.988470076141, 5542.1150376933865, 7780.172858258827, 12230.226365354822, -1865.945978873489, 0.108, 0.92, 0.45, 192.0, 0.0, 0.0, 0.0, 0.0, 0.0, 0.0, 0.0, 0.0, 0.0, 1.654674523653926E9, 0.0, 2022-06-08 09:48:43.653
165.0, 24671.184977434277, 26748.399644899328, -9875.581845710498, -12973.935958616252, 5533.107284677897, 7771.321567454525, 12215.831841925603, -1864.6272259506259, 0.108, 0.92, 0.45, 192.0, 0.0, 0.0, 0.0, 0.0, 0.0, 0.0, 0.0, 0.0, 0.0, 1.654674523653932E9, 0.0, 2022-06-08 09:48:43.653
166.0, 24659.986753462166, 26735.592095326436, -9869.502171218655, -12969.532664958557, 5544.730191794657, 7775.344881456481, 12224.526670518717, -1869.6340167086146, 0.11, 0.916, 0.45, 192.0, 3.0, 112.0, 28.0, 160.0, 14.0, 16.0, 0.0, 0.0, 0.0, 1.654674523653938E9, 0.0, 2022-06-08 09:48:43.653
167.0, 24684.059582240534, 26757.742674081645, -9847.955089563739, -12949.684315882245, 5564.086802492953, 7789.82881186352, 12243.816225983648, -1862.4144032495503, 0.11, 0.916, 0.45, 192.0, 0.0, 0.0, 0.0, 0.0, 0.0, 0.0, 0.0, 0.0, 0.0, 1.6546745236539435E9, 0.0, 2022-06-08 09:48:43.653
168.0, 24690.251015454654, 26763.151796239832, -9846.837502340974, -12953.081781039451, 5564.57854087097, 7787.213657762249, 12237.222461369332, -1870.617493464648, 0.11, 0.916, 0.45, 192.0, 0.0, 0.0, 0.0, 0.0, 0.0, 0.0, 0.0, 0.0, 0.0, 1.6546745236539483E9, 0.0, 2022-06-08 09:48:43.653
169.0, 24670.559128589528, 26744.48808961965, -9873.212560798236, -12983.301339543026, 5538.784627769545, 7759.586901615489, 12203.247809797265, -1904.2121653809745, 0.11, 0.916, 0.45, 192.0, 0.0, 0.0, 0.0, 0.0, 0.0, 0.0, 0.0, 0.0, 0.0, 1.654674523653954E9, 0.0, 2022-06-08 09:48:43.653
170.0, 24674.716553058213, 26741.694121562734, -9877.057060844549, -12979.836819152453, 5537.041191702032, 7756.502360880657, 12191.736661402781, -1907.3190578602623, 0.11, 0.916, 0.45, 192.0, 0.0, 0.0, 0.0, 0.0, 0.0, 0.0, 0.0, 0.0, 0.0, 1.6546745236539598E9, 0.0, 2022-06-08 09:48:43.653
171.0, 24694.40843992334, 26756.96036302571, -9870.798572397063, -12966.559882946001, 5547.255938918107, 7769.756945342654, 12190.663777668928, -1905.843842726212, 0.11, 0.916, 0.45, 192.0, 0.0, 0.0, 0.0, 0.0, 0.0, 0.0, 0.0, 0.0, 0.0, 1.6546745236539652E9, 0.0, 2022-06-08 09:48:43.653
172.0, 24713.966216321733, 26779.24505224765, -9855.554682678543, -12955.629879907356, 5561.404593158316, 7784.06206179405, 12202.465498741329, -1901.4852525574272, 0.11, 0.916, 0.45, 192.0, 0.0, 0.0, 0.0, 0.0, 0.0, 0.0, 0.0, 0.0, 0.0, 1.6546745236539702E9, 0.0, 2022-06-08 09:48:43.653
173.0, 24708.780611608105, 26774.752351612136, -9853.43126695529, -12949.885481582342, 5559.705860579713, 7775.948378556774, 12213.216687824332, -1913.2869736298292, 0.11, 0.916, 0.45, 192.0, 0.0, 0.0, 0.0, 0.0, 0.0, 0.0, 0.0, 0.0, 0.0, 1.6546745236539748E9, 0.0, 2022-06-08 09:48:43.653
174.0, 24691.703878844248, 26756.423921158785, -9864.629490927398, -12962.648327666322, 5547.546511596026, 7760.369212671425, 12201.482021985295, -1934.297613417818, 0.11, 0.916, 0.45, 192.0, 0.0, 0.0, 0.0, 0.0, 0.0, 0.0, 0.0, 0.0, 0.0, 1.6546745236539812E9, 0.0, 2022-06-08 09:48:43.653
175.0, 24673.800131535547, 26735.90501974881, -9888.76937493913, -12985.067127354996, 5524.412456084783, 7738.598613571956, 12163.93109130038, -1885.5261070163378, 0.11, 0.916, 0.45, 192.0, 0.0, 0.0, 0.0, 0.0, 0.0, 0.0, 0.0, 0.0, 0.0, 1.6546745236539903E9, 0.0, 2022-06-08 09:48:43.653
176.0, 24678.538701360074, 26733.803955770014, -9882.24266555818, -12974.42769699427, 5525.3288776074505, 7748.098104965461, 12166.434486679374, -1886.0178453943547, 0.11, 0.918, 0.458, 192.0, 3.0, 112.0, 28.0, 176.0, 14.0, 80.0, 0.0, 0.0, 0.0, 1.6546745236539955E9, 0.0, 2022-06-08 09:48:43.653
177.0, 24697.090649257978, 26768.96324979821, -9849.385601208878, -12946.912699569786, 5550.586348841947, 7784.084413538506, 12193.0777660701, -1891.13639487462, 0.11, 0.918, 0.458, 192.0, 0.0, 0.0, 0.0, 0.0, 0.0, 0.0, 0.0, 0.0, 0.0, 1.6546745236539996E9, 0.0, 2022-06-08 09:48:43.653
178.0, 24705.494905173175, 26790.264462264116, -9848.782104108584, -12944.543414657524, 5554.162627954796, 7788.420651962835, 12184.293530499164, -1891.002284407888, 0.11, 0.918, 0.458, 192.0, 0.0, 0.0, 0.0, 0.0, 0.0, 0.0, 0.0, 0.0, 0.0, 1.6546745236540043E9, 0.0, 2022-06-08 09:48:43.654
179.0, 24707.21598949623, 26764.67171486279, -9858.750982135653, -12963.050659066517, 5543.322031893973, 7774.339052955992, 12241.84927247158, -1895.651447254592, 0.11, 0.918, 0.458, 192.0, 0.0, 0.0, 0.0, 0.0, 0.0, 0.0, 0.0, 0.0, 0.0, 1.6546745236540093E9, 0.0, 2022-06-08 09:48:43.654
180.0, 24680.304489172042, 26744.890421019845, -9874.643072443376, -12982.04964185353, 5527.787569497535, 7763.632567361899, 12243.682115516916, -1905.9332497040332, 0.11, 0.918, 0.458, 192.0, 0.0, 0.0, 0.0, 0.0, 0.0, 0.0, 0.0, 0.0, 0.0, 1.6546745236540143E9, 0.0, 2022-06-08 09:48:43.654
181.0, 24669.419189622306, 26746.745615809636, -9873.503133476155, -12976.551112717523, 5533.420209100272, 7766.292424952081, 12218.84932742707, -1877.1889063345084, 0.11, 0.918, 0.458, 192.0, 0.0, 0.0, 0.0, 0.0, 0.0, 0.0, 0.0, 0.0, 0.0, 1.6546745236540203E9, 0.0, 2022-06-08 09:48:43.654
182.0, 24696.50950390214, 26774.01474404511, -9847.888034330374, -12943.537586157036, 5561.963386769698, 7796.601390433478, 12254.813284255659, -1849.4503914654722, 0.11, 0.918, 0.458, 192.0, 0.0, 0.0, 0.0, 0.0, 0.0, 0.0, 0.0, 0.0, 0.0, 1.654674523654026E9, 0.0, 2022-06-08 09:48:43.654
183.0, 24696.68831785778, 26775.914642323813, -9855.129999533892, -12951.964193816686, 5555.9731192556765, 7791.885172353408, 12256.333202878619, -1881.167516847553, 0.11, 0.918, 0.458, 192.0, 0.0, 0.0, 0.0, 0.0, 0.0, 0.0, 0.0, 0.0, 0.0, 1.6546745236540322E9, 0.0, 2022-06-08 09:48:43.654
184.0, 24692.79911432256, 26771.846624832946, -9862.57313043751, -12969.42090623628, 5539.969270225677, 7777.021262290628, 12222.984400151301, -1903.9886479364216, 0.11, 0.918, 0.458, 192.0, 0.0, 0.0, 0.0, 0.0, 0.0, 0.0, 0.0, 0.0, 0.0, 1.654674523654038E9, 0.0, 2022-06-08 09:48:43.654
185.0, 24676.75056180365, 26756.53567988106, -9884.09786034797, -12988.196371578739, 5522.825482228456, 7769.265206964637, 12205.728853431805, -1886.8672116836563, 0.092, 0.918, 0.456, 192.0, 2.0, 224.0, 28.0, 176.0, 14.0, 64.0, 0.0, 0.0, 0.0, 1.6546745236540434E9, 0.0, 2022-06-08 09:48:43.654
186.0, 24691.480361399696, 26763.10709275092, -9881.460354502244, -12980.529723230567, 5530.402723598805, 7768.482895908702, 12218.446996026874, -1872.6067987211704, 0.092, 0.918, 0.456, 192.0, 0.0, 0.0, 0.0, 0.0, 0.0, 0.0, 0.0, 0.0, 0.0, 1.6546745236540487E9, 0.0, 2022-06-08 09:48:43.654
187.0, 24705.964291806733, 26767.309220708517, -9870.306834019046, -12975.813505150498, 5538.672869047269, 7770.3157389540365, 12231.075731644123, -1876.0266156228324, 0.092, 0.918, 0.456, 192.0, 0.0, 0.0, 0.0, 0.0, 0.0, 0.0, 0.0, 0.0, 0.0, 1.654674523654054E9, 0.0, 2022-06-08 09:48:43.654
188.0, 24697.627091124905, 26768.359752697917, -9862.90840660434, -12972.259577782104, 5544.529026094559, 7777.11066926845, 12241.581051538116, -1866.3483102736843, 0.092, 0.918, 0.456, 192.0, 0.0, 0.0, 0.0, 0.0, 0.0, 0.0, 0.0, 0.0, 0.0, 1.6546745236540587E9, 0.0, 2022-06-08 09:48:43.654
189.0, 24675.342401902963, 26759.687275849257, -9877.951130622761, -12988.911627401309, 5533.129636422353, 7769.10874475345, 12216.815318681636, -1902.4910810579158, 0.092, 0.918, 0.456, 192.0, 0.0, 0.0, 0.0, 0.0, 0.0, 0.0, 0.0, 0.0, 0.0, 1.6546745236540637E9, 0.0, 2022-06-08 09:48:43.654
190.0, 24658.31037262802, 26739.57070583948, -9898.045348888081, -13006.591857265455, 5516.097607147409, 7743.001907229652, 12194.1282980595, -1946.7028315905134, 0.092, 0.918, 0.456, 192.0, 0.0, 0.0, 0.0, 0.0, 0.0, 0.0, 0.0, 0.0, 0.0, 1.6546745236540687E9, 0.0, 2022-06-08 09:48:43.654
191.0, 24666.51346284312, 26741.984694240655, -9886.042462115582, -12993.806659437021, 5524.077179917954, 7752.747267812165, 12205.527687731706, -1906.1567671485864, 0.092, 0.918, 0.456, 192.0, 0.0, 0.0, 0.0, 0.0, 0.0, 0.0, 0.0, 0.0, 0.0, 1.6546745236540732E9, 0.0, 2022-06-08 09:48:43.654
192.0, 24689.93809103228, 26761.7659880836, -9865.367098494424, -12973.310109771504, 5541.846816759922, 7777.088317523995, 12216.860022170547, -1883.1568221040754, 0.092, 0.918, 0.456, 192.0, 0.0, 0.0, 0.0, 0.0, 0.0, 0.0, 0.0, 0.0, 0.0, 1.6546745236540778E9, 0.0, 2022-06-08 09:48:43.654
193.0, 24692.016803266622, 26762.324781694984, -9867.222293284214, -12981.446144753236, 5533.867243989378, 7773.668500622332, 12200.789117907181, -1908.3025346162958, 0.092, 0.918, 0.456, 192.0, 0.0, 0.0, 0.0, 0.0, 0.0, 0.0, 0.0, 0.0, 0.0, 1.6546745236540823E9, 0.0, 2022-06-08 09:48:43.654
194.0, 24672.861358268423, 26749.62899084437, -9884.947226637272, -12996.757089705121, 5517.885746703833, 7743.359535140937, 12196.810507394137, -1949.0721165027758, 0.092, 0.918, 0.456, 192.0, 0.0, 0.0, 0.0, 0.0, 0.0, 0.0, 0.0, 0.0, 0.0, 1.6546745236540864E9, 0.0, 2022-06-08 09:48:43.654
195.0, 24675.856492025436, 26752.065330989997, -9879.42634575681, -12988.419889023291, 5528.011086942088, 7747.874587520909, 12202.577257463607, -1912.2811451293405, 0.092, 0.918, 0.458, 192.0, 2.0, 224.0, 28.0, 176.0, 14.0, 80.0, 0.0, 0.0, 0.0, 1.654674523654091E9, 0.0, 2022-06-08 09:48:43.654
196.0, 24667.78751227707, 26748.10907222141, -9884.4331365148, -12992.376147791882, 5524.14423515132, 7755.697698080266, 12189.903818357447, -1879.6923017135027, 0.092, 0.918, 0.458, 192.0, 0.0, 0.0, 0.0, 0.0, 0.0, 0.0, 0.0, 0.0, 0.0, 1.6546745236540985E9, 0.0, 2022-06-08 09:48:43.654
197.0, 24679.522178116105, 26756.334514180962, -9881.90738939135, -12987.6152262229, 5525.820615985467, 7759.832770804498, 12198.375129506008, -1870.818659164746, 0.092, 0.918, 0.458, 192.0, 0.0, 0.0, 0.0, 0.0, 0.0, 0.0, 0.0, 0.0, 0.0, 1.654674523654103E9, 0.0, 2022-06-08 09:48:43.654
198.0, 24694.117867245423, 26765.498729407638, -9868.205770040247, -12973.7124411717, 5537.488226591137, 7764.079602251006, 12219.139900104989, -1868.717595185947, 0.092, 0.918, 0.458, 192.0, 0.0, 0.0, 0.0, 0.0, 0.0, 0.0, 0.0, 0.0, 0.0, 1.6546745236541073E9, 0.0, 2022-06-08 09:48:43.654
199.0, 24674.44833212475, 26752.445310645737, -9876.47591548871, -12986.609397722412, 5530.089799176431, 7743.001907229652, 12212.479080257306, -1906.6708572710584, 0.092, 0.918, 0.458, 192.0, 0.0, 0.0, 0.0, 0.0, 0.0, 0.0, 0.0, 0.0, 0.0, 1.6546745236541116E9, 0.0, 2022-06-08 09:48:43.654
200.0, 24665.21706166471, 26748.936086766254, -9885.506020248655, -12998.18760135026, 5524.814787484978, 7744.767695041621, 12202.286684785688, -1910.9847439509326, 0.092, 0.918, 0.458, 192.0, 0.0, 0.0, 0.0, 0.0, 0.0, 0.0, 0.0, 0.0, 0.0, 1.6546745236541162E9, 0.0, 2022-06-08 09:48:43.654
201.0, 24685.579500863496, 26754.993409513645, -9878.331110278501, -12985.223589566183, 5534.537796323037, 7775.993082045685, 12197.481059727796, -1882.5980284926927, 0.092, 0.918, 0.458, 192.0, 0.0, 0.0, 0.0, 0.0, 0.0, 0.0, 0.0, 0.0, 0.0, 1.6546745236541207E9, 0.0, 2022-06-08 09:48:43.654
202.0, 24699.772858592616, 26761.028380516575, -9871.558531708542, -12980.350909274926, 5535.387162612339, 7777.0659657795395, 12190.350853246553, -1898.0430839113099, 0.092, 0.918, 0.458, 192.0, 0.0, 0.0, 0.0, 0.0, 0.0, 0.0, 0.0, 0.0, 0.0, 1.6546745236541257E9, 0.0, 2022-06-08 09:48:43.654
203.0, 24684.663079340826, 26756.714493836702, -9873.592540453976, -12983.837781409953, 5528.502825320104, 7765.532465640601, 12169.720193114304, -1900.6582380125808, 0.092, 0.918, 0.458, 192.0, 0.0, 0.0, 0.0, 0.0, 0.0, 0.0, 0.0, 0.0, 0.0, 1.6546745236541297E9, 0.0, 2022-06-08 09:48:43.654
204.0, 24659.763236017614, 26746.611505342902, -9885.774241182118, -12994.991301893151, 5519.897403704811, 7747.092276464972, 12187.1769055339, -1910.6047642951924, 0.092, 0.918, 0.458, 192.0, 0.0, 0.0, 0.0, 0.0, 0.0, 0.0, 0.0, 0.0, 0.0, 1.654674523654134E9, 0.0, 2022-06-08 09:48:43.654
205.0, 24655.65051503784, 26734.519211592582, -9892.747985452173, -13006.390691565359, 5520.746769994113, 7729.657915789833, 12218.491699515784, -1939.8184942982787, 0.082, 0.916, 0.45, 192.0, 2.0, 144.0, 28.0, 160.0, 14.0, 16.0, 0.0, 0.0, 0.0, 1.6546745236541388E9, 0.0, 2022-06-08 09:48:43.654
206.0, 24665.150006431344, 26749.405473399816, -9886.489497004688, -12993.158458847816, 5526.424113085761, 7752.568453856523, 12215.809490181147, -1913.3093253742845, 0.082, 0.916, 0.45, 192.0, 0.0, 0.0, 0.0, 0.0, 0.0, 0.0, 0.0, 0.0, 0.0, 1.654674523654143E9, 0.0, 2022-06-08 09:48:43.654
207.0, 24683.098457228956, 26772.96421205571, -9869.435115985289, -12970.80671439251, 5551.368659897883, 7776.3060064680585, 12241.178720137921, -1864.940150373, 0.082, 0.916, 0.45, 192.0, 0.0, 0.0, 0.0, 0.0, 0.0, 0.0, 0.0, 0.0, 0.0, 1.6546745236541476E9, 0.0, 2022-06-08 09:48:43.654
208.0, 24677.085837970477, 26771.086665521463, -9875.984177110693, -12974.494752227636, 5544.640784816836, 7781.960997815251, 12246.744304507292, -1865.7224614289357, 0.082, 0.916, 0.45, 192.0, 0.0, 0.0, 0.0, 0.0, 0.0, 0.0, 0.0, 0.0, 0.0, 1.6546745236541517E9, 0.0, 2022-06-08 09:48:43.654
209.0, 24659.02562845059, 26759.32964793797, -9891.898619162872, -12990.85622916892, 5525.932374707744, 7768.929930797807, 12221.41977803943, -1870.4163277645503, 0.082, 0.916, 0.45, 192.0, 0.0, 0.0, 0.0, 0.0, 0.0, 0.0, 0.0, 0.0, 0.0, 1.6546745236541564E9, 0.0, 2022-06-08 09:48:43.654
210.0, 24666.64757330985, 26753.272325190585, -9890.266941817636, -12988.844572167942, 5524.323049106962, 7758.581073115, 12217.597629737573, -1876.5630574897598, 0.082, 0.916, 0.45, 192.0, 0.0, 0.0, 0.0, 0.0, 0.0, 0.0, 0.0, 0.0, 0.0, 1.6546745236541605E9, 0.0, 2022-06-08 09:48:43.654
211.0, 24666.289945398563, 26746.902078020823, -9896.01134014265, -12991.750298947132, 5520.9032322053, 7748.411029387836, 12208.835745911092, -1906.0226566818544, 0.082, 0.916, 0.45, 192.0, 0.0, 0.0, 0.0, 0.0, 0.0, 0.0, 0.0, 0.0, 0.0, 1.6546745236541648E9, 0.0, 2022-06-08 09:48:43.654
212.0, 24686.473570641705, 26766.77277884159, -9883.3826045254, -12983.90483664332, 5541.28802314854, 7755.541235869078, 12216.010655881246, -1927.8379592702343, 0.082, 0.916, 0.45, 192.0, 0.0, 0.0, 0.0, 0.0, 0.0, 0.0, 0.0, 0.0, 0.0, 1.654674523654169E9, 0.0, 2022-06-08 09:48:43.654
213.0, 24692.7767625781, 26772.092494021952, -9868.76456365163, -12969.197388791728, 5548.2841191630505, 7769.756945342654, 12232.193318866888, -1902.8263572247456, 0.082, 0.916, 0.45, 192.0, 0.0, 0.0, 0.0, 0.0, 0.0, 0.0, 0.0, 0.0, 0.0, 1.6546745236541739E9, 0.0, 2022-06-08 09:48:43.654
214.0, 24674.49303561366, 26765.29756370754, -9878.487572489688, -12979.590949963445, 5534.627203300858, 7757.329375425503, 12215.854193670059, -1890.8234704522456, 0.082, 0.916, 0.45, 192.0, 0.0, 0.0, 0.0, 0.0, 0.0, 0.0, 0.0, 0.0, 0.0, 1.654674523654178E9, 0.0, 2022-06-08 09:48:43.654
215.0, 24656.49988132714, 26752.937049023756, -9897.307741321058, -12999.774575206588, 5515.404703069295, 7745.952337497752, 12193.435393981385, -1896.23259261043, 0.082, 0.914, 0.448, 192.0, 2.0, 144.0, 28.0, 144.0, 14.0, 0.0, 0.0, 0.0, 0.0, 1.6546745236541872E9, 0.0, 2022-06-08 09:48:43.654
216.0, 24661.394913362852, 26750.657171089315, -9900.057005889059, -13000.288665329059, 5519.204499626697, 7745.080619463995, 12203.806603408648, -1881.5698482477485, 0.082, 0.914, 0.448, 192.0, 0.0, 0.0, 0.0, 0.0, 0.0, 0.0, 0.0, 0.0, 0.0, 1.6546745236541917E9, 0.0, 2022-06-08 09:48:43.654
217.0, 24676.772913548102, 26770.527871910082, -9883.67317720332, -12975.47822898367, 5535.208348656696, 7760.503323138157, 12211.249734312265, -1878.0606243682653, 0.082, 0.914, 0.448, 192.0, 0.0, 0.0, 0.0, 0.0, 0.0, 0.0, 0.0, 0.0, 0.0, 1.6546745236541967E9, 0.0, 2022-06-08 09:48:43.654
218.0, 24690.094553243467, 26784.67652615029, -9875.42538349931, -12966.559882946001, 5540.461008603694, 7766.135962740895, 12211.473251756817, -1877.0324441233213, 0.082, 0.914, 0.448, 192.0, 0.0, 0.0, 0.0, 0.0, 0.0, 0.0, 0.0, 0.0, 0.0, 1.6546745236542056E9, 0.0, 2022-06-08 09:48:43.654
219.0, 24695.593082379473, 26778.90977608082, -9883.919046392328, -12978.071031340485, 5537.488226591137, 7755.049497491062, 12203.247809797265, -1895.4502815544943, 0.082, 0.914, 0.448, 192.0, 0.0, 0.0, 0.0, 0.0, 0.0, 0.0, 0.0, 0.0, 0.0, 1.6546745236542103E9, 0.0, 2022-06-08 09:48:43.654
220.0, 24684.685431085283, 26764.96228754071, -9900.280523333613, -12993.404328036826, 5522.959592695188, 7744.678288063799, 12200.587952207085, -1917.1761771650526, 0.082, 0.914, 0.448, 192.0, 0.0, 0.0, 0.0, 0.0, 0.0, 0.0, 0.0, 0.0, 0.0, 1.6546745236542149E9, 0.0, 2022-06-08 09:48:43.654
221.0, 24658.176262161287, 26748.53375536606, -9903.990912913194, -12991.705595458221, 5523.540738051026, 7740.073828706006, 12225.13016761901, -1912.2811451293405, 0.082, 0.914, 0.448, 192.0, 0.0, 0.0, 0.0, 0.0, 0.0, 0.0, 0.0, 0.0, 0.0, 1.6546745236542194E9, 0.0, 2022-06-08 09:48:43.654
222.0, 24662.087817440966, 26745.516269864595, -9898.648845988375, -12991.52678150258, 5529.754523009601, 7737.481026349191, 12227.477100786818, -1924.5969563242147, 0.082, 0.914, 0.448, 192.0, 0.0, 0.0, 0.0, 0.0, 0.0, 0.0, 0.0, 0.0, 0.0, 1.6546745236542256E9, 0.0, 2022-06-08 09:48:43.654
223.0, 24669.97798323369, 26759.620220615892, -9889.730499950707, -12986.274121555582, 5531.989697455132, 7749.305099166048, 12230.718103732837, -1910.9847439509326, 0.082, 0.914, 0.448, 192.0, 0.0, 0.0, 0.0, 0.0, 0.0, 0.0, 0.0, 0.0, 0.0, 1.6546745236542313E9, 0.0, 2022-06-08 09:48:43.654
224.0, 24652.230698136176, 26743.884592519356, -9904.706168735764, -13004.401386308837, 5512.588383267926, 7735.692886792766, 12212.836708168592, -1908.6601625275807, 0.082, 0.914, 0.448, 192.0, 0.0, 0.0, 0.0, 0.0, 0.0, 0.0, 0.0, 0.0, 0.0, 1.654674523654239E9, 0.0, 2022-06-08 09:48:43.654
225.0, 24666.580518076484, 26748.86903153289, -9909.981180427216, -13007.173002621294, 5510.464967544672, 7726.9980581996515, 12177.36448971802, -1912.6611247850806, 0.084, 0.914, 0.45, 192.0, 2.0, 160.0, 28.0, 144.0, 14.0, 16.0, 0.0, 0.0, 0.0, 1.6546745236542451E9, 0.0, 2022-06-08 09:48:43.654
226.0, 24688.060544498032, 26760.715456094204, -9904.080319891014, -13000.109851373418, 5519.584479282436, 7732.72010478021, 12186.148725288955, -1898.4230635670501, 0.084, 0.914, 0.45, 192.0, 0.0, 0.0, 0.0, 0.0, 0.0, 0.0, 0.0, 0.0, 0.0, 1.654674523654252E9, 0.0, 2022-06-08 09:48:43.654
227.0, 24690.586291621483, 26773.657116133825, -9894.357311052956, -12998.344063561448, 5531.09562767692, 7730.216709401216, 12238.340048592097, -1892.8798309421338, 0.084, 0.914, 0.45, 192.0, 0.0, 0.0, 0.0, 0.0, 0.0, 0.0, 0.0, 0.0, 0.0, 1.6546745236542623E9, 0.0, 2022-06-08 09:48:43.654
228.0, 24677.510521115128, 26760.693104349746, -9902.29218033459, -12998.299360072537, 5520.94793569421, 7722.483005819679, 12232.170967122433, -1900.5688310347596, 0.084, 0.914, 0.45, 192.0, 0.0, 0.0, 0.0, 0.0, 0.0, 0.0, 0.0, 0.0, 0.0, 1.6546745236542695E9, 0.0, 2022-06-08 09:48:43.654
229.0, 24665.328820386985, 26758.54733688204, -9917.401959586377, -13004.021406653095, 5504.541755264015, 7725.902822721341, 12198.464536483829, -1935.5716628517705, 0.084, 0.914, 0.45, 192.0, 0.0, 0.0, 0.0, 0.0, 0.0, 0.0, 0.0, 0.0, 0.0, 1.6546745236542761E9, 0.0, 2022-06-08 09:48:43.654
230.0, 24653.437692336764, 26758.10030199293, -9929.024866703137, -13014.996113180652, 5501.904249418289, 7708.580220768478, 12192.161344547432, -1979.0011023284321, 0.084, 0.914, 0.45, 192.0, 0.0, 0.0, 0.0, 0.0, 0.0, 0.0, 0.0, 0.0, 0.0, 1.654674523654282E9, 0.0, 2022-06-08 09:48:43.654
231.0, 24663.20540466373, 26756.04394150304, -9926.275602135134, -13004.177868864283, 5506.642819242814, 7721.253659874637, 12201.012635351735, -1947.976881024466, 0.084, 0.914, 0.45, 192.0, 0.0, 0.0, 0.0, 0.0, 0.0, 0.0, 0.0, 0.0, 0.0, 1.654674523654288E9, 0.0, 2022-06-08 09:48:43.654
232.0, 24684.730134574194, 26772.561880655514, -9905.756700725164, -12975.165304561295, 5535.320107378973, 7760.592730115978, 12201.236152796288, -1852.847856622679, 0.084, 0.914, 0.45, 192.0, 0.0, 0.0, 0.0, 0.0, 0.0, 0.0, 0.0, 0.0, 0.0, 1.654674523654293E9, 0.0, 2022-06-08 09:48:43.654
233.0, 24690.98862302168, 26777.747485369146, -9904.884982691407, -12973.33246151596, 5537.4211713577715, 7761.956186527752, 12214.691902958382, -1833.3794872021065, 0.084, 0.914, 0.45, 192.0, 0.0, 0.0, 0.0, 0.0, 0.0, 0.0, 0.0, 0.0, 0.0, 1.6546745236543005E9, 0.0, 2022-06-08 09:48:43.654
234.0, 24665.574689575995, 26760.693104349746, -9928.689590536307, -12993.449031525735, 5515.963496680677, 7747.405200887347, 12224.526670518717, -1842.7001646399694, 0.084, 0.914, 0.45, 192.0, 0.0, 0.0, 0.0, 0.0, 0.0, 0.0, 0.0, 0.0, 0.0, 1.6546745236543071E9, 0.0, 2022-06-08 09:48:43.654
235.0, 24655.60581154893, 26758.368522926394, -9941.519491853654, -13002.367377563403, 5505.32406631995, 7739.738552539176, 12217.061187870644, -1857.9217026140336, 0.084, 0.906, 0.452, 192.0, 2.0, 160.0, 28.0, 80.0, 14.0, 32.0, 0.0, 0.0, 0.0, 1.6546745236543155E9, 0.0, 2022-06-08 09:48:43.654
236.0, 24666.915794243312, 26761.25189796113, -9938.72552379674, -12995.505392015624, 5515.359999580383, 7738.866834505419, 12219.944562905379, -1858.9945863478883, 0.084, 0.906, 0.452, 192.0, 0.0, 0.0, 0.0, 0.0, 0.0, 0.0, 0.0, 0.0, 0.0, 1.6546745236543229E9, 0.0, 2022-06-08 09:48:43.654
237.0, 24671.20732917873, 26765.1187497519, -9937.20560517378, -12986.028252366574, 5514.689447246725, 7732.094255935462, 12211.160327334444, -1872.3162260432514, 0.084, 0.906, 0.452, 192.0, 0.0, 0.0, 0.0, 0.0, 0.0, 0.0, 0.0, 0.0, 0.0, 1.6546745236543276E9, 0.0, 2022-06-08 09:48:43.654
238.0, 24680.55035836105, 26773.7688748561, -9928.756645769674, -12981.580255219968, 5526.625278785858, 7743.068962463018, 12218.089368115589, -1878.5970662351926, 0.084, 0.906, 0.452, 192.0, 0.0, 0.0, 0.0, 0.0, 0.0, 0.0, 0.0, 0.0, 0.0, 1.654674523654334E9, 0.0, 2022-06-08 09:48:43.654
239.0, 24681.042096739067, 26777.166340013307, -9932.131759182425, -12991.146801846839, 5521.797301983512, 7743.895977007864, 12214.803661680658, -1889.5047175293826, 0.084, 0.906, 0.452, 192.0, 0.0, 0.0, 0.0, 0.0, 0.0, 0.0, 0.0, 0.0, 0.0, 1.6546745236543565E9, 0.0, 2022-06-08 09:48:43.654
240.0, 24669.754465789138, 26763.777645084578, -9941.407733131378, -13003.686130486267, 5505.9499151647, 7724.405255842836, 12204.521859231218, -1903.072226413754, 0.084, 0.906, 0.452, 192.0, 0.0, 0.0, 0.0, 0.0, 0.0, 0.0, 0.0, 0.0, 0.0, 1.6546745236543617E9, 0.0, 2022-06-08 09:48:43.654
241.0, 24673.50955885763, 26769.20911898722, -9929.58366031452, -12984.95536863272, 5517.885746703833, 7736.117569937417, 12222.89499317348, -1895.8973164436004, 0.084, 0.906, 0.452, 192.0, 0.0, 0.0, 0.0, 0.0, 0.0, 0.0, 0.0, 0.0, 0.0, 1.6546745241329644E9, 0.0, 2022-06-08 09:48:44.132
242.0, 24687.769971820115, 26784.117732538907, -9905.600238513976, -12960.211987520694, 5542.316203393484, 7761.375041171914, 12246.677249273927, -1875.6242842226368, 0.084, 0.906, 0.452, 192.0, 0.0, 0.0, 0.0, 0.0, 0.0, 0.0, 0.0, 0.0, 0.0, 1.6546745241331053E9, 0.0, 2022-06-08 09:48:44.133
243.0, 24687.188826464277, 26787.06816280701, -9901.62162800093, -12960.703725898711, 5542.1150376933865, 7760.324509182515, 12238.720028247837, -1878.5747144907373, 0.084, 0.906, 0.452, 192.0, 0.0, 0.0, 0.0, 0.0, 0.0, 0.0, 0.0, 0.0, 0.0, 1.6546745241331096E9, 0.0, 2022-06-08 09:48:44.133
244.0, 24670.31325940052, 26774.95351731223, -9916.552593297076, -12979.054508096518, 5526.088836918931, 7745.661764819833, 12225.04076064119, -1901.552307790793, 0.084, 0.906, 0.452, 192.0, 0.0, 0.0, 0.0, 0.0, 0.0, 0.0, 0.0, 0.0, 0.0, 1.654674524133114E9, 0.0, 2022-06-08 09:48:44.133
245.0, 24645.368712588395, 26751.752406567623, -9936.266831906656, -13005.071938642495, 5506.37459830935, 7717.185642383772, 12212.143804090478, -1928.7320290484465, 0.082, 0.912, 0.45, 192.0, 2.0, 144.0, 28.0, 128.0, 14.0, 16.0, 0.0, 0.0, 0.0, 1.6546745241331184E9, 0.0, 2022-06-08 09:48:44.133
246.0, 24661.93135522978, 26757.809729315013, -9929.58366031452, -12993.918418159297, 5510.688484989225, 7717.2526976171375, 12202.1302225745, -1908.101368916198, 0.082, 0.912, 0.45, 192.0, 0.0, 0.0, 0.0, 0.0, 0.0, 0.0, 0.0, 0.0, 0.0, 1.6546745241331227E9, 0.0, 2022-06-08 09:48:44.133
247.0, 24667.854567510436, 26768.113883508908, -9917.625477030932, -12986.877618655875, 5520.389142082828, 7732.742456524666, 12203.381920263997, -1883.9391331600111, 0.082, 0.912, 0.45, 192.0, 0.0, 0.0, 0.0, 0.0, 0.0, 0.0, 0.0, 0.0, 0.0, 1.6546745241331272E9, 0.0, 2022-06-08 09:48:44.133
248.0, 24664.50180584214, 26771.48899692166, -9908.260096104157, -12979.076859840974, 5524.591270040425, 7730.060247190028, 12212.076748857111, -1904.838014225723, 0.082, 0.912, 0.45, 192.0, 0.0, 0.0, 0.0, 0.0, 0.0, 0.0, 0.0, 0.0, 0.0, 1.6546745241331315E9, 0.0, 2022-06-08 09:48:44.133
249.0, 24663.048942452544, 26765.29756370754, -9912.81985197304, -12986.005900622118, 5515.516461791571, 7716.492738305657, 12188.406251478942, -1953.810686327301, 0.082, 0.912, 0.45, 192.0, 0.0, 0.0, 0.0, 0.0, 0.0, 0.0, 0.0, 0.0, 0.0, 1.654674524133136E9, 0.0, 2022-06-08 09:48:44.133
250.0, 24656.745750516147, 26751.752406567623, -9930.343619626, -12995.393633293348, 5495.80222318199, 7715.330447593981, 12156.420905163397, -1967.5570091673148, 0.082, 0.912, 0.45, 192.0, 0.0, 0.0, 0.0, 0.0, 0.0, 0.0, 0.0, 0.0, 0.0, 1.6546745241331403E9, 0.0, 2022-06-08 09:48:44.133
251.0, 24671.967288490214, 26763.44236891775, -9920.95588695477, -12981.222627308684, 5503.044188385509, 7726.975706455196, 12178.660890896428, -1904.4803863144382, 0.082, 0.912, 0.45, 192.0, 0.0, 0.0, 0.0, 0.0, 0.0, 0.0, 0.0, 0.0, 0.0, 1.6546745241331449E9, 0.0, 2022-06-08 09:48:44.133
252.0, 24694.07316375651, 26791.359697742428, -9887.71884294973, -12955.18284501825, 5534.850720745411, 7751.920253267319, 12232.685057244904, -1862.9508451164777, 0.082, 0.912, 0.45, 192.0, 0.0, 0.0, 0.0, 0.0, 0.0, 0.0, 0.0, 0.0, 0.0, 1.6546745241331491E9, 0.0, 2022-06-08 09:48:44.133
253.0, 24693.46966665622, 26797.573482701002, -9891.183363340302, -12956.23337700765, 5524.479511318149, 7745.147674697361, 12226.985362408801, -1872.2044673209748, 0.082, 0.912, 0.45, 192.0, 0.0, 0.0, 0.0, 0.0, 0.0, 0.0, 0.0, 0.0, 0.0, 1.654674524133154E9, 0.0, 2022-06-08 09:48:44.133
254.0, 24695.682489357292, 26796.34413675596, -9905.734348980708, -12968.348022502425, 5511.739016978624, 7727.467444833213, 12206.287647043187, -1894.5115082873713, 0.082, 0.912, 0.45, 192.0, 0.0, 0.0, 0.0, 0.0, 0.0, 0.0, 0.0, 0.0, 0.0, 1.6546745241331582E9, 0.0, 2022-06-08 09:48:44.133
255.0, 24676.862320525925, 26775.15468301233, -9929.315439381056, -12984.776554677077, 5491.5777434799365, 7716.559793539023, 12176.582178662084, -1877.4794790124274, 0.088, 0.918, 0.456, 192.0, 2.0, 192.0, 28.0, 176.0, 14.0, 64.0, 0.0, 0.0, 0.0, 1.6546745241331625E9, 0.0, 2022-06-08 09:48:44.133
0.0, 24669.866224511414, 26771.53370041057, -9921.000590443682, -12968.973871347174, 5506.888688431823, 7738.263337405127, 12203.13605107499, -1859.4192694925393, 0.088, 0.918, 0.456, 192.0, 0.0, 0.0, 0.0, 0.0, 0.0, 0.0, 0.0, 0.0, 0.0, 1.654674524133167E9, 0.0, 2022-06-08 09:48:44.133
1.0, 24673.26368966862, 26779.379162714384, -9911.702264750274, -12961.240167765638, 5524.993601440621, 7740.744381039665, 12216.27887681471, -1871.3998045205838, 0.088, 0.918, 0.456, 192.0, 0.0, 0.0, 0.0, 0.0, 0.0, 0.0, 0.0, 0.0, 0.0, 1.6546745241331725E9, 0.0, 2022-06-08 09:48:44.133
2.0, 24680.975041505702, 26785.07885755049, -9915.613820029954, -12963.698859655722, 5520.053865915998, 7748.276918921104, 12198.486888228284, -1875.0207871223436, 0.088, 0.918, 0.456, 192.0, 0.0, 0.0, 0.0, 0.0, 0.0, 0.0, 0.0, 0.0, 0.0, 1.6546745241331768E9, 0.0, 2022-06-08 09:48:44.133
3.0, 24681.89146302837, 26785.81646511751, -9922.408750344366, -12974.494752227636, 5521.484377561138, 7735.581128070489, 12214.915420402935, -1889.102386129187, 0.088, 0.918, 0.456, 192.0, 0.0, 0.0, 0.0, 0.0, 0.0, 0.0, 0.0, 0.0, 0.0, 1.654674524133181E9, 0.0, 2022-06-08 09:48:44.133
4.0, 24677.376410648398, 26775.378200456882, -9931.304744637579, -12988.419889023291, 5518.556299037493, 7729.747322767655, 12232.305077589164, -1901.1723281350528, 0.088, 0.918, 0.456, 192.0, 0.0, 0.0, 0.0, 0.0, 0.0, 0.0, 0.0, 0.0, 0.0, 1.654674524133191E9, 0.0, 2022-06-08 09:48:44.133
5.0, 24670.425018122794, 26772.472473677695, -9942.145340698402, -12989.805697179521, 5501.23369708463, 7722.661819775322, 12215.585972736595, -1892.6116100086701, 0.088, 0.918, 0.456, 192.0, 0.0, 0.0, 0.0, 0.0, 0.0, 0.0, 0.0, 0.0, 0.0, 1.6546745241331952E9, 0.0, 2022-06-08 09:48:44.133
6.0, 24691.100381743956, 26798.06522107902, -9927.460244591266, -12962.51421719959, 5521.573784538959, 7739.403276372347, 12230.427531054918, -1856.2453217798857, 0.088, 0.918, 0.456, 192.0, 0.0, 0.0, 0.0, 0.0, 0.0, 0.0, 0.0, 0.0, 0.0, 1.6546745241331992E9, 0.0, 2022-06-08 09:48:44.133
7.0, 24696.867131813426, 26804.524875226605, -9917.178442141825, -12958.960289831197, 5530.290964876529, 7749.796837544065, 12242.51982480524, -1855.4406589794946, 0.088, 0.918, 0.456, 192.0, 0.0, 0.0, 0.0, 0.0, 0.0, 0.0, 0.0, 0.0, 0.0, 1.6546745241332033E9, 0.0, 2022-06-08 09:48:44.133
8.0, 24688.70874508724, 26798.422848990303, -9922.878136977928, -12968.303319013516, 5517.192842625719, 7741.593747328967, 12240.0387811707, -1891.2258018524412, 0.088, 0.918, 0.456, 192.0, 0.0, 0.0, 0.0, 0.0, 0.0, 0.0, 0.0, 0.0, 0.0, 1.654674524133207E9, 0.0, 2022-06-08 09:48:44.133
9.0, 24667.9216227438, 26777.523967924593, -9944.425218632845, -12988.129316345372, 5505.033493642031, 7717.386808083869, 12217.84349892658, -1908.0790171717426, 0.092, 0.914, 0.456, 192.0, 2.0, 224.0, 28.0, 144.0, 14.0, 64.0, 0.0, 0.0, 0.0, 1.6546745241332114E9, 0.0, 2022-06-08 09:48:44.133
10.0, 24668.1227884439, 26775.62406964589, -9947.06272447857, -12989.559827990512, 5505.704045975691, 7719.331409851481, 12198.464536483829, -1884.4755750269385, 0.092, 0.914, 0.456, 192.0, 0.0, 0.0, 0.0, 0.0, 0.0, 0.0, 0.0, 0.0, 0.0, 1.6546745241332154E9, 0.0, 2022-06-08 09:48:44.133
11.0, 24684.685431085283, 26794.243072777164, -9924.621573045442, -12969.75618240311, 5525.597098540914, 7736.050514704051, 12216.502394259262, -1858.9722346034332, 0.092, 0.914, 0.456, 192.0, 0.0, 0.0, 0.0, 0.0, 0.0, 0.0, 0.0, 0.0, 0.0, 1.6546745241332197E9, 0.0, 2022-06-08 09:48:44.133
12.0, 24692.55324513355, 26794.466590221717, -9925.716808523752, -12970.650252181322, 5519.003333926598, 7732.3401251244695, 12211.719120945827, -1870.9304178870225, 0.092, 0.914, 0.456, 192.0, 0.0, 0.0, 0.0, 0.0, 0.0, 0.0, 0.0, 0.0, 0.0, 1.6546745241332235E9, 0.0, 2022-06-08 09:48:44.133
13.0, 24693.313204445032, 26785.63765116187, -9943.486445365721, -12985.402403521824, 5499.020874383554, 7723.511186064624, 12195.156478304443, -1887.6495227395922, 0.092, 0.914, 0.456, 192.0, 0.0, 0.0, 0.0, 0.0, 0.0, 0.0, 0.0, 0.0, 0.0, 1.6546745241332276E9, 0.0, 2022-06-08 09:48:44.133
14.0, 24675.588271091972, 26775.557014412527, -9951.086038480526, -13004.04375839755, 5501.3231040624505, 7709.921325435797, 12189.233266023788, -1916.4162178535723, 0.092, 0.914, 0.456, 192.0, 0.0, 0.0, 0.0, 0.0, 0.0, 0.0, 0.0, 0.0, 0.0, 1.654674524133232E9, 0.0, 2022-06-08 09:48:44.133
15.0, 24670.715590800715, 26777.143988268854, -9947.040372734114, -12997.941732161253, 5504.988790153121, 7710.100139391439, 12198.17396380591, -1899.9876856789215, 0.092, 0.914, 0.456, 192.0, 0.0, 0.0, 0.0, 0.0, 0.0, 0.0, 0.0, 0.0, 0.0, 1.654674524133236E9, 0.0, 2022-06-08 09:48:44.133
16.0, 24692.441486411273, 26800.05452633554, -9925.448587590288, -12969.577368447468, 5521.350267094406, 7736.363439126425, 12203.784251664192, -1873.4338132660168, 0.092, 0.914, 0.456, 192.0, 0.0, 0.0, 0.0, 0.0, 0.0, 0.0, 0.0, 0.0, 0.0, 1.65467452413324E9, 0.0, 2022-06-08 09:48:44.133
17.0, 24680.93033801679, 26800.658023435837, -9924.085131178515, -12969.867941125387, 5517.952801937199, 7731.0437239460625, 12201.504373729751, -1885.5261070163378, 0.092, 0.914, 0.456, 192.0, 0.0, 0.0, 0.0, 0.0, 0.0, 0.0, 0.0, 0.0, 0.0, 1.654674524133244E9, 0.0, 2022-06-08 09:48:44.133
18.0, 24667.228718665687, 26796.277081522596, -9933.696381294296, -12983.927188387775, 5503.312409318974, 7714.235212115671, 12195.581161449094, -1909.3754183501505, 0.096, 0.922, 0.448, 192.0, 3.0, 0.0, 28.0, 208.0, 14.0, 0.0, 0.0, 0.0, 0.0, 1.654674524133248E9, 0.0, 2022-06-08 09:48:44.133
19.0, 24662.78072151908, 26790.376220986396, -9943.240576176713, -12996.511220516113, 5492.918848147256, 7701.897049176342, 12186.908684600436, -1925.0886947022314, 0.096, 0.922, 0.448, 192.0, 0.0, 0.0, 0.0, 0.0, 0.0, 0.0, 0.0, 0.0, 0.0, 1.654674524133252E9, 0.0, 2022-06-08 09:48:44.133
20.0, 24671.20732917873, 26782.39664821585, -9931.684724293318, -12985.178886077272, 5513.169528623764, 7720.024313929595, 12226.761844964249, -1911.3200201177622, 0.096, 0.922, 0.448, 192.0, 0.0, 0.0, 0.0, 0.0, 0.0, 0.0, 0.0, 0.0, 0.0, 1.6546745241332562E9, 0.0, 2022-06-08 09:48:44.133
21.0, 24681.846759539458, 26790.15270354184, -9921.425273588333, -12979.367432518893, 5529.821578242967, 7732.8095117580315, 12253.047496443689, -1894.7573774763798, 0.096, 0.922, 0.448, 192.0, 0.0, 0.0, 0.0, 0.0, 0.0, 0.0, 0.0, 0.0, 0.0, 1.6546745241332603E9, 0.0, 2022-06-08 09:48:44.133
22.0, 24701.40453593785, 26797.126447811897, -9920.642962532398, -12971.253749281615, 5528.838101486934, 7737.279860649092, 12248.845368486092, -1876.3395400452066, 0.096, 0.922, 0.448, 192.0, 0.0, 0.0, 0.0, 0.0, 0.0, 0.0, 0.0, 0.0, 0.0, 1.6546745241332643E9, 0.0, 2022-06-08 09:48:44.133
23.0, 24693.8272945675, 26784.25184300564, -9931.103578937482, -12976.774630162077, 5513.370694323861, 7723.175909897794, 12225.197222852377, -1871.6009702206816, 0.096, 0.922, 0.448, 192.0, 0.0, 0.0, 0.0, 0.0, 0.0, 0.0, 0.0, 0.0, 0.0, 1.654674524133268E9, 0.0, 2022-06-08 09:48:44.133
24.0, 24659.31620112851, 26776.115808023907, -9953.164750714868, -13000.467479284702, 5493.678807458736, 7706.2779910895815, 12189.36737649052, -1907.743741004913, 0.096, 0.922, 0.448, 192.0, 0.0, 0.0, 0.0, 0.0, 0.0, 0.0, 0.0, 0.0, 0.0, 1.6546745241332724E9, 0.0, 2022-06-08 09:48:44.133
25.0, 24665.395875620354, 26779.647383647847, -9958.417410661867, -13003.730833975176, 5492.918848147256, 7710.435415558269, 12183.019481065212, -1914.0245811968543, 0.096, 0.922, 0.448, 192.0, 0.0, 0.0, 0.0, 0.0, 0.0, 0.0, 0.0, 0.0, 0.0, 1.6546745241332765E9, 0.0, 2022-06-08 09:48:44.133
26.0, 24675.0741809695, 26783.223662760694, -9946.459227378276, -12987.883447156364, 5503.0218366410545, 7727.065113433017, 12206.555867976651, -1888.6106477511703, 0.096, 0.922, 0.448, 192.0, 0.0, 0.0, 0.0, 0.0, 0.0, 0.0, 0.0, 0.0, 0.0, 1.6546745241332817E9, 0.0, 2022-06-08 09:48:44.133
27.0, 24680.349192660953, 26791.15853204233, -9943.911128510372, -12969.80088589202, 5510.263801844573, 7738.9115379943305, 12226.1359961195, -1864.9625021174554, 0.096, 0.922, 0.448, 192.0, 0.0, 0.0, 0.0, 0.0, 0.0, 0.0, 0.0, 0.0, 0.0, 1.6546745241332865E9, 0.0, 2022-06-08 09:48:44.133
28.0, 24679.544529860563, 26804.30135778205, -9943.486445365721, -12975.56763596149, 5502.619505240858, 7739.224462416704, 12218.268182071231, -1857.6311299361146, 0.094, 0.918, 0.444, 192.0, 2.0, 240.0, 28.0, 176.0, 13.0, 224.0, 0.0, 0.0, 0.0, 1.6546745241332905E9, 0.0, 2022-06-08 09:48:44.133
29.0, 24671.073218712, 26795.36065999993, -9952.762419314673, -12987.6152262229, 5489.61078996787, 7728.629735544889, 12216.189469836889, -1873.0314818658212, 0.094, 0.918, 0.444, 192.0, 0.0, 0.0, 0.0, 0.0, 0.0, 0.0, 0.0, 0.0, 0.0, 1.6546745241332948E9, 0.0, 2022-06-08 09:48:44.133
30.0, 24690.899216043857, 26798.02051759011, -9948.448532634799, -12976.014670850596, 5501.077234873443, 7731.155482668339, 12223.230269340309, -1872.4056330210726, 0.094, 0.918, 0.444, 192.0, 0.0, 0.0, 0.0, 0.0, 0.0, 0.0, 0.0, 0.0, 0.0, 1.6546745241332989E9, 0.0, 2022-06-08 09:48:44.133
31.0, 24706.254864484654, 26815.320767798516, -9935.551576084086, -12957.507426441602, 5515.203537369196, 7744.007735730141, 12216.882373915003, -1858.592254947693, 0.094, 0.918, 0.444, 192.0, 0.0, 0.0, 0.0, 0.0, 0.0, 0.0, 0.0, 0.0, 0.0, 1.6546745241333032E9, 0.0, 2022-06-08 09:48:44.133
