%OpenBCI Raw EEG Data
%Number of channels = 8
%Sample Rate = 250 Hz
%Board = OpenBCI_GUI$BoardCytonSerial
Sample Index, EXG Channel 0, EXG Channel 1, EXG Channel 2, EXG Channel 3, EXG Channel 4, EXG Channel 5, EXG Channel 6, EXG Channel 7, Accel Channel 0, Accel Channel 1, Accel Channel 2, Other, Other, Other, Other, Other, Other, Other, Analog Channel 0, Analog Channel 1, Analog Channel 2, Timestamp, Other, Timestamp (Formatted)
0.0, 0.0, 0.0, 0.0, 0.0, 0.0, 0.0, 0.0, 0.0, 0.024, 0.916, 0.452, 192.0, 0.0, 192.0, 28.0, 160.0, 14.0, 32.0, 0.0, 0.0, 0.0, 1.654609384541902E9, 0.0, 2022-06-07 15:43:04.541
1.0, 40360.075576314404, 14046.640878515349, -18032.448653274616, -20384.343908350937, -1486.927448144847, -3979.0798996782187, 16419.055035001642, 7836.83453045303, 0.024, 0.916, 0.452, 192.0, 0.0, 0.0, 0.0, 0.0, 0.0, 0.0, 0.0, 0.0, 0.0, 1.654609384608588E9, 0.0, 2022-06-07 15:43:04.608
2.0, 40247.78041217094, 14016.801299667515, -18063.696392023136, -20418.13974596736, -1541.4657046157963, -3991.038082961808, 16385.952101463332, 7819.087245355517, 0.024, 0.916, 0.452, 192.0, 0.0, 0.0, 0.0, 0.0, 0.0, 0.0, 0.0, 0.0, 0.0, 1.654609384608593E9, 0.0, 2022-06-07 15:43:04.608
3.0, 40221.2935949914, 14021.338703791942, -18060.634203032758, -20437.965743299217, -1550.1158297200002, -4045.732801643944, 16370.708211744812, 7814.460434253268, 0.024, 0.916, 0.452, 192.0, 0.0, 0.0, 0.0, 0.0, 0.0, 0.0, 0.0, 0.0, 0.0, 1.654609384608609E9, 0.0, 2022-06-07 15:43:04.608
4.0, 40318.94836651663, 14055.603928041928, -18005.268932016963, -20418.69853957874, -1508.049846655112, -4081.0709096277847, 16386.48854333026, 7828.653791982388, 0.024, 0.916, 0.452, 192.0, 0.0, 0.0, 0.0, 0.0, 0.0, 0.0, 0.0, 0.0, 0.0, 1.654609384608612E9, 0.0, 2022-06-07 15:43:04.608
5.0, 40410.72462925013, 14072.859474761424, -17976.83751306981, -20381.996975183127, -1470.610674692473, -4038.4908364404246, 16409.71200581932, 7836.901585686396, 0.024, 0.916, 0.452, 192.0, 0.0, 0.0, 0.0, 0.0, 0.0, 0.0, 0.0, 0.0, 0.0, 1.654609384608615E9, 0.0, 2022-06-07 15:43:04.608
6.0, 40379.94627713517, 14057.369715853896, -18011.750937909, -20375.045582657527, -1489.542602246118, -3977.001187443875, 16405.688691817366, 7830.821911194553, 0.024, 0.916, 0.452, 192.0, 0.0, 0.0, 0.0, 0.0, 0.0, 0.0, 0.0, 0.0, 0.0, 1.654609384608618E9, 0.0, 2022-06-07 15:43:04.608
7.0, 40269.17103161467, 14028.06657887299, -18057.661421020202, -20407.18739118426, -1541.3986493824304, -3983.282027635816, 16380.632386282969, 7816.092111598506, 0.024, 0.916, 0.452, 192.0, 0.0, 0.0, 0.0, 0.0, 0.0, 0.0, 0.0, 0.0, 0.0, 1.654609384608621E9, 0.0, 2022-06-07 15:43:04.608
8.0, 40228.4461532171, 14035.107378376411, -18048.94424068263, -20431.349626940446, -1545.3325564065644, -4043.22940626495, 16416.506936133737, 7817.0979400989945, 0.022, 0.926, 0.43, 192.0, 0.0, 176.0, 28.0, 240.0, 13.0, 112.0, 0.0, 0.0, 0.0, 1.654609384608624E9, 0.0, 2022-06-07 15:43:04.608
9.0, 40306.252575666025, 14061.124808922388, -18005.268932016963, -20426.745167582652, -1504.8088437090928, -4093.5208312893906, 16422.027817014197, 7823.0882076130165, 0.022, 0.926, 0.43, 192.0, 0.0, 0.0, 0.0, 0.0, 0.0, 0.0, 0.0, 0.0, 0.0, 1.654609384608627E9, 0.0, 2022-06-07 15:43:04.608
10.0, 40410.679925761215, 14079.319128909008, -17973.864731057256, -20388.009594441606, -1462.0723083105456, -4050.292557512827, 16402.179467937884, 7834.845225196508, 0.022, 0.926, 0.43, 192.0, 0.0, 0.0, 0.0, 0.0, 0.0, 0.0, 0.0, 0.0, 0.0, 1.65460938460863E9, 0.0, 2022-06-07 15:43:04.608
11.0, 40383.03081787, 14063.40468685683, -18003.100812804798, -20375.93965243574, -1476.7574044176822, -3982.589123557702, 16412.505973876236, 7833.995858907207, 0.022, 0.926, 0.43, 192.0, 0.0, 0.0, 0.0, 0.0, 0.0, 0.0, 0.0, 0.0, 0.0, 1.654609384608633E9, 0.0, 2022-06-07 15:43:04.608
12.0, 40257.48106926454, 14032.693389975238, -18052.38640932875, -20408.059109218015, -1528.121713175978, -3989.0264259608302, 16391.316520132605, 7819.668390711355, 0.022, 0.926, 0.43, 192.0, 0.0, 0.0, 0.0, 0.0, 0.0, 0.0, 0.0, 0.0, 0.0, 1.654609384608636E9, 0.0, 2022-06-07 15:43:04.608
13.0, 40224.936929337615, 14027.418378283784, -18052.18524362865, -20429.963818784217, -1543.6338238279611, -4047.2750720113604, 16365.701420986823, 7810.97356211824, 0.022, 0.926, 0.43, 192.0, 0.0, 0.0, 0.0, 0.0, 0.0, 0.0, 0.0, 0.0, 0.0, 1.654609384608639E9, 0.0, 2022-06-07 15:43:04.608
14.0, 40328.2690439545, 14062.0188787006, -18002.22909477104, -20412.32829240898, -1499.5338320176402, -4084.0883951292512, 16378.777191493178, 7826.105693114483, 0.022, 0.926, 0.43, 192.0, 0.0, 0.0, 0.0, 0.0, 0.0, 0.0, 0.0, 0.0, 0.0, 1.65460938460866E9, 0.0, 2022-06-07 15:43:04.608
15.0, 40416.51373106405, 14078.156838197332, -17998.675167402645, -20391.31765262099, -1462.9887298332133, -4059.3450140172263, 16401.687729559868, 7828.363219304469, 0.022, 0.926, 0.43, 192.0, 0.0, 0.0, 0.0, 0.0, 0.0, 0.0, 0.0, 0.0, 0.0, 1.654609384608663E9, 0.0, 2022-06-07 15:43:04.608
16.0, 40385.780082438, 14057.1685501538, -18020.110490335286, -20386.444972329733, -1482.3229887870539, -3997.296571409294, 16407.7227005628, 7825.971582647751, 0.022, 0.926, 0.43, 192.0, 0.0, 0.0, 0.0, 0.0, 0.0, 0.0, 0.0, 0.0, 0.0, 1.654609384668885E9, 0.0, 2022-06-07 15:43:04.668
17.0, 40267.2040781026, 14022.0092561256, -18056.43207507516, -20411.858905775418, -1536.3918586244415, -3989.8534405056766, 16382.062897928108, 7813.45460575278, 0.016, 0.93, 0.43, 192.0, 0.0, 128.0, 29.0, 16.0, 13.0, 112.0, 0.0, 0.0, 0.0, 1.654609384668894E9, 0.0, 2022-06-07 15:43:04.668
18.0, 40222.88056884773, 14025.809052683004, -18057.594365786837, -20433.85302231944, -1553.4909431327515, -4047.476237711458, 16371.088191400551, 7809.163070817361, 0.016, 0.93, 0.43, 192.0, 0.0, 0.0, 0.0, 0.0, 0.0, 0.0, 0.0, 0.0, 0.0, 1.654609384668898E9, 0.0, 2022-06-07 15:43:04.668
19.0, 40317.160226960215, 14066.846855502947, -17998.764574380468, -20410.003710985628, -1504.6300297534501, -4079.2380665824494, 16393.86461900051, 7830.844262939008, 0.016, 0.93, 0.43, 192.0, 0.0, 0.0, 0.0, 0.0, 0.0, 0.0, 0.0, 0.0, 0.0, 1.654609384668913E9, 0.0, 2022-06-07 15:43:04.668
20.0, 40413.42919032922, 14084.124753966898, -17968.924995532634, -20375.31380359099, -1462.0723083105456, -4039.876644596654, 16423.123052492505, 7845.261138112681, 0.016, 0.93, 0.43, 192.0, 0.0, 0.0, 0.0, 0.0, 0.0, 0.0, 0.0, 0.0, 0.0, 1.654609384668915E9, 0.0, 2022-06-07 15:43:04.668
21.0, 40375.587686966384, 14061.88476823387, -18006.028891328442, -20371.78222796705, -1485.4969364997073, -3976.97883569942, 16419.993808268762, 7839.1144083874715, 0.016, 0.93, 0.43, 192.0, 0.0, 0.0, 0.0, 0.0, 0.0, 0.0, 0.0, 0.0, 0.0, 1.654609384668918E9, 0.0, 2022-06-07 15:43:04.668
22.0, 40263.96307515658, 14039.622430756383, -18050.888842450244, -20401.264178903602, -1533.955518478813, -3978.610513044657, 16394.62457831199, 7828.564385004567, 0.016, 0.93, 0.43, 192.0, 0.0, 0.0, 0.0, 0.0, 0.0, 0.0, 0.0, 0.0, 0.0, 1.654609384668938E9, 0.0, 2022-06-07 15:43:04.668
23.0, 40232.6482811747, 14050.485378561661, -18038.148348110717, -20415.681054077275, -1542.896216260936, -4031.137112514629, 16384.923921218386, 7830.687800727821, 0.016, 0.93, 0.43, 192.0, 0.0, 0.0, 0.0, 0.0, 0.0, 0.0, 0.0, 0.0, 0.0, 1.65460938466894E9, 0.0, 2022-06-07 15:43:04.668
24.0, 40326.14562823124, 14084.482381878184, -17987.65575738618, -20396.615016056898, -1503.2442215972212, -4064.7317844309555, 16399.34079639206, 7845.641117768421, 0.016, 0.93, 0.43, 192.0, 0.0, 0.0, 0.0, 0.0, 0.0, 0.0, 0.0, 0.0, 0.0, 1.654609384668942E9, 0.0, 2022-06-07 15:43:04.668
25.0, 40421.40876309977, 14100.642693119371, -17961.392457651193, -20358.549995249512, -1461.513514699163, -4022.934022299531, 16421.20080246935, 7860.0132894531835, 0.016, 0.93, 0.43, 192.0, 0.0, 0.0, 0.0, 0.0, 0.0, 0.0, 0.0, 0.0, 0.0, 1.654609384668944E9, 0.0, 2022-06-07 15:43:04.668
26.0, 40387.054131871955, 14079.274425420097, -18002.027929070944, -20349.385780022836, -1482.2782852981431, -3958.3821843126043, 16426.54286939417, 7857.062859185084, 0.016, 0.93, 0.43, 192.0, 0.0, 0.0, 0.0, 0.0, 0.0, 0.0, 0.0, 0.0, 0.0, 1.654609384668946E9, 0.0, 2022-06-07 15:43:04.668
27.0, 40269.43925254813, 14047.557300038017, -18053.705162251612, -20374.620899512876, -1533.284966145154, -3957.0187279008305, 16404.749918550246, 7846.870463713463, 0.012, 0.93, 0.432, 192.0, 0.0, 96.0, 29.0, 16.0, 13.0, 128.0, 0.0, 0.0, 0.0, 1.654609384668949E9, 0.0, 2022-06-07 15:43:04.668
28.0, 40225.58512992682, 14049.010163427612, -18046.418493559184, -20393.262254388603, -1549.9593675088129, -4013.9486210284977, 16386.220322396795, 7841.438989810824, 0.012, 0.93, 0.432, 192.0, 0.0, 0.0, 0.0, 0.0, 0.0, 0.0, 0.0, 0.0, 0.0, 1.654609384668951E9, 0.0, 2022-06-07 15:43:04.668
29.0, 40326.436200909164, 14089.64563484736, -17985.688803874113, -20369.725867477166, -1508.5639367775843, -4048.4597144674917, 16401.464212115316, 7857.331080118547, 0.012, 0.93, 0.432, 192.0, 0.0, 0.0, 0.0, 0.0, 0.0, 0.0, 0.0, 0.0, 0.0, 1.654609384668953E9, 0.0, 2022-06-07 15:43:04.668
30.0, 40425.87911199083, 14099.12277449641, -17964.097018730285, -20338.32166651746, -1462.7875641331154, -4010.3946936601037, 16430.34266595157, 7870.406850624901, 0.012, 0.93, 0.432, 192.0, 0.0, 0.0, 0.0, 0.0, 0.0, 0.0, 0.0, 0.0, 0.0, 1.654609384668956E9, 0.0, 2022-06-07 15:43:04.668
31.0, 40380.61682946883, 14069.439657859763, -18017.383577511737, -20343.909602631284, -1486.0110266221795, -3959.902102935565, 16426.498165905257, 7857.666356285376, 0.012, 0.93, 0.432, 192.0, 0.0, 0.0, 0.0, 0.0, 0.0, 0.0, 0.0, 0.0, 0.0, 1.654609384728406E9, 0.0, 2022-06-07 15:43:04.728
32.0, 40256.76581344197, 14043.668096502794, -18041.52346152347, -20372.542187278534, -1531.6309370554611, -3961.399669814071, 16408.884991274477, 7845.775228235153, 0.012, 0.93, 0.432, 192.0, 0.0, 0.0, 0.0, 0.0, 0.0, 0.0, 0.0, 0.0, 0.0, 1.654609384728415E9, 0.0, 2022-06-07 15:43:04.728
33.0, 40212.75522860947, 14034.63799174285, -18037.164871354686, -20397.55378932402, -1544.8855215174583, -4018.4636734084697, 16391.562389321614, 7840.321402588058, 0.012, 0.93, 0.432, 192.0, 0.0, 0.0, 0.0, 0.0, 0.0, 0.0, 0.0, 0.0, 0.0, 1.654609384728418E9, 0.0, 2022-06-07 15:43:04.728
34.0, 40304.75500878751, 14064.25405314613, -17988.549827164392, -20384.254501373114, -1505.5017477872073, -4056.2828250268494, 16406.940389506864, 7853.1960073943155, 0.012, 0.93, 0.432, 192.0, 0.0, 0.0, 0.0, 0.0, 0.0, 0.0, 0.0, 0.0, 0.0, 1.65460938472842E9, 0.0, 2022-06-07 15:43:04.728
35.0, 40408.42239957123, 14090.919684281313, -17960.252518683974, -20350.749236434607, -1460.2394652652104, -4021.6599728655788, 16435.528270665203, 7866.964681978784, 0.012, 0.93, 0.432, 192.0, 0.0, 0.0, 0.0, 0.0, 0.0, 0.0, 0.0, 0.0, 0.0, 1.654609384728423E9, 0.0, 2022-06-07 15:43:04.728
36.0, 40387.56822199443, 14075.854608518435, -17989.823876598344, -20336.041788583017, -1470.7894886481154, -3953.3977452990707, 16442.43495970189, 7867.657586056899, 0.012, 0.93, 0.432, 192.0, 0.0, 0.0, 0.0, 0.0, 0.0, 0.0, 0.0, 0.0, 0.0, 1.654609384728425E9, 0.0, 2022-06-07 15:43:04.728
37.0, 40267.06996763587, 14047.311430849008, -18045.457368547603, -20369.32353607697, -1525.5512625636177, -3959.87975119111, 16429.69446536237, 7850.580853293044, 0.012, 0.928, 0.434, 192.0, 0.0, 96.0, 29.0, 0.0, 13.0, 144.0, 0.0, 0.0, 0.0, 1.654609384728441E9, 0.0, 2022-06-07 15:43:04.728
38.0, 40232.6482811747, 14050.328916350474, -18038.349513810816, -20386.84730372993, -1532.5920620670395, -4010.5958593602018, 16439.171605011416, 7852.234882382737, 0.012, 0.928, 0.434, 192.0, 0.0, 0.0, 0.0, 0.0, 0.0, 0.0, 0.0, 0.0, 0.0, 1.654609384728443E9, 0.0, 2022-06-07 15:43:04.728
39.0, 40321.78703806246, 14085.59996910095, -17986.202893996586, -20374.88912044634, -1491.3083900580873, -4051.1866272910393, 16409.689654074868, 7864.930673233352, 0.012, 0.928, 0.434, 192.0, 0.0, 0.0, 0.0, 0.0, 0.0, 0.0, 0.0, 0.0, 0.0, 1.654609384728445E9, 0.0, 2022-06-07 15:43:04.728
40.0, 40413.85387347387, 14096.999358773157, -17955.804521537368, -20345.653038698798, -1448.5718546595401, -4020.4976821539026, 16443.86547134703, 7878.811106540097, 0.012, 0.928, 0.434, 192.0, 0.0, 0.0, 0.0, 0.0, 0.0, 0.0, 0.0, 0.0, 0.0, 1.654609384728448E9, 0.0, 2022-06-07 15:43:04.728
41.0, 40386.87531791632, 14072.50184685014, -17989.063917286865, -20339.953343862697, -1466.9673403462577, -3958.806867457255, 16441.58559341259, 7870.0492227136165, 0.012, 0.928, 0.434, 192.0, 0.0, 0.0, 0.0, 0.0, 0.0, 0.0, 0.0, 0.0, 0.0, 1.65460938472845E9, 0.0, 2022-06-07 15:43:04.728
42.0, 40267.651112991705, 14029.050055629023, -18047.133749381752, -20377.37016408088, -1523.0925706735338, -3963.5677890262355, 16406.649816828947, 7852.2572341271925, 0.012, 0.928, 0.434, 192.0, 0.0, 0.0, 0.0, 0.0, 0.0, 0.0, 0.0, 0.0, 0.0, 1.654609384728452E9, 0.0, 2022-06-07 15:43:04.728
43.0, 40213.31402222085, 14025.227907327166, -18050.464159305593, -20404.50518184962, -1539.9010825039247, -4020.4306269205367, 16398.558485336125, 7851.340812604525, 0.012, 0.928, 0.434, 192.0, 0.0, 0.0, 0.0, 0.0, 0.0, 0.0, 0.0, 0.0, 0.0, 1.654609384728464E9, 0.0, 2022-06-07 15:43:04.728
44.0, 40294.94259297164, 14063.49409383465, -18001.42443197065, -20393.284606133057, -1497.6562854833944, -4065.4023367646146, 16416.037549500175, 7863.36605112148, 0.012, 0.928, 0.434, 192.0, 0.0, 0.0, 0.0, 0.0, 0.0, 0.0, 0.0, 0.0, 0.0, 1.654609384728466E9, 0.0, 2022-06-07 15:43:04.728
45.0, 40394.49726277558, 14077.910969008324, -17981.978414294532, -20361.07574237296, -1461.2005902767887, -4032.5452724153133, 16434.924773564908, 7870.742126791732, 0.012, 0.928, 0.434, 192.0, 0.0, 0.0, 0.0, 0.0, 0.0, 0.0, 0.0, 0.0, 0.0, 1.654609384728468E9, 0.0, 2022-06-07 15:43:04.728
46.0, 40367.36224500683, 14054.754561752625, -17996.88702784622, -20354.101998102906, -1478.3890817629197, -3971.5697135412356, 16434.63420088699, 7862.248463898714, 0.012, 0.928, 0.434, 192.0, 0.0, 0.0, 0.0, 0.0, 0.0, 0.0, 0.0, 0.0, 0.0, 1.654609384788755E9, 0.0, 2022-06-07 15:43:04.788
47.0, 40253.25658956249, 14029.92177366278, -18042.663400490692, -20373.63742275684, -1523.8525299850144, -3963.5677890262355, 16413.86943028801, 7854.090077172527, 0.012, 0.924, 0.432, 192.0, 0.0, 96.0, 28.0, 224.0, 13.0, 128.0, 0.0, 0.0, 0.0, 1.65460938478876E9, 0.0, 2022-06-07 15:43:04.788
48.0, 40201.40054242618, 14023.238602070644, -18052.29700235093, -20396.570312567987, -1550.540512864651, -4019.089522253218, 16389.640139298455, 7844.165902634371, 0.012, 0.924, 0.432, 192.0, 0.0, 0.0, 0.0, 0.0, 0.0, 0.0, 0.0, 0.0, 0.0, 1.654609384788762E9, 0.0, 2022-06-07 15:43:04.788
49.0, 40291.05338943641, 14059.604890299428, -18000.575065681347, -20382.13108564986, -1515.671791514372, -4063.8600663971984, 16399.87723825899, 7852.212530638281, 0.012, 0.924, 0.432, 192.0, 0.0, 0.0, 0.0, 0.0, 0.0, 0.0, 0.0, 0.0, 0.0, 1.654609384788765E9, 0.0, 2022-06-07 15:43:04.788
50.0, 40394.877242431314, 14082.001338243645, -17961.45951288456, -20338.634590939833, -1462.1840670328222, -4018.3072111972824, 16432.35432295255, 7875.726565805265, 0.012, 0.924, 0.432, 192.0, 0.0, 0.0, 0.0, 0.0, 0.0, 0.0, 0.0, 0.0, 0.0, 1.654609384788767E9, 0.0, 2022-06-07 15:43:04.788
51.0, 40372.97253286511, 14063.181169412277, -17988.28160623093, -20323.16718377676, -1470.2306950367326, -3944.546454494769, 16447.866433604533, 7882.32033041958, 0.012, 0.924, 0.432, 192.0, 0.0, 0.0, 0.0, 0.0, 0.0, 0.0, 0.0, 0.0, 0.0, 1.654609384788769E9, 0.0, 2022-06-07 15:43:04.788
52.0, 40265.99708390202, 14044.249241858632, -18030.749920696013, -20347.888213144328, -1514.576556036062, -3939.6961259479676, 16428.599229884057, 7872.977301237262, 0.012, 0.924, 0.432, 192.0, 0.0, 0.0, 0.0, 0.0, 0.0, 0.0, 0.0, 0.0, 0.0, 1.654609384788771E9, 0.0, 2022-06-07 15:43:04.788
53.0, 40223.752286881485, 14044.361000580908, -18031.174603840664, -20375.22439661317, -1531.5862335665506, -3999.3976353880926, 16406.269837173204, 7863.567216821578, 0.012, 0.924, 0.432, 192.0, 0.0, 0.0, 0.0, 0.0, 0.0, 0.0, 0.0, 0.0, 0.0, 1.654609384788773E9, 0.0, 2022-06-07 15:43:04.788
54.0, 40305.09028495435, 14069.707878793226, -17984.75003060699, -20372.810408211997, -1494.6835034708386, -4050.605481935201, 16413.131822720985, 7870.228036669259, 0.012, 0.924, 0.432, 192.0, 0.0, 0.0, 0.0, 0.0, 0.0, 0.0, 0.0, 0.0, 0.0, 1.654609384788775E9, 0.0, 2022-06-07 15:43:04.788
55.0, 40411.171664139234, 14093.288969193574, -17953.949326747577, -20348.670524200264, -1449.421220948842, -4025.0797897672405, 16436.601154399057, 7874.966606493785, 0.012, 0.924, 0.432, 192.0, 0.0, 0.0, 0.0, 0.0, 0.0, 0.0, 0.0, 0.0, 0.0, 1.654609384788778E9, 0.0, 2022-06-07 15:43:04.788
56.0, 40392.91028891925, 14084.88471327838, -17986.337004463316, -20335.147718804805, -1466.7438229017048, -3958.136315123596, 16440.132730022997, 7868.350490135013, 0.012, 0.924, 0.432, 192.0, 0.0, 0.0, 0.0, 0.0, 0.0, 0.0, 0.0, 0.0, 0.0, 1.65460938478878E9, 0.0, 2022-06-07 15:43:04.788
57.0, 40258.62100823176, 14043.981020925168, -18032.985095141543, -20351.30803004599, -1513.4366170688413, -3944.904082406054, 16422.11722399202, 7862.404926109902, 0.016, 0.924, 0.43, 192.0, 0.0, 128.0, 28.0, 224.0, 13.0, 112.0, 0.0, 0.0, 0.0, 1.6546093847888E9, 0.0, 2022-06-07 15:43:04.788
58.0, 40206.25087097298, 14044.517462792095, -18030.95108639611, -20371.42460005577, -1535.4307336128634, -4000.3140569107604, 16396.412717868414, 7857.085210929538, 0.016, 0.924, 0.43, 192.0, 0.0, 0.0, 0.0, 0.0, 0.0, 0.0, 0.0, 0.0, 0.0, 1.654609384788802E9, 0.0, 2022-06-07 15:43:04.788
59.0, 40310.61116583481, 14092.014919759622, -17978.64800437069, -20349.117559089373, -1497.2763058276541, -4039.8542928521983, 16413.06476748762, 7874.65368207141, 0.016, 0.924, 0.43, 192.0, 0.0, 0.0, 0.0, 0.0, 0.0, 0.0, 0.0, 0.0, 0.0, 1.654609384788805E9, 0.0, 2022-06-07 15:43:04.788
60.0, 40415.28438511901, 14122.0333125631, -17940.9853149635, -20301.083660254917, -1443.900340068381, -3993.8544027631765, 16458.43880873189, 7900.291132961647, 0.016, 0.924, 0.43, 192.0, 0.0, 0.0, 0.0, 0.0, 0.0, 0.0, 0.0, 0.0, 0.0, 1.654609384788807E9, 0.0, 2022-06-07 15:43:04.788
61.0, 40385.22128882662, 14092.976044771201, -17979.117391004253, -20291.07007873894, -1461.2229420212439, -3927.7379426643784, 16455.935413352898, 7892.870353802486, 0.016, 0.924, 0.43, 192.0, 0.0, 0.0, 0.0, 0.0, 0.0, 0.0, 0.0, 0.0, 0.0, 1.654609384848257E9, 0.0, 2022-06-07 15:43:04.848
62.0, 40263.672502478665, 14057.88380597637, -18042.75280746851, -20324.530640188532, -1513.7271897467601, -3924.318125762716, 16428.956857795343, 7875.100716960516, 0.016, 0.924, 0.43, 192.0, 0.0, 0.0, 0.0, 0.0, 0.0, 0.0, 0.0, 0.0, 0.0, 1.654609384848263E9, 0.0, 2022-06-07 15:43:04.848
63.0, 40224.936929337615, 14064.16464616831, -18045.03268540295, -20345.407169509792, -1527.6523265424164, -3977.582332799713, 16414.361168666026, 7870.876237258463, 0.016, 0.924, 0.43, 192.0, 0.0, 0.0, 0.0, 0.0, 0.0, 0.0, 0.0, 0.0, 0.0, 1.654609384848265E9, 0.0, 2022-06-07 15:43:04.848
64.0, 40322.30112818493, 14107.392919944874, -17973.75297233498, -20333.18076529274, -1493.9458959038134, -4023.872795566654, 16429.87327931801, 7881.381557152457, 0.016, 0.924, 0.43, 192.0, 0.0, 0.0, 0.0, 0.0, 0.0, 0.0, 0.0, 0.0, 0.0, 1.65460938484829E9, 0.0, 2022-06-07 15:43:04.848
65.0, 40426.37085036884, 14133.499757468673, -17943.35459987576, -20303.899980056285, -1443.9450435572915, -3990.6581033060675, 16491.675852736935, 7894.434975914357, 0.016, 0.924, 0.43, 192.0, 0.0, 0.0, 0.0, 0.0, 0.0, 0.0, 0.0, 0.0, 0.0, 1.654609384848292E9, 0.0, 2022-06-07 15:43:04.848
66.0, 40391.18920459619, 14103.41430943183, -17976.144608991697, -20304.034090523015, -1454.5844739180177, -3931.4036287550484, 16454.191977285383, 7886.3659961659905, 0.016, 0.924, 0.43, 192.0, 0.0, 0.0, 0.0, 0.0, 0.0, 0.0, 0.0, 0.0, 0.0, 1.654609384848294E9, 0.0, 2022-06-07 15:43:04.848
67.0, 40270.71330198208, 14057.325012364987, -18031.688693963133, -20344.155471820293, -1512.766064735182, -3934.331707278694, 16421.357264680537, 7866.495295345223, 0.018000000000000002, 0.924, 0.44, 192.0, 0.0, 144.0, 28.0, 224.0, 13.0, 192.0, 0.0, 0.0, 0.0, 1.654609384848296E9, 0.0, 2022-06-07 15:43:04.848
68.0, 40230.39075498471, 14060.588367055461, -18031.24165907403, -20368.205948854204, -1531.7426957777377, -3987.8864869936097, 16406.20278193984, 7863.70132728831, 0.018000000000000002, 0.924, 0.44, 192.0, 0.0, 0.0, 0.0, 0.0, 0.0, 0.0, 0.0, 0.0, 0.0, 1.654609384848299E9, 0.0, 2022-06-07 15:43:04.848
69.0, 40317.87548278278, 14101.402652430852, -17980.65966137167, -20357.991201638128, -1489.833174924037, -4031.2041677479947, 16418.697407090356, 7876.039490227639, 0.018000000000000002, 0.924, 0.44, 192.0, 0.0, 0.0, 0.0, 0.0, 0.0, 0.0, 0.0, 0.0, 0.0, 1.654609384848301E9, 0.0, 2022-06-07 15:43:04.848
70.0, 40408.64591701578, 14118.278219494608, -17954.46341687005, -20331.862012369875, -1456.2385030077105, -4008.2712779368494, 16438.12107302202, 7880.8451152855305, 0.018000000000000002, 0.924, 0.44, 192.0, 0.0, 0.0, 0.0, 0.0, 0.0, 0.0, 0.0, 0.0, 0.0, 1.654609384848303E9, 0.0, 2022-06-07 15:43:04.848
71.0, 40385.444806271174, 14101.045024519566, -17983.721850362046, -20320.775547120043, -1463.5028199556853, -3945.127599850607, 16442.59142191308, 7879.235789684748, 0.018000000000000002, 0.924, 0.44, 192.0, 0.0, 0.0, 0.0, 0.0, 0.0, 0.0, 0.0, 0.0, 0.0, 1.654609384848305E9, 0.0, 2022-06-07 15:43:04.848
72.0, 40269.97569441506, 14071.11603869391, -18033.94622015312, -20349.855166656394, -1511.3802565789529, -3939.003221869853, 16417.021026256207, 7866.897626745418, 0.018000000000000002, 0.924, 0.44, 192.0, 0.0, 0.0, 0.0, 0.0, 0.0, 0.0, 0.0, 0.0, 0.0, 1.654609384848307E9, 0.0, 2022-06-07 15:43:04.848
73.0, 40227.90971135017, 14071.674832305293, -18034.9073451647, -20372.385725067346, -1535.54249233514, -3993.966161485453, 16392.568217822103, 7861.533208076145, 0.018000000000000002, 0.924, 0.44, 192.0, 0.0, 0.0, 0.0, 0.0, 0.0, 0.0, 0.0, 0.0, 0.0, 1.654609384848309E9, 0.0, 2022-06-07 15:43:04.848
74.0, 40321.87644504028, 14109.136356012388, -17985.398231196195, -20364.182634852248, -1499.1091488729894, -4039.3625544741817, 16402.49239236026, 7870.518609347178, 0.018000000000000002, 0.924, 0.44, 192.0, 0.0, 0.0, 0.0, 0.0, 0.0, 0.0, 0.0, 0.0, 0.0, 1.654609384848312E9, 0.0, 2022-06-07 15:43:04.848
75.0, 40415.03851593, 14133.32094351303, -17950.283640656908, -20324.30712274398, -1451.6563953943726, -4003.108024967674, 16433.874241575508, 7886.097775232527, 0.018000000000000002, 0.924, 0.44, 192.0, 0.0, 0.0, 0.0, 0.0, 0.0, 0.0, 0.0, 0.0, 0.0, 1.654609384848314E9, 0.0, 2022-06-07 15:43:04.848
76.0, 40400.46517854514, 14116.825356105013, -17978.715059604056, -20298.312043942457, -1459.6136164204618, -3934.622279956613, 16440.95974456784, 7887.103603733016, 0.018000000000000002, 0.924, 0.44, 192.0, 0.0, 0.0, 0.0, 0.0, 0.0, 0.0, 0.0, 0.0, 0.0, 1.654609384907938E9, 0.0, 2022-06-07 15:43:04.907
77.0, 40278.894040452724, 14074.960538740223, -18031.778100940955, -20329.671541413252, -1513.4813205577518, -3932.7000299334563, 16417.892744289966, 7870.250388413715, 0.022, 0.924, 0.442, 192.0, 0.0, 176.0, 28.0, 224.0, 13.0, 208.0, 0.0, 0.0, 0.0, 1.654609384907943E9, 0.0, 2022-06-07 15:43:04.907
78.0, 40226.747420638494, 14070.959576482723, -18031.46517651858, -20348.379951522347, -1531.4074196109082, -3984.779594514322, 16405.688691817366, 7866.964681978784, 0.022, 0.924, 0.442, 192.0, 0.0, 0.0, 0.0, 0.0, 0.0, 0.0, 0.0, 0.0, 0.0, 1.654609384907946E9, 0.0, 2022-06-07 15:43:04.907
79.0, 40305.760837288006, 14102.78846058708, -17991.79083011041, -20338.053445583995, -1497.611581994484, -4030.6677258810673, 16416.037549500175, 7879.660472829399, 0.022, 0.924, 0.442, 192.0, 0.0, 0.0, 0.0, 0.0, 0.0, 0.0, 0.0, 0.0, 0.0, 1.654609384907948E9, 0.0, 2022-06-07 15:43:04.907
80.0, 40407.97536468213, 14127.84476612148, -17961.504216373472, -20301.754212588574, -1443.9673953017468, -3997.8553650206763, 16447.419398715425, 7899.151193994427, 0.022, 0.924, 0.442, 192.0, 0.0, 0.0, 0.0, 0.0, 0.0, 0.0, 0.0, 0.0, 0.0, 1.65460938490795E9, 0.0, 2022-06-07 15:43:04.907
81.0, 40392.37384705232, 14109.35987345694, -17969.17086472164, -20292.232369450616, -1453.958625073269, -3930.3530967656493, 16455.376619741513, 7896.379577681969, 0.022, 0.924, 0.442, 192.0, 0.0, 0.0, 0.0, 0.0, 0.0, 0.0, 0.0, 0.0, 0.0, 1.654609384907953E9, 0.0, 2022-06-07 15:43:04.907
82.0, 40283.78907248844, 14080.54847485405, -18020.915153135677, -20320.730843631132, -1503.8477186975144, -3921.658268172535, 16433.650724130955, 7882.834420542053, 0.022, 0.924, 0.442, 192.0, 0.0, 0.0, 0.0, 0.0, 0.0, 0.0, 0.0, 0.0, 0.0, 1.654609384907955E9, 0.0, 2022-06-07 15:43:04.907
83.0, 40238.10210682179, 14082.336614410475, -18023.686769448133, -20345.854204398896, -1524.2101578962993, -3969.3792425846154, 16411.187220953372, 7876.754746050209, 0.022, 0.924, 0.442, 192.0, 0.0, 0.0, 0.0, 0.0, 0.0, 0.0, 0.0, 0.0, 0.0, 1.654609384907957E9, 0.0, 2022-06-07 15:43:04.907
84.0, 40314.45566588112, 14118.948771828267, -17981.218454983053, -20337.49465197261, -1489.7214162017603, -4016.519071640858, 16426.498165905257, 7889.22701945627, 0.022, 0.924, 0.442, 192.0, 0.0, 0.0, 0.0, 0.0, 0.0, 0.0, 0.0, 0.0, 0.0, 1.654609384907977E9, 0.0, 2022-06-07 15:43:04.907
85.0, 40415.66436477475, 14135.645524936383, -17949.25546041196, -20309.443212681203, -1447.9236540703362, -3995.7990045307884, 16442.412607957438, 7894.211458469804, 0.022, 0.924, 0.442, 192.0, 0.0, 0.0, 0.0, 0.0, 0.0, 0.0, 0.0, 0.0, 0.0, 1.65460938490798E9, 0.0, 2022-06-07 15:43:04.907
86.0, 40399.347591322374, 14107.147050755866, -17978.26802471495, -20303.072965511437, -1458.3619187309646, -3935.136370079085, 16436.24352648777, 7884.086118231549, 0.022, 0.924, 0.442, 192.0, 0.0, 0.0, 0.0, 0.0, 0.0, 0.0, 0.0, 0.0, 0.0, 1.65460938490799E9, 0.0, 2022-06-07 15:43:04.907
87.0, 40287.58886904584, 14075.519332351607, -18027.486566005537, -20337.427596739246, -1505.0770646425565, -3932.6553264445456, 16425.58174438259, 7870.764478536186, 0.024, 0.928, 0.44, 192.0, 0.0, 192.0, 29.0, 0.0, 13.0, 192.0, 0.0, 0.0, 0.0, 1.654609384907993E9, 0.0, 2022-06-07 15:43:04.907
88.0, 40227.14975203869, 14077.374527141397, -18031.018141629476, -20369.234129099146, -1519.762160749693, -3991.1721934285397, 16427.05695951664, 7869.1104494464935, 0.024, 0.928, 0.44, 192.0, 0.0, 0.0, 0.0, 0.0, 0.0, 0.0, 0.0, 0.0, 0.0, 1.654609384907995E9, 0.0, 2022-06-07 15:43:04.907
89.0, 40306.3643343883, 14108.331693211996, -17983.923016062145, -20363.825006940962, -1490.0119888796794, -4043.877606854154, 16425.91702054942, 7871.680900058855, 0.024, 0.928, 0.44, 192.0, 0.0, 0.0, 0.0, 0.0, 0.0, 0.0, 0.0, 0.0, 0.0, 1.654609384907997E9, 0.0, 2022-06-07 15:43:04.907
90.0, 40411.75280949507, 14130.392864989384, -17948.137873189196, -20327.346959989904, -1446.7390116142049, -4012.004019260886, 16450.235718516793, 7882.521496119678, 0.024, 0.928, 0.44, 192.0, 0.0, 0.0, 0.0, 0.0, 0.0, 0.0, 0.0, 0.0, 0.0, 1.654609384908012E9, 0.0, 2022-06-07 15:43:04.908
91.0, 40388.95403015066, 14104.174268743309, -17986.247597485497, -20323.12248028785, -1461.3570524879758, -3953.285986576794, 16448.15700628245, 7875.167772193882, 0.024, 0.928, 0.44, 192.0, 0.0, 0.0, 0.0, 0.0, 0.0, 0.0, 0.0, 0.0, 0.0, 1.654609384968214E9, 0.0, 2022-06-07 15:43:04.968
92.0, 40273.68608399464, 14071.78659102757, -18053.012258173498, -20354.526681247557, -1509.7932827226261, -3947.6309952296015, 16423.994770526264, 7861.913187731885, 0.024, 0.928, 0.44, 192.0, 0.0, 0.0, 0.0, 0.0, 0.0, 0.0, 0.0, 0.0, 0.0, 1.65460938496822E9, 0.0, 2022-06-07 15:43:04.968
93.0, 40222.992327570006, 14071.138390438366, -18055.09097040784, -20380.566463537987, -1533.1061521895115, -3998.816490032255, 16411.455441886836, 7855.945271962318, 0.024, 0.928, 0.44, 192.0, 0.0, 0.0, 0.0, 0.0, 0.0, 0.0, 0.0, 0.0, 0.0, 1.654609384968222E9, 0.0, 2022-06-07 15:43:04.968
94.0, 40294.38379936026, 14101.134431497389, -17999.27866450294, -20369.03296339905, -1502.1266343744558, -4042.6706126535673, 16451.129788295006, 7870.451554113813, 0.024, 0.928, 0.44, 192.0, 0.0, 0.0, 0.0, 0.0, 0.0, 0.0, 0.0, 0.0, 0.0, 1.654609384968238E9, 0.0, 2022-06-07 15:43:04.968
95.0, 40397.827672699415, 14117.451204949763, -17978.200969481586, -20336.041788583017, -1464.732165900727, -4015.580298373735, 16425.872317060508, 7880.532190863156, 0.024, 0.928, 0.44, 192.0, 0.0, 0.0, 0.0, 0.0, 0.0, 0.0, 0.0, 0.0, 0.0, 1.65460938496824E9, 0.0, 2022-06-07 15:43:04.968
96.0, 40383.74607369257, 14098.0275390181, -18002.72083314906, -20322.67544539874, -1474.701043927794, -3944.5911579836798, 16438.433997444394, 7883.013234497695, 0.024, 0.928, 0.44, 192.0, 0.0, 0.0, 0.0, 0.0, 0.0, 0.0, 0.0, 0.0, 0.0, 1.654609384968242E9, 0.0, 2022-06-07 15:43:04.968
97.0, 40266.42176704667, 14066.422172358296, -18048.47485404907, -20331.5490879475, -1517.2587653706987, -3930.174282810007, 16419.457366401835, 7873.625501826466, 0.03, 0.926, 0.444, 192.0, 0.0, 240.0, 28.0, 240.0, 13.0, 224.0, 0.0, 0.0, 0.0, 1.654609384968245E9, 0.0, 2022-06-07 15:43:04.968
98.0, 40207.10023726228, 14060.990698455656, -18051.514691294993, -20350.41396026778, -1542.248015671732, -3978.8116787447548, 16392.501162588735, 7865.355356378002, 0.03, 0.926, 0.444, 192.0, 0.0, 0.0, 0.0, 0.0, 0.0, 0.0, 0.0, 0.0, 0.0, 1.654609384968247E9, 0.0, 2022-06-07 15:43:04.968
99.0, 40297.02130520598, 14096.082937250489, -17995.99295806801, -20333.426634481744, -1498.5503552616067, -4023.738685099922, 16421.178450724896, 7884.555504865111, 0.03, 0.926, 0.444, 192.0, 0.0, 0.0, 0.0, 0.0, 0.0, 0.0, 0.0, 0.0, 0.0, 1.654609384968249E9, 0.0, 2022-06-07 15:43:04.968
100.0, 40407.50597804856, 14116.870059593924, -17960.498387872984, -20296.613311363853, -1445.1296860134228, -3996.9836469869197, 16455.756599397257, 7895.217286970293, 0.03, 0.926, 0.444, 192.0, 0.0, 0.0, 0.0, 0.0, 0.0, 0.0, 0.0, 0.0, 0.0, 1.654609384968251E9, 0.0, 2022-06-07 15:43:04.968
101.0, 40390.85392842936, 14113.204373503253, -17991.43320219913, -20286.085639725407, -1453.66805239535, -3936.745695679867, 16452.515596451234, 7884.890781031941, 0.03, 0.926, 0.444, 192.0, 0.0, 0.0, 0.0, 0.0, 0.0, 0.0, 0.0, 0.0, 0.0, 1.654609384968253E9, 0.0, 2022-06-07 15:43:04.968
102.0, 40276.524755540464, 14085.152934211843, -18043.110435379796, -20317.892172085307, -1510.3744280784642, -3931.6942014329675, 16416.663398344925, 7863.969548221773, 0.03, 0.926, 0.444, 192.0, 0.0, 0.0, 0.0, 0.0, 0.0, 0.0, 0.0, 0.0, 0.0, 1.654609384968256E9, 0.0, 2022-06-07 15:43:04.968
103.0, 40223.10408629228, 14080.50377136514, -18046.217327859085, -20348.290544544525, -1527.8311404980589, -3980.8903909790984, 16397.753822535735, 7861.019117953672, 0.03, 0.926, 0.444, 192.0, 0.0, 0.0, 0.0, 0.0, 0.0, 0.0, 0.0, 0.0, 0.0, 1.654609384968258E9, 0.0, 2022-06-07 15:43:04.968
104.0, 40311.46053212411, 14113.941981070278, -17986.64992888569, -20337.472300228157, -1478.5902474630175, -4020.028295520341, 16413.690616332366, 7880.1969146963265, 0.03, 0.926, 0.444, 192.0, 0.0, 0.0, 0.0, 0.0, 0.0, 0.0, 0.0, 0.0, 0.0, 1.65460938496826E9, 0.0, 2022-06-07 15:43:04.968
105.0, 40426.57201606894, 14139.51237672715, -17957.726771560523, -20308.10210801388, -1431.2716044511324, -3994.7708242858444, 16440.53506142319, 7890.255199701214, 0.03, 0.926, 0.444, 192.0, 0.0, 0.0, 0.0, 0.0, 0.0, 0.0, 0.0, 0.0, 0.0, 1.654609384968262E9, 0.0, 2022-06-07 15:43:04.968
106.0, 40412.62452752883, 14118.904068339358, -17998.876333102744, -20309.644378381297, -1451.991671561202, -3935.3151840347273, 16441.183262012393, 7879.235789684748, 0.024, 0.934, 0.444, 192.0, 0.0, 192.0, 29.0, 48.0, 13.0, 224.0, 0.0, 0.0, 0.0, 1.654609385028515E9, 0.0, 2022-06-07 15:43:05.028
107.0, 40293.512081326495, 14078.35800389743, -18033.052150374908, -20350.190442823226, -1505.702913487305, -3930.755428165845, 16418.228020456794, 7864.595397066521, 0.024, 0.934, 0.444, 192.0, 0.0, 0.0, 0.0, 0.0, 0.0, 0.0, 0.0, 0.0, 0.0, 1.654609385028536E9, 0.0, 2022-06-07 15:43:05.028
108.0, 40231.083659062824, 14068.143256681355, -18039.400045800216, -20372.36337332289, -1530.9827364662572, -3988.9593707274644, 16392.791735266655, 7855.02885043965, 0.024, 0.934, 0.444, 192.0, 0.0, 0.0, 0.0, 0.0, 0.0, 0.0, 0.0, 0.0, 0.0, 1.654609385028538E9, 0.0, 2022-06-07 15:43:05.028
109.0, 40310.96879374609, 14105.31420771053, -17990.18150450963, -20359.108788860893, -1490.4590237687855, -4037.552063173302, 16405.308712161626, 7870.138629691438, 0.024, 0.934, 0.444, 192.0, 0.0, 0.0, 0.0, 0.0, 0.0, 0.0, 0.0, 0.0, 0.0, 1.65460938502854E9, 0.0, 2022-06-07 15:43:05.028
110.0, 40421.92285322223, 14132.873908623924, -17956.87740527122, -20329.850355368897, -1444.861465079959, -4009.7464930708998, 16432.39902644146, 7881.470964130279, 0.024, 0.934, 0.444, 192.0, 0.0, 0.0, 0.0, 0.0, 0.0, 0.0, 0.0, 0.0, 0.0, 1.654609385028542E9, 0.0, 2022-06-07 15:43:05.028
111.0, 40411.77516123953, 14114.187850259286, -17982.626614883735, -20317.042805796005, -1449.6447383933948, -3937.8185794137216, 16446.212404514838, 7881.403908896913, 0.024, 0.934, 0.444, 192.0, 0.0, 0.0, 0.0, 0.0, 0.0, 0.0, 0.0, 0.0, 0.0, 1.654609385028545E9, 0.0, 2022-06-07 15:43:05.028
112.0, 40292.50625282601, 14064.87990199088, -18039.71297022259, -20353.096169602417, -1506.3734658209642, -3933.9517276229535, 16422.385444925483, 7865.5565220781, 0.024, 0.934, 0.444, 192.0, 0.0, 0.0, 0.0, 0.0, 0.0, 0.0, 0.0, 0.0, 0.0, 1.654609385028547E9, 0.0, 2022-06-07 15:43:05.028
113.0, 40230.323699751345, 14059.314317621509, -18049.95006918312, -20386.489675818644, -1534.6931260458382, -3993.1167951961515, 16393.52934283368, 7847.384553835936, 0.024, 0.934, 0.444, 192.0, 0.0, 0.0, 0.0, 0.0, 0.0, 0.0, 0.0, 0.0, 0.0, 1.654609385028549E9, 0.0, 2022-06-07 15:43:05.028
114.0, 40318.546035116444, 14091.724347081703, -17992.327271977338, -20371.692820989232, -1496.6951604718163, -4036.32271722826, 16405.755747050734, 7861.086173187038, 0.024, 0.934, 0.444, 192.0, 0.0, 0.0, 0.0, 0.0, 0.0, 0.0, 0.0, 0.0, 0.0, 1.654609385028551E9, 0.0, 2022-06-07 15:43:05.028
115.0, 40435.40095512879, 14130.392864989384, -17955.64805932618, -20337.31583801697, -1446.5825494030178, -4007.1536907140844, 16456.7847796422, 7883.639083342444, 0.024, 0.934, 0.444, 192.0, 0.0, 0.0, 0.0, 0.0, 0.0, 0.0, 0.0, 0.0, 0.0, 1.654609385028554E9, 0.0, 2022-06-07 15:43:05.028
116.0, 40426.57201606894, 14114.925457826312, -17980.614957882757, -20323.88243959933, -1449.1082965264675, -3939.4055532700486, 16469.54762572618, 7882.387385652946, 0.018000000000000002, 0.928, 0.436, 192.0, 0.0, 144.0, 29.0, 0.0, 13.0, 160.0, 0.0, 0.0, 0.0, 1.654609385028556E9, 0.0, 2022-06-07 15:43:05.028
117.0, 40314.74623855904, 14079.252073675641, -18030.52640325146, -20350.07868410095, -1501.5901925075284, -3926.9556316084427, 16474.50971299526, 7866.562350578589, 0.018000000000000002, 0.928, 0.436, 192.0, 0.0, 0.0, 0.0, 0.0, 0.0, 0.0, 0.0, 0.0, 0.0, 1.654609385028558E9, 0.0, 2022-06-07 15:43:05.028
118.0, 40259.42567103216, 14082.582483599483, -18029.341760795327, -20370.46347504419, -1519.53864330514, -3973.5366670533026, 16422.96659028132, 7867.009385467695, 0.018000000000000002, 0.928, 0.436, 192.0, 0.0, 0.0, 0.0, 0.0, 0.0, 0.0, 0.0, 0.0, 0.0, 1.654609385028561E9, 0.0, 2022-06-07 15:43:05.028
119.0, 40342.77532610599, 14111.84091709148, -17984.258292228973, -20362.93093716275, -1484.4911079992185, -4019.2012809754947, 16422.63131411449, 7879.191086195838, 0.018000000000000002, 0.928, 0.436, 192.0, 0.0, 0.0, 0.0, 0.0, 0.0, 0.0, 0.0, 0.0, 0.0, 1.654609385028564E9, 0.0, 2022-06-07 15:43:05.028
120.0, 40447.00151050109, 14128.537670199594, -17964.07466698583, -20336.198250794205, -1446.2025697472775, -4006.3043244247824, 16441.697352134866, 7881.806240297108, 0.018000000000000002, 0.928, 0.436, 192.0, 0.0, 0.0, 0.0, 0.0, 0.0, 0.0, 0.0, 0.0, 0.0, 1.654609385028566E9, 0.0, 2022-06-07 15:43:05.028
121.0, 40427.35432712488, 14105.64948387736, -17974.244710712996, -20309.77848884803, -1460.7312036432272, -3937.2821375467943, 16445.653610903457, 7879.593417596033, 0.018000000000000002, 0.928, 0.436, 192.0, 0.0, 0.0, 0.0, 0.0, 0.0, 0.0, 0.0, 0.0, 0.0, 1.65460938508878E9, 0.0, 2022-06-07 15:43:05.088
122.0, 40313.18161644717, 14074.871131762402, -18014.388443754728, -20331.68319841423, -1502.9312971748468, -3917.9031751040434, 16426.498165905257, 7872.820839026075, 0.018000000000000002, 0.928, 0.436, 192.0, 0.0, 0.0, 0.0, 0.0, 0.0, 0.0, 0.0, 0.0, 0.0, 1.654609385088785E9, 0.0, 2022-06-07 15:43:05.088
123.0, 40246.86399064827, 14064.231701401675, -18028.894725906222, -20359.287602816537, -1520.6338787834502, -3971.9943966858864, 16406.716872062312, 7864.304824388603, 0.018000000000000002, 0.928, 0.436, 192.0, 0.0, 0.0, 0.0, 0.0, 0.0, 0.0, 0.0, 0.0, 0.0, 1.654609385088788E9, 0.0, 2022-06-07 15:43:05.088
124.0, 40330.41481142221, 14095.591198872471, -17981.039641027408, -20346.390646265823, -1475.1927823058109, -4014.574469873246, 16439.842157345076, 7885.024891498672, 0.018000000000000002, 0.928, 0.436, 192.0, 0.0, 0.0, 0.0, 0.0, 0.0, 0.0, 0.0, 0.0, 0.0, 1.65460938508879E9, 0.0, 2022-06-07 15:43:05.088
125.0, 40440.13952495331, 14118.725254383715, -17949.613088323247, -20314.002968550085, -1434.0208690191353, -3990.2334201614167, 16467.02187860273, 7900.380539939469, 0.018000000000000002, 0.928, 0.436, 192.0, 0.0, 0.0, 0.0, 0.0, 0.0, 0.0, 0.0, 0.0, 0.0, 1.654609385088792E9, 0.0, 2022-06-07 15:43:05.088
126.0, 40431.020013215544, 14106.208277488742, -17975.60816712477, -20303.005910278072, -1441.3522412004759, -3923.3122972622273, 16460.49516922178, 7893.898534047429, 0.024, 0.922, 0.444, 192.0, 0.0, 192.0, 28.0, 208.0, 13.0, 224.0, 0.0, 0.0, 0.0, 1.654609385088794E9, 0.0, 2022-06-07 15:43:05.088
127.0, 40318.32251767189, 14087.298701679552, -18027.173641583162, -20329.559782690976, -1487.5532969895955, -3907.621372654602, 16441.76440736823, 7883.3708624089795, 0.024, 0.922, 0.444, 192.0, 0.0, 0.0, 0.0, 0.0, 0.0, 0.0, 0.0, 0.0, 0.0, 1.654609385088796E9, 0.0, 2022-06-07 15:43:05.088
128.0, 40259.470374521065, 14084.370623155908, -18034.99675214252, -20361.4557220287, -1511.9837536792463, -3959.3209575797273, 16420.172622224407, 7876.106545461005, 0.024, 0.922, 0.444, 192.0, 0.0, 0.0, 0.0, 0.0, 0.0, 0.0, 0.0, 0.0, 0.0, 1.654609385088807E9, 0.0, 2022-06-07 15:43:05.088
129.0, 40332.64998586774, 14106.40944318884, -17989.488600431516, -20364.204986596702, -1483.0158928651683, -4011.6240396051458, 16421.737244336276, 7879.660472829399, 0.024, 0.922, 0.444, 192.0, 0.0, 0.0, 0.0, 0.0, 0.0, 0.0, 0.0, 0.0, 0.0, 1.654609385088809E9, 0.0, 2022-06-07 15:43:05.088
130.0, 40432.428173116234, 14121.31805674053, -17955.133969203707, -20343.350809019903, -1440.994613289191, -3994.1226236966404, 16438.657514888946, 7886.634217099455, 0.024, 0.922, 0.444, 192.0, 0.0, 0.0, 0.0, 0.0, 0.0, 0.0, 0.0, 0.0, 0.0, 1.654609385088811E9, 0.0, 2022-06-07 15:43:05.088
131.0, 40424.67211779024, 14114.053739792555, -17978.536245648414, -20330.4985559581, -1446.3590319584648, -3930.129579321096, 16441.78675911269, 7883.572028109077, 0.024, 0.922, 0.444, 192.0, 0.0, 0.0, 0.0, 0.0, 0.0, 0.0, 0.0, 0.0, 0.0, 1.654609385088813E9, 0.0, 2022-06-07 15:43:05.088
132.0, 40310.991145490545, 14079.676756820292, -18043.57982201336, -20361.209852839693, -1497.8574511834922, -3924.608698440635, 16418.58564836808, 7866.31648138958, 0.024, 0.922, 0.444, 192.0, 0.0, 0.0, 0.0, 0.0, 0.0, 0.0, 0.0, 0.0, 0.0, 1.654609385088815E9, 0.0, 2022-06-07 15:43:05.088
133.0, 40243.466525491065, 14068.25501540363, -18059.337801854348, -20396.615016056898, -1527.8311404980589, -3981.8291642462214, 16400.950121992842, 7855.632347539944, 0.024, 0.922, 0.444, 192.0, 0.0, 0.0, 0.0, 0.0, 0.0, 0.0, 0.0, 0.0, 0.0, 1.654609385088818E9, 0.0, 2022-06-07 15:43:05.088
134.0, 40315.34973565933, 14096.328806439496, -17994.71890863406, -20398.3137486355, -1497.2092505942883, -4029.0584002802852, 16409.73435756378, 7867.0540889566055, 0.024, 0.922, 0.444, 192.0, 0.0, 0.0, 0.0, 0.0, 0.0, 0.0, 0.0, 0.0, 0.0, 1.65460938508882E9, 0.0, 2022-06-07 15:43:05.088
135.0, 40432.38346962732, 14118.568792172528, -17964.342887919294, -20356.583041737445, -1446.8954738253922, -4004.9632197574642, 16438.165776510927, 7885.5613333656, 0.024, 0.922, 0.444, 192.0, 0.0, 0.0, 0.0, 0.0, 0.0, 0.0, 0.0, 0.0, 0.0, 1.654609385088822E9, 0.0, 2022-06-07 15:43:05.088
136.0, 40431.71291729366, 14106.297684466565, -17988.57217890885, -20330.856183869386, -1444.861465079959, -3933.8623206451325, 16451.576823184114, 7889.9422752788405, 0.026000000000000002, 0.926, 0.442, 192.0, 0.0, 208.0, 28.0, 240.0, 13.0, 208.0, 0.0, 0.0, 0.0, 1.654609385148233E9, 0.0, 2022-06-07 15:43:05.148
137.0, 40316.9143577712, 14086.762259812625, -18032.560411996892, -20350.749236434607, -1490.9507621468024, -3915.1539105360403, 16438.8810323335, 7882.566199608589, 0.026000000000000002, 0.926, 0.442, 192.0, 0.0, 0.0, 0.0, 0.0, 0.0, 0.0, 0.0, 0.0, 0.0, 1.654609385148238E9, 0.0, 2022-06-07 15:43:05.148
138.0, 40248.58507497133, 14088.460992391229, -18042.976324913066, -20375.537321035543, -1521.5279485616625, -3963.5007337928696, 16445.430093458905, 7874.050184971116, 0.026000000000000002, 0.926, 0.442, 192.0, 0.0, 0.0, 0.0, 0.0, 0.0, 0.0, 0.0, 0.0, 0.0, 1.65460938514824E9, 0.0, 2022-06-07 15:43:05.148
139.0, 40318.5683868609, 14110.008074046145, -18002.787888382423, -20374.151512879314, -1500.606715751495, -4024.4762926669473, 16429.850927573556, 7875.0336617271505, 0.026000000000000002, 0.926, 0.442, 192.0, 0.0, 0.0, 0.0, 0.0, 0.0, 0.0, 0.0, 0.0, 0.0, 1.654609385148242E9, 0.0, 2022-06-07 15:43:05.148
140.0, 40428.04723120299, 14123.083844552499, -17959.35844890576, -20338.45577698419, -1450.3152907270542, -3999.710559810467, 16430.186203740384, 7886.790679310642, 0.026000000000000002, 0.926, 0.442, 192.0, 0.0, 0.0, 0.0, 0.0, 0.0, 0.0, 0.0, 0.0, 0.0, 1.654609385148244E9, 0.0, 2022-06-07 15:43:05.148
141.0, 40417.743077009094, 14095.971178528212, -17980.234978227018, -20320.507326186576, -1451.2764157386323, -3934.2199485564174, 16446.234756259295, 7879.727528062765, 0.026000000000000002, 0.926, 0.442, 192.0, 0.0, 0.0, 0.0, 0.0, 0.0, 0.0, 0.0, 0.0, 0.0, 1.654609385148247E9, 0.0, 2022-06-07 15:43:05.148
142.0, 40297.26717439499, 14065.662213046815, -18034.95204865361, -20345.675390443255, -1501.6795994853496, -3925.1227885631074, 16417.11043323403, 7860.348565620014, 0.026000000000000002, 0.926, 0.442, 192.0, 0.0, 0.0, 0.0, 0.0, 0.0, 0.0, 0.0, 0.0, 0.0, 1.654609385148249E9, 0.0, 2022-06-07 15:43:05.148
143.0, 40237.14098181021, 14070.445486360251, -18041.545813267927, -20367.13306512035, -1519.2704223716764, -3973.5590187977577, 16400.324273148093, 7855.542940562123, 0.026000000000000002, 0.926, 0.442, 192.0, 0.0, 0.0, 0.0, 0.0, 0.0, 0.0, 0.0, 0.0, 0.0, 1.654609385148251E9, 0.0, 2022-06-07 15:43:05.148
144.0, 40321.38470666226, 14115.104271781955, -17993.981301067033, -20362.41684704028, -1484.7593289326824, -4019.4695019089586, 16419.546773379658, 7867.434068612346, 0.026000000000000002, 0.926, 0.442, 192.0, 0.0, 0.0, 0.0, 0.0, 0.0, 0.0, 0.0, 0.0, 0.0, 1.654609385148253E9, 0.0, 2022-06-07 15:43:05.148
145.0, 40440.13952495331, 14143.46863549574, -17945.522719087927, -20316.148736017793, -1435.1384562419005, -3988.221763160439, 16449.76633188323, 7887.640045599944, 0.026000000000000002, 0.926, 0.442, 192.0, 0.0, 0.0, 0.0, 0.0, 0.0, 0.0, 0.0, 0.0, 0.0, 1.654609385148255E9, 0.0, 2022-06-07 15:43:05.148
146.0, 40427.35432712488, 14114.74664387067, -17978.200969481586, -20297.485029397612, -1443.0733255235345, -3923.625221684602, 16449.699276649866, 7880.3757286519685, 0.02, 0.928, 0.442, 192.0, 0.0, 160.0, 29.0, 0.0, 13.0, 208.0, 0.0, 0.0, 0.0, 1.654609385148258E9, 0.0, 2022-06-07 15:43:05.148
147.0, 40308.755971045015, 14074.960538740223, -18035.644952731724, -20332.867840870364, -1492.9624191477799, -3916.4056082255374, 16423.748901337254, 7862.98607146574, 0.02, 0.928, 0.442, 192.0, 0.0, 0.0, 0.0, 0.0, 0.0, 0.0, 0.0, 0.0, 0.0, 1.65460938514826E9, 0.0, 2022-06-07 15:43:05.148
148.0, 40241.72308942355, 14071.965404983212, -18039.064769633387, -20359.242899327626, -1518.6892770158383, -3962.9866436703974, 16402.71590980481, 7862.047298198617, 0.02, 0.928, 0.442, 192.0, 0.0, 0.0, 0.0, 0.0, 0.0, 0.0, 0.0, 0.0, 0.0, 1.654609385148262E9, 0.0, 2022-06-07 15:43:05.148
149.0, 40313.98627924756, 14109.605742645948, -18005.023062827953, -20351.397437023814, -1491.442500524819, -4010.1711762155505, 16413.087119232074, 7873.379632637458, 0.02, 0.928, 0.442, 192.0, 0.0, 0.0, 0.0, 0.0, 0.0, 0.0, 0.0, 0.0, 0.0, 1.654609385148264E9, 0.0, 2022-06-07 15:43:05.148
150.0, 40426.32614687993, 14139.46767323824, -17957.816178538345, -20316.036977295516, -1439.47469466623, -3987.5735625712355, 16437.003485799254, 7890.858696801508, 0.02, 0.928, 0.442, 192.0, 0.0, 0.0, 0.0, 0.0, 0.0, 0.0, 0.0, 0.0, 0.0, 1.654609385148273E9, 0.0, 2022-06-07 15:43:05.148
151.0, 40425.56618756845, 14128.9847050887, -17961.705382073567, -20299.45198290968, -1438.4688661657412, -3917.791416381767, 16445.228927758806, 7893.384443924957, 0.02, 0.928, 0.442, 192.0, 0.0, 0.0, 0.0, 0.0, 0.0, 0.0, 0.0, 0.0, 0.0, 1.654609385207943E9, 0.0, 2022-06-07 15:43:05.207
152.0, 40306.72196229958, 14092.685472093282, -18022.971513625565, -20335.59475369391, -1502.4619105412855, -3911.3988174675487, 16414.227058199296, 7868.216379668282, 0.02, 0.928, 0.442, 192.0, 0.0, 0.0, 0.0, 0.0, 0.0, 0.0, 0.0, 0.0, 0.0, 1.654609385207947E9, 0.0, 2022-06-07 15:43:05.207
153.0, 40245.47818249204, 14090.271483692108, -18030.682865462644, -20365.724905219664, -1529.6639835433941, -3962.047870403275, 16396.837401013065, 7861.086173187038, 0.02, 0.928, 0.442, 192.0, 0.0, 0.0, 0.0, 0.0, 0.0, 0.0, 0.0, 0.0, 0.0, 1.654609385207962E9, 0.0, 2022-06-07 15:43:05.207
154.0, 40321.7199828291, 14120.26752475113, -17986.02408004094, -20359.779341194553, -1497.3210093165649, -4009.5006238818914, 16411.902476775944, 7872.105583203505, 0.02, 0.928, 0.442, 192.0, 0.0, 0.0, 0.0, 0.0, 0.0, 0.0, 0.0, 0.0, 0.0, 1.654609385207965E9, 0.0, 2022-06-07 15:43:05.207
155.0, 40428.74013528111, 14145.614402963449, -17946.34973363277, -20328.352788490392, -1441.0393167781017, -3990.5910480727016, 16458.796436643177, 7892.378615424468, 0.02, 0.928, 0.442, 192.0, 0.0, 0.0, 0.0, 0.0, 0.0, 0.0, 0.0, 0.0, 0.0, 1.654609385207967E9, 0.0, 2022-06-07 15:43:05.207
156.0, 40417.72072526464, 14128.001228332667, -17969.908472288666, -20310.761965604062, -1440.3687644444424, -3922.4852827173813, 16467.78183791421, 7891.976284024273, 0.024, 0.924, 0.444, 192.0, 0.0, 192.0, 28.0, 224.0, 13.0, 224.0, 0.0, 0.0, 0.0, 1.654609385207969E9, 0.0, 2022-06-07 15:43:05.207
157.0, 40304.19621517613, 14086.426983645795, -18024.245563059518, -20336.44411998321, -1490.1684510908665, -3909.5436226777583, 16439.864509089533, 7877.358243150502, 0.024, 0.924, 0.444, 192.0, 0.0, 0.0, 0.0, 0.0, 0.0, 0.0, 0.0, 0.0, 0.0, 1.654609385207971E9, 0.0, 2022-06-07 15:43:05.207
158.0, 40242.10306907929, 14081.844876032457, -18032.985095141543, -20359.198195838715, -1510.7320559897491, -3956.906969178554, 16419.166793723918, 7872.910246003896, 0.024, 0.924, 0.444, 192.0, 0.0, 0.0, 0.0, 0.0, 0.0, 0.0, 0.0, 0.0, 0.0, 1.654609385207973E9, 0.0, 2022-06-07 15:43:05.207
159.0, 40309.13595070076, 14114.478422937205, -17991.634367899223, -20356.136006848337, -1478.8137649075707, -4002.2363069339167, 16435.930602065397, 7885.382519409957, 0.024, 0.924, 0.444, 192.0, 0.0, 0.0, 0.0, 0.0, 0.0, 0.0, 0.0, 0.0, 0.0, 1.654609385207975E9, 0.0, 2022-06-07 15:43:05.207
160.0, 40422.88397823381, 14139.691190682792, -17950.104826701263, -20315.366424961856, -1431.7856945736046, -3976.0177106878414, 16467.670079191932, 7907.622505142988, 0.024, 0.924, 0.444, 192.0, 0.0, 0.0, 0.0, 0.0, 0.0, 0.0, 0.0, 0.0, 0.0, 1.654609385207978E9, 0.0, 2022-06-07 15:43:05.207
161.0, 40430.08123994842, 14134.259716780152, -17970.333155433316, -20288.119648470838, -1424.4990258811745, -3900.871145829099, 16487.719593968344, 7913.791586612652, 0.024, 0.924, 0.444, 192.0, 0.0, 0.0, 0.0, 0.0, 0.0, 0.0, 0.0, 0.0, 0.0, 1.65460938520798E9, 0.0, 2022-06-07 15:43:05.207
162.0, 40301.625764563774, 14089.399765658352, -18035.108510864797, -20324.530640188532, -1471.9964828487018, -3892.5339451472696, 16496.816753961655, 7894.926714292374, 0.024, 0.924, 0.444, 192.0, 0.0, 0.0, 0.0, 0.0, 0.0, 0.0, 0.0, 0.0, 0.0, 1.654609385207982E9, 0.0, 2022-06-07 15:43:05.207
163.0, 40223.03703105891, 14063.73996302366, -18066.892691480243, -20363.534434263045, -1510.1285588894557, -3950.7602394533446, 16422.340741436572, 7876.888856516941, 0.024, 0.924, 0.444, 192.0, 0.0, 0.0, 0.0, 0.0, 0.0, 0.0, 0.0, 0.0, 0.0, 1.654609385207984E9, 0.0, 2022-06-07 15:43:05.207
164.0, 40290.87457548077, 14091.232608703687, -18010.9015716197, -20363.288565074035, -1490.5931342355175, -4006.5948971027015, 16411.231924442283, 7881.202743196815, 0.024, 0.924, 0.444, 192.0, 0.0, 0.0, 0.0, 0.0, 0.0, 0.0, 0.0, 0.0, 0.0, 1.654609385207986E9, 0.0, 2022-06-07 15:43:05.207
165.0, 40400.2863645895, 14120.446338706774, -17957.32444016033, -20331.21381178067, -1444.5261889131295, -3986.5677340707466, 16434.656552631444, 7892.9374090358515, 0.024, 0.924, 0.444, 192.0, 0.0, 0.0, 0.0, 0.0, 0.0, 0.0, 0.0, 0.0, 0.0, 1.654609385207988E9, 0.0, 2022-06-07 15:43:05.207
166.0, 40397.112416876844, 14098.78749832958, -17983.699498617592, -20320.68614014222, -1446.6496046363836, -3924.385180996082, 16442.81493935763, 7887.282417688659, 0.026000000000000002, 0.918, 0.442, 192.0, 0.0, 208.0, 28.0, 176.0, 13.0, 208.0, 0.0, 0.0, 0.0, 1.654609385268294E9, 0.0, 2022-06-07 15:43:05.268
167.0, 40293.98146796006, 14074.602910828939, -18032.51570850798, -20345.094245087417, -1496.4269395383526, -3908.336628477172, 16427.39223568347, 7873.536094848645, 0.026000000000000002, 0.918, 0.442, 192.0, 0.0, 0.0, 0.0, 0.0, 0.0, 0.0, 0.0, 0.0, 0.0, 1.654609385268299E9, 0.0, 2022-06-07 15:43:05.268
168.0, 40243.22065630206, 14077.97802424169, -18033.432130030647, -20359.01938188307, -1516.2752886146652, -3950.939053408987, 16410.427261641893, 7874.720737304776, 0.026000000000000002, 0.918, 0.442, 192.0, 0.0, 0.0, 0.0, 0.0, 0.0, 0.0, 0.0, 0.0, 0.0, 1.654609385268314E9, 0.0, 2022-06-07 15:43:05.268
169.0, 40312.35460190232, 14108.622265889915, -17987.70046087509, -20353.29733530251, -1482.412395764875, -4006.1478622135955, 16418.76446232372, 7883.102641475516, 0.026000000000000002, 0.918, 0.442, 192.0, 0.0, 0.0, 0.0, 0.0, 0.0, 0.0, 0.0, 0.0, 0.0, 1.654609385268317E9, 0.0, 2022-06-07 15:43:05.268
170.0, 40429.85772250387, 14138.46184473775, -17950.350695890273, -20322.07194829845, -1435.451380664275, -3989.2499434053834, 16450.548642939168, 7893.429147413868, 0.026000000000000002, 0.918, 0.442, 192.0, 0.0, 0.0, 0.0, 0.0, 0.0, 0.0, 0.0, 0.0, 0.0, 1.654609385268319E9, 0.0, 2022-06-07 15:43:05.268
171.0, 40429.45539110368, 14115.305437482053, -17979.206797982075, -20313.06419528296, -1444.57089240204, -3932.767085166822, 16453.096741807072, 7884.354339165014, 0.026000000000000002, 0.918, 0.442, 192.0, 0.0, 0.0, 0.0, 0.0, 0.0, 0.0, 0.0, 0.0, 0.0, 1.654609385268327E9, 0.0, 2022-06-07 15:43:05.268
172.0, 40317.853131038326, 14083.387146399875, -18027.151289838708, -20335.862974627373, -1488.4473667678078, -3912.7399221348674, 16432.242564230273, 7873.781964037653, 0.026000000000000002, 0.918, 0.442, 192.0, 0.0, 0.0, 0.0, 0.0, 0.0, 0.0, 0.0, 0.0, 0.0, 1.654609385268329E9, 0.0, 2022-06-07 15:43:05.268
173.0, 40246.93104588164, 14073.060640461523, -18035.063807375886, -20362.707419718197, -1502.5960210080173, -3953.5318557658024, 16427.21342172783, 7873.200818681815, 0.026000000000000002, 0.918, 0.442, 192.0, 0.0, 0.0, 0.0, 0.0, 0.0, 0.0, 0.0, 0.0, 0.0, 1.654609385268331E9, 0.0, 2022-06-07 15:43:05.268
174.0, 40315.193273448145, 14104.017806532123, -17994.405984211684, -20360.427541783756, -1477.763232918171, -4007.5336703698244, 16435.036532287184, 7878.565237351088, 0.026000000000000002, 0.918, 0.442, 192.0, 0.0, 0.0, 0.0, 0.0, 0.0, 0.0, 0.0, 0.0, 0.0, 1.654609385268334E9, 0.0, 2022-06-07 15:43:05.268
175.0, 40426.77318176904, 14139.80294940507, -17952.585870335803, -20315.411128450767, -1428.8799677944146, -3988.780556771822, 16451.30860225065, 7891.976284024273, 0.026000000000000002, 0.918, 0.442, 192.0, 0.0, 0.0, 0.0, 0.0, 0.0, 0.0, 0.0, 0.0, 0.0, 1.654609385268336E9, 0.0, 2022-06-07 15:43:05.268
176.0, 40422.88397823381, 14127.487138210196, -17962.46534138505, -20299.720203843142, -1426.6894968377944, -3920.0265908272972, 16460.428113988415, 7894.479679403267, 0.026000000000000002, 0.916, 0.442, 192.0, 0.0, 208.0, 28.0, 160.0, 13.0, 208.0, 0.0, 0.0, 0.0, 1.654609385268338E9, 0.0, 2022-06-07 15:43:05.268
177.0, 40316.35556415982, 14086.65050109035, -18013.695539676613, -20325.849393111395, -1474.9469131168025, -3900.6699801290015, 16445.139520780984, 7883.03558624215, 0.026000000000000002, 0.916, 0.442, 192.0, 0.0, 0.0, 0.0, 0.0, 0.0, 0.0, 0.0, 0.0, 0.0, 1.65460938526834E9, 0.0, 2022-06-07 15:43:05.268
178.0, 40249.07681334935, 14074.35704163993, -18037.09781612132, -20361.612184239886, -1506.8875559434362, -3951.028460386808, 16423.25716295924, 7870.65271981391, 0.026000000000000002, 0.916, 0.442, 192.0, 0.0, 0.0, 0.0, 0.0, 0.0, 0.0, 0.0, 0.0, 0.0, 1.654609385268342E9, 0.0, 2022-06-07 15:43:05.268
179.0, 40306.31963089939, 14100.530934397095, -18007.99584484051, -20364.69672497472, -1483.4629277542745, -4008.1595192145733, 16423.25716295924, 7875.659510571899, 0.026000000000000002, 0.916, 0.442, 192.0, 0.0, 0.0, 0.0, 0.0, 0.0, 0.0, 0.0, 0.0, 0.0, 1.654609385268345E9, 0.0, 2022-06-07 15:43:05.268
180.0, 40426.90729223577, 14125.520184698127, -17944.56159407635, -20329.73859664662, -1429.9528515282693, -3988.802908516277, 16450.34747723907, 7897.519516649189, 0.026000000000000002, 0.916, 0.442, 192.0, 0.0, 0.0, 0.0, 0.0, 0.0, 0.0, 0.0, 0.0, 0.0, 1.654609385268347E9, 0.0, 2022-06-07 15:43:05.268
181.0, 40432.83050451642, 14108.55521065655, -17972.389515923205, -20317.713358129666, -1432.8809300519144, -3922.753503650845, 16453.007334829254, 7895.552563137122, 0.026000000000000002, 0.916, 0.442, 192.0, 0.0, 0.0, 0.0, 0.0, 0.0, 0.0, 0.0, 0.0, 0.0, 1.654609385328491E9, 0.0, 2022-06-07 15:43:05.328
182.0, 40318.32251767189, 14075.988718985167, -18029.498223006514, -20344.244878798116, -1479.6407794524168, -3903.419244697004, 16434.29892472016, 7884.84607754303, 0.026000000000000002, 0.916, 0.442, 192.0, 0.0, 0.0, 0.0, 0.0, 0.0, 0.0, 0.0, 0.0, 0.0, 1.654609385328499E9, 0.0, 2022-06-07 15:43:05.328
183.0, 40237.6997754216, 14073.418268372807, -18042.462234790593, -20372.095152389425, -1509.189785622333, -3948.748582452367, 16423.078349003597, 7881.3145019190915, 0.026000000000000002, 0.916, 0.442, 192.0, 0.0, 0.0, 0.0, 0.0, 0.0, 0.0, 0.0, 0.0, 0.0, 1.654609385328515E9, 0.0, 2022-06-07 15:43:05.328
184.0, 40299.524700584974, 14103.146088498366, -18002.65377791569, -20370.97756516666, -1482.5912097205176, -4004.4714813794476, 16426.453462416346, 7883.952007764818, 0.026000000000000002, 0.916, 0.442, 192.0, 0.0, 0.0, 0.0, 0.0, 0.0, 0.0, 0.0, 0.0, 0.0, 1.654609385328518E9, 0.0, 2022-06-07 15:43:05.328
185.0, 40422.28048113352, 14135.13143481391, -17961.325402417828, -20336.68998917222, -1432.9032817963698, -3986.4112718595593, 16455.98011684181, 7901.520478906689, 0.03, 0.922, 0.436, 192.0, 0.0, 240.0, 28.0, 208.0, 13.0, 160.0, 0.0, 0.0, 0.0, 1.654609385328522E9, 0.0, 2022-06-07 15:43:05.328
186.0, 40435.98210048462, 14125.475481209218, -17973.529454890428, -20310.60550339288, -1426.8236073045264, -3911.1082447896297, 16499.051928407185, 7908.740092365753, 0.03, 0.922, 0.436, 192.0, 0.0, 0.0, 0.0, 0.0, 0.0, 0.0, 0.0, 0.0, 0.0, 1.654609385328525E9, 0.0, 2022-06-07 15:43:05.328
187.0, 40316.98141300457, 14082.40366964384, -18030.95108639611, -20344.26723054257, -1477.6291224514393, -3901.3405324626606, 16426.54286939417, 7882.968531008784, 0.03, 0.922, 0.436, 192.0, 0.0, 0.0, 0.0, 0.0, 0.0, 0.0, 0.0, 0.0, 0.0, 1.654609385328528E9, 0.0, 2022-06-07 15:43:05.328
188.0, 40233.34118525281, 14071.697184049748, -18044.25037434702, -20376.94548093623, -1509.0109716666905, -3958.9186261795317, 16403.565276094112, 7868.350490135013, 0.03, 0.922, 0.436, 192.0, 0.0, 0.0, 0.0, 0.0, 0.0, 0.0, 0.0, 0.0, 0.0, 1.654609385328532E9, 0.0, 2022-06-07 15:43:05.328
189.0, 40302.810407019904, 14099.949789041257, -17995.14359177871, -20356.963021393185, -1480.1325178304337, -4013.6804000950337, 16420.99963676925, 7879.593417596033, 0.03, 0.922, 0.436, 192.0, 0.0, 0.0, 0.0, 0.0, 0.0, 0.0, 0.0, 0.0, 0.0, 1.654609385328535E9, 0.0, 2022-06-07 15:43:05.328
190.0, 40423.37571661183, 14134.0361993356, -17947.936707489098, -20321.40139596479, -1426.4883311376968, -3995.284914408316, 16461.188073299894, 7900.760519595208, 0.03, 0.922, 0.436, 192.0, 0.0, 0.0, 0.0, 0.0, 0.0, 0.0, 0.0, 0.0, 0.0, 1.654609385328539E9, 0.0, 2022-06-07 15:43:05.328
191.0, 40440.85478077588, 14132.024542334622, -17960.140759961698, -20298.222636964638, -1421.9956305021801, -3922.105303061641, 16478.041288619195, 7904.649723130432, 0.03, 0.922, 0.436, 192.0, 0.0, 0.0, 0.0, 0.0, 0.0, 0.0, 0.0, 0.0, 0.0, 1.654609385328542E9, 0.0, 2022-06-07 15:43:05.328
192.0, 40328.55961663242, 14096.440565161773, -18018.679978690147, -20328.151622790294, -1474.7457474167047, -3908.135462777074, 16450.369828983527, 7886.567161866089, 0.03, 0.922, 0.436, 192.0, 0.0, 0.0, 0.0, 0.0, 0.0, 0.0, 0.0, 0.0, 0.0, 1.654609385328551E9, 0.0, 2022-06-07 15:43:05.328
193.0, 40256.676406464154, 14084.460030133729, -18032.314542807882, -20357.007724882096, -1503.959477419791, -3956.839913945188, 16427.861622317032, 7876.039490227639, 0.03, 0.922, 0.436, 192.0, 0.0, 0.0, 0.0, 0.0, 0.0, 0.0, 0.0, 0.0, 0.0, 1.654609385328554E9, 0.0, 2022-06-07 15:43:05.328
194.0, 40316.4673228821, 14109.739853112682, -17997.714042391068, -20349.005800367093, -1467.704947913283, -4005.1420337131067, 16438.25518348875, 7885.963664765795, 0.03, 0.922, 0.436, 192.0, 0.0, 0.0, 0.0, 0.0, 0.0, 0.0, 0.0, 0.0, 0.0, 1.654609385328558E9, 0.0, 2022-06-07 15:43:05.328
195.0, 40432.40582137177, 14140.89818488338, -17943.578117320314, -20314.91939007275, -1416.6312118329063, -3989.0264259608302, 16463.244433789783, 7900.827574828574, 0.026000000000000002, 0.926, 0.44, 192.0, 0.0, 208.0, 28.0, 240.0, 13.0, 192.0, 0.0, 0.0, 0.0, 1.654609385328561E9, 0.0, 2022-06-07 15:43:05.328
196.0, 40441.57003659845, 14129.901126611368, -17953.61405058075, -20299.340224187403, -1415.7818455436047, -3926.3521345081494, 16469.055887348164, 7897.832441071563, 0.026000000000000002, 0.926, 0.44, 192.0, 0.0, 0.0, 0.0, 0.0, 0.0, 0.0, 0.0, 0.0, 0.0, 1.654609385387995E9, 0.0, 2022-06-07 15:43:05.387
197.0, 40318.546035116444, 14077.955672497234, -18018.367054267772, -20330.83383212493, -1476.4668317397634, -3910.6612099005238, 16444.02193355822, 7882.4320891418565, 0.026000000000000002, 0.926, 0.44, 192.0, 0.0, 0.0, 0.0, 0.0, 0.0, 0.0, 0.0, 0.0, 0.0, 1.654609385388002E9, 0.0, 2022-06-07 15:43:05.388
198.0, 40235.77752539844, 14059.269614132598, -18040.070598133876, -20363.467379029677, -1511.1120356454892, -3956.102306378163, 16421.49137514727, 7873.625501826466, 0.026000000000000002, 0.926, 0.44, 192.0, 0.0, 0.0, 0.0, 0.0, 0.0, 0.0, 0.0, 0.0, 0.0, 1.654609385388004E9, 0.0, 2022-06-07 15:43:05.388
199.0, 40293.55678481541, 14098.049890762555, -18000.552713936893, -20364.048524385515, -1480.9371806308247, -4002.0127894893635, 16423.570087381613, 7881.985054252751, 0.026000000000000002, 0.926, 0.44, 192.0, 0.0, 0.0, 0.0, 0.0, 0.0, 0.0, 0.0, 0.0, 0.0, 1.654609385388007E9, 0.0, 2022-06-07 15:43:05.388
200.0, 40410.36700133884, 14134.863213880446, -17957.41384713815, -20329.179803035237, -1416.5865083439958, -3981.4044811015706, 16453.811997629644, 7901.453423673323, 0.026000000000000002, 0.926, 0.44, 192.0, 0.0, 0.0, 0.0, 0.0, 0.0, 0.0, 0.0, 0.0, 0.0, 1.654609385388022E9, 0.0, 2022-06-07 15:43:05.388
201.0, 40431.33293763792, 14122.390940474384, -17970.08728624431, -20300.30134919898, -1407.1540721838562, -3910.4823959448813, 16462.93150936741, 7902.481603918267, 0.026000000000000002, 0.926, 0.44, 192.0, 0.0, 0.0, 0.0, 0.0, 0.0, 0.0, 0.0, 0.0, 0.0, 1.654609385388024E9, 0.0, 2022-06-07 15:43:05.388
202.0, 40320.33417467287, 14076.07812596299, -18026.436034016137, -20334.141890304316, -1464.3521862449868, -3892.042206769253, 16437.517575921724, 7888.265894444692, 0.026000000000000002, 0.926, 0.44, 192.0, 0.0, 0.0, 0.0, 0.0, 0.0, 0.0, 0.0, 0.0, 0.0, 1.654609385388027E9, 0.0, 2022-06-07 15:43:05.388
203.0, 40235.46460097606, 14058.643765287849, -18045.703237736612, -20373.88329194585, -1505.769968720671, -3949.128562108107, 16410.38255815298, 7873.871371015474, 0.026000000000000002, 0.926, 0.44, 192.0, 0.0, 0.0, 0.0, 0.0, 0.0, 0.0, 0.0, 0.0, 0.0, 1.654609385388029E9, 0.0, 2022-06-07 15:43:05.388
204.0, 40289.824043491375, 14089.511524380629, -18003.927827349642, -20373.6597745013, -1480.8477736530035, -4005.767882557855, 16414.00354075474, 7879.347548407024, 0.026000000000000002, 0.926, 0.44, 192.0, 0.0, 0.0, 0.0, 0.0, 0.0, 0.0, 0.0, 0.0, 0.0, 1.654609385388031E9, 0.0, 2022-06-07 15:43:05.388
205.0, 40405.67313500323, 14118.993475317178, -17960.453684384072, -20342.926125875252, -1429.1481887278783, -3992.8262225182325, 16445.653610903457, 7894.233810214259, 0.032, 0.928, 0.432, 192.0, 1.0, 0.0, 29.0, 0.0, 13.0, 128.0, 0.0, 0.0, 0.0, 1.654609385388033E9, 0.0, 2022-06-07 15:43:05.388
206.0, 40426.214388157656, 14105.716539110726, -17968.254443198974, -20317.55689591848, -1421.772113057627, -3922.753503650845, 16462.417419244935, 7900.13467075046, 0.032, 0.928, 0.432, 192.0, 0.0, 0.0, 0.0, 0.0, 0.0, 0.0, 0.0, 0.0, 0.0, 1.654609385388035E9, 0.0, 2022-06-07 15:43:05.388
207.0, 40313.47218912509, 14068.9702712262, -18023.016217114477, -20342.188518308227, -1479.1043375854895, -3905.9896953093644, 16434.63420088699, 7878.922865262373, 0.032, 0.928, 0.432, 192.0, 0.0, 0.0, 0.0, 0.0, 0.0, 0.0, 0.0, 0.0, 0.0, 1.654609385388038E9, 0.0, 2022-06-07 15:43:05.388
208.0, 40228.28969100591, 14062.130637422877, -18043.19984235762, -20372.78805646754, -1521.8185212395813, -3957.912797679043, 16410.181392452883, 7863.075478443561, 0.032, 0.928, 0.432, 192.0, 0.0, 0.0, 0.0, 0.0, 0.0, 0.0, 0.0, 0.0, 0.0, 1.65460938538804E9, 0.0, 2022-06-07 15:43:05.388
209.0, 40283.945534699626, 14097.31228319553, -18003.816068627366, -20369.345887821422, -1498.43859653933, -4011.8252053052433, 16414.04824424365, 7870.250388413715, 0.032, 0.928, 0.432, 192.0, 0.0, 0.0, 0.0, 0.0, 0.0, 0.0, 0.0, 0.0, 0.0, 1.654609385388042E9, 0.0, 2022-06-07 15:43:05.388
210.0, 40396.66538198774, 14118.188812516788, -17963.247652440983, -20339.573364206954, -1446.023755791635, -4003.733873812422, 16439.953916067352, 7885.874257787974, 0.032, 0.928, 0.432, 192.0, 0.0, 0.0, 0.0, 0.0, 0.0, 0.0, 0.0, 0.0, 0.0, 1.654609385388044E9, 0.0, 2022-06-07 15:43:05.388
211.0, 40415.73142000812, 14109.493983923672, -17989.17567600914, -20320.68614014222, -1436.546616142585, -3934.622279956613, 16456.807131386653, 7889.763461323198, 0.032, 0.928, 0.432, 192.0, 0.0, 0.0, 0.0, 0.0, 0.0, 0.0, 0.0, 0.0, 0.0, 1.654609385447737E9, 0.0, 2022-06-07 15:43:05.447
212.0, 40313.78511354746, 14082.895408021857, -18025.586667726835, -20335.21477403817, -1475.86333463947, -3907.4425586989596, 16439.97626781181, 7878.006443739706, 0.032, 0.928, 0.432, 192.0, 0.0, 0.0, 0.0, 0.0, 0.0, 0.0, 0.0, 0.0, 0.0, 1.654609385447743E9, 0.0, 2022-06-07 15:43:05.447
213.0, 40233.00590908598, 14074.64761431785, -18036.203746343108, -20361.813349939985, -1513.3695618354752, -3958.0245564013194, 16410.896648275455, 7864.148362177416, 0.032, 0.928, 0.432, 192.0, 0.0, 0.0, 0.0, 0.0, 0.0, 0.0, 0.0, 0.0, 0.0, 1.654609385447758E9, 0.0, 2022-06-07 15:43:05.447
214.0, 40302.13985468625, 14092.84193430447, -18004.687786661125, -20366.417809297778, -1489.0955673570118, -4020.005943775886, 16410.896648275455, 7864.975376722262, 0.032, 0.928, 0.432, 192.0, 0.0, 0.0, 0.0, 0.0, 0.0, 0.0, 0.0, 0.0, 0.0, 1.654609385447768E9, 0.0, 2022-06-07 15:43:05.447
215.0, 40416.33491710841, 14119.574620673016, -17960.07370472833, -20327.50342220109, -1428.254118949666, -4004.1809087015286, 16448.33582023809, 7881.135687963449, 0.022, 0.926, 0.426, 192.0, 0.0, 176.0, 28.0, 240.0, 13.0, 80.0, 0.0, 0.0, 0.0, 1.65460938544777E9, 0.0, 2022-06-07 15:43:05.447
216.0, 40415.08321941891, 14114.657236892848, -17966.488655387006, -20296.5909596194, -1414.2172234317331, -3925.949803107954, 16502.494097053303, 7895.552563137122, 0.022, 0.926, 0.426, 192.0, 0.0, 0.0, 0.0, 0.0, 0.0, 0.0, 0.0, 0.0, 0.0, 1.654609385447772E9, 0.0, 2022-06-07 15:43:05.447
217.0, 40308.331287900364, 14084.370623155908, -18017.674150189658, -20320.529677931034, -1465.5815321900288, -3905.4979569313477, 16437.562279410635, 7879.928693762862, 0.022, 0.926, 0.426, 192.0, 0.0, 0.0, 0.0, 0.0, 0.0, 0.0, 0.0, 0.0, 0.0, 1.654609385447774E9, 0.0, 2022-06-07 15:43:05.447
218.0, 40239.35380451129, 14087.030480746089, -18032.627467230257, -20349.318724789468, -1505.7476169762156, -3955.6999749779675, 16404.459345872325, 7867.478772101256, 0.022, 0.926, 0.426, 192.0, 0.0, 0.0, 0.0, 0.0, 0.0, 0.0, 0.0, 0.0, 0.0, 1.654609385447776E9, 0.0, 2022-06-07 15:43:05.447
219.0, 40310.14177920124, 14122.435643963296, -17986.716984119055, -20346.36829452137, -1482.993541120713, -4011.4005221605926, 16408.48265987428, 7873.826667526564, 0.022, 0.926, 0.426, 192.0, 0.0, 0.0, 0.0, 0.0, 0.0, 0.0, 0.0, 0.0, 0.0, 1.654609385447779E9, 0.0, 2022-06-07 15:43:05.447
220.0, 40436.60794932937, 14158.623118236437, -17933.899811971165, -20312.17012550475, -1424.9013572813699, -3998.816490032255, 16452.090913306583, 7895.977246281773, 0.022, 0.926, 0.426, 192.0, 0.0, 0.0, 0.0, 0.0, 0.0, 0.0, 0.0, 0.0, 0.0, 1.654609385447781E9, 0.0, 2022-06-07 15:43:05.447
221.0, 40453.416461159766, 14144.69798144078, -17946.59560282178, -20297.6414916088, -1412.4961391086745, -3934.2870037897833, 16472.520407738735, 7897.1618887379045, 0.022, 0.926, 0.426, 192.0, 0.0, 0.0, 0.0, 0.0, 0.0, 0.0, 0.0, 0.0, 0.0, 1.654609385447783E9, 0.0, 2022-06-07 15:43:05.447
222.0, 40330.437163166665, 14097.804021573547, -18006.453574473093, -20336.801747894497, -1464.3745379894422, -3921.2559367723393, 16445.385389969993, 7873.9831297377505, 0.022, 0.926, 0.426, 192.0, 0.0, 0.0, 0.0, 0.0, 0.0, 0.0, 0.0, 0.0, 0.0, 1.654609385447785E9, 0.0, 2022-06-07 15:43:05.447
223.0, 40248.92035113816, 14081.509599865629, -18027.821842172365, -20376.69961174722, -1500.606715751495, -3976.2635798768497, 16418.78681406818, 7861.801429009609, 0.022, 0.926, 0.426, 192.0, 0.0, 0.0, 0.0, 0.0, 0.0, 0.0, 0.0, 0.0, 0.0, 1.654609385447788E9, 0.0, 2022-06-07 15:43:05.447
224.0, 40310.78997979045, 14114.36666421493, -17980.45849567157, -20363.489730774134, -1468.0849275690232, -4025.7056386119893, 16425.760558338232, 7874.810144282597, 0.022, 0.926, 0.426, 192.0, 0.0, 0.0, 0.0, 0.0, 0.0, 0.0, 0.0, 0.0, 0.0, 1.65460938544779E9, 0.0, 2022-06-07 15:43:05.447
225.0, 40427.68960329171, 14144.496815740684, -17940.515928329936, -20337.002913594595, -1415.5359763545962, -4014.194490217506, 16446.72649463731, 7887.550638622122, 0.018000000000000002, 0.928, 0.428, 192.0, 0.0, 144.0, 29.0, 0.0, 13.0, 96.0, 0.0, 0.0, 0.0, 1.654609385447792E9, 0.0, 2022-06-07 15:43:05.447
226.0, 40447.02386224554, 14134.326772013519, -17962.46534138505, -20323.010721565573, -1417.1229502109231, -3953.621262743624, 16455.890709863987, 7881.873295530474, 0.018000000000000002, 0.928, 0.428, 192.0, 0.0, 0.0, 0.0, 0.0, 0.0, 0.0, 0.0, 0.0, 0.0, 1.654609385507994E9, 0.0, 2022-06-07 15:43:05.507
227.0, 40325.83270380887, 14091.187905214776, -18028.514746250483, -20346.569460221464, -1465.8497531234925, -3931.940070621976, 16435.707084620844, 7867.0540889566055, 0.018000000000000002, 0.928, 0.428, 192.0, 0.0, 0.0, 0.0, 0.0, 0.0, 0.0, 0.0, 0.0, 0.0, 1.654609385508001E9, 0.0, 2022-06-07 15:43:05.508
228.0, 40236.29161552091, 14073.373564883896, -18051.537043039447, -20373.190387867737, -1496.2704773271653, -3978.1411264110957, 16414.607037855036, 7859.789772008631, 0.018000000000000002, 0.928, 0.428, 192.0, 0.0, 0.0, 0.0, 0.0, 0.0, 0.0, 0.0, 0.0, 0.0, 1.654609385508003E9, 0.0, 2022-06-07 15:43:05.508
229.0, 40292.685066781654, 14107.638789133882, -17987.27577773044, -20366.440161042236, -1475.2374857947214, -4033.0146590488744, 16416.14930822245, 7866.003556967206, 0.018000000000000002, 0.928, 0.428, 192.0, 0.0, 0.0, 0.0, 0.0, 0.0, 0.0, 0.0, 0.0, 0.0, 1.654609385508005E9, 0.0, 2022-06-07 15:43:05.508
230.0, 40408.13182689331, 14136.003152847667, -17952.36235289125, -20338.187556050725, -1434.154979485867, -4024.1410165001175, 16435.237697987282, 7874.296054160125, 0.018000000000000002, 0.928, 0.428, 192.0, 0.0, 0.0, 0.0, 0.0, 0.0, 0.0, 0.0, 0.0, 0.0, 1.654609385508007E9, 0.0, 2022-06-07 15:43:05.508
231.0, 40432.83050451642, 14120.200469517766, -17963.761742563456, -20311.566628404456, -1418.0840752225013, -3948.5697684967245, 16454.840177874587, 7880.599246096522, 0.018000000000000002, 0.928, 0.428, 192.0, 0.0, 0.0, 0.0, 0.0, 0.0, 0.0, 0.0, 0.0, 0.0, 1.65460938550801E9, 0.0, 2022-06-07 15:43:05.508
232.0, 40330.68303235567, 14086.851666790446, -18016.22128680006, -20332.5996199369, -1464.3521862449868, -3920.8983088610544, 16438.322238722114, 7868.685766301843, 0.018000000000000002, 0.928, 0.428, 192.0, 0.0, 0.0, 0.0, 0.0, 0.0, 0.0, 0.0, 0.0, 0.0, 1.654609385508012E9, 0.0, 2022-06-07 15:43:05.508
233.0, 40258.084566364836, 14079.36383239792, -18035.890821920733, -20363.42267554077, -1505.8146722095814, -3962.651367503568, 16414.383520410483, 7859.432144097346, 0.018000000000000002, 0.928, 0.428, 192.0, 0.0, 0.0, 0.0, 0.0, 0.0, 0.0, 0.0, 0.0, 0.0, 1.654609385508014E9, 0.0, 2022-06-07 15:43:05.508
234.0, 40313.47218912509, 14113.718463625726, -17997.646987157703, -20364.875538930362, -1483.954666132291, -4012.965144272464, 16421.11139549153, 7868.618711068477, 0.018000000000000002, 0.928, 0.428, 192.0, 0.0, 0.0, 0.0, 0.0, 0.0, 0.0, 0.0, 0.0, 0.0, 1.654609385508016E9, 0.0, 2022-06-07 15:43:05.508
235.0, 40429.92477773724, 14154.398638534385, -17949.948364490076, -20318.093337785405, -1437.1501132428782, -4000.3364086552156, 16449.02872431621, 7884.041414742639, 0.022, 0.928, 0.426, 192.0, 0.0, 176.0, 29.0, 0.0, 13.0, 80.0, 0.0, 0.0, 0.0, 1.654609385508027E9, 0.0, 2022-06-07 15:43:05.508
236.0, 40456.746871083604, 14150.46473151025, -17960.230166939516, -20292.791163061996, -1429.3270026835207, -3929.0119920983307, 16458.371753498526, 7888.310597933602, 0.022, 0.928, 0.426, 192.0, 0.0, 0.0, 0.0, 0.0, 0.0, 0.0, 0.0, 0.0, 0.0, 1.654609385508029E9, 0.0, 2022-06-07 15:43:05.508
237.0, 40354.30882624493, 14118.74760612817, -18009.113432063274, -20313.26536098306, -1471.3259305150427, -3902.0557882852304, 16444.91600333643, 7876.218304183281, 0.022, 0.928, 0.426, 192.0, 0.0, 0.0, 0.0, 0.0, 0.0, 0.0, 0.0, 0.0, 0.0, 1.654609385508031E9, 0.0, 2022-06-07 15:43:05.508
238.0, 40264.00777864549, 14104.777765843603, -18020.892801391223, -20342.367332263868, -1510.5755937785618, -3947.3404225516824, 16423.05599725914, 7866.137667433938, 0.022, 0.928, 0.426, 192.0, 0.0, 0.0, 0.0, 0.0, 0.0, 0.0, 0.0, 0.0, 0.0, 1.654609385508047E9, 0.0, 2022-06-07 15:43:05.508
239.0, 40310.20883443461, 14122.614457918939, -17983.475981173036, -20346.949439877208, -1493.0965296145118, -4007.354856414182, 16417.19984021185, 7866.8752750009635, 0.022, 0.928, 0.426, 192.0, 0.0, 0.0, 0.0, 0.0, 0.0, 0.0, 0.0, 0.0, 0.0, 1.654609385508049E9, 0.0, 2022-06-07 15:43:05.508
240.0, 40426.46025734666, 14156.61146123546, -17939.532451573905, -20315.92521857324, -1441.3969446893866, -3999.263524921361, 16439.328067222603, 7881.18039145236, 0.022, 0.928, 0.426, 192.0, 0.0, 0.0, 0.0, 0.0, 0.0, 0.0, 0.0, 0.0, 0.0, 1.654609385508052E9, 0.0, 2022-06-07 15:43:05.508
241.0, 40452.12005998135, 14157.863158924958, -17943.578117320314, -20285.236273436105, -1424.9684125147357, -3926.0615618302304, 16456.561262197647, 7892.89270554694, 0.022, 0.928, 0.426, 192.0, 0.0, 0.0, 0.0, 0.0, 0.0, 0.0, 0.0, 0.0, 0.0, 1.654609385568187E9, 0.0, 2022-06-07 15:43:05.568
242.0, 40346.50806743003, 14118.009998561145, -17992.729603377535, -20303.11766900035, -1471.0130060926683, -3898.613619639113, 16437.942259066374, 7882.4320891418565, 0.022, 0.928, 0.426, 192.0, 0.0, 0.0, 0.0, 0.0, 0.0, 0.0, 0.0, 0.0, 0.0, 1.654609385568192E9, 0.0, 2022-06-07 15:43:05.568
243.0, 40265.147717612715, 14103.704882109749, -18018.501164734505, -20325.6482274113, -1499.4667767842743, -3938.5114834918363, 16423.77125308171, 7881.627426341466, 0.022, 0.928, 0.426, 192.0, 0.0, 0.0, 0.0, 0.0, 0.0, 0.0, 0.0, 0.0, 0.0, 1.654609385568194E9, 0.0, 2022-06-07 15:43:05.568
244.0, 40321.272947939986, 14124.827280620013, -17996.350585979293, -20327.436366967722, -1481.8088986645816, -3997.609495831668, 16422.094872247562, 7885.807202554608, 0.022, 0.928, 0.426, 192.0, 0.0, 0.0, 0.0, 0.0, 0.0, 0.0, 0.0, 0.0, 0.0, 1.654609385568209E9, 0.0, 2022-06-07 15:43:05.568
245.0, 40428.784838770014, 14156.164426346353, -17929.898849713667, -20297.485029397612, -1430.221072461733, -3993.072091707241, 16455.197805785872, 7902.325141707081, 0.018000000000000002, 0.922, 0.428, 192.0, 0.0, 144.0, 28.0, 208.0, 13.0, 96.0, 0.0, 0.0, 0.0, 1.654609385568211E9, 0.0, 2022-06-07 15:43:05.568
246.0, 40443.827562788436, 14145.882623896912, -17938.75014051797, -20273.233386663604, -1418.0393717335908, -3925.1898437964733, 16481.706974709865, 7910.975266811284, 0.018000000000000002, 0.922, 0.428, 192.0, 0.0, 0.0, 0.0, 0.0, 0.0, 0.0, 0.0, 0.0, 0.0, 1.654609385568214E9, 0.0, 2022-06-07 15:43:05.568
247.0, 40346.932750574684, 14108.443451934274, -17994.808315611877, -20296.948587530685, -1466.0732705680455, -3899.887669073066, 16460.29400352168, 7894.613789869999, 0.018000000000000002, 0.922, 0.428, 192.0, 0.0, 0.0, 0.0, 0.0, 0.0, 0.0, 0.0, 0.0, 0.0, 1.654609385568216E9, 0.0, 2022-06-07 15:43:05.568
248.0, 40267.718168225074, 14097.871076806912, -18013.76259490998, -20332.867840870364, -1496.0022563937016, -3947.4745330184146, 16430.186203740384, 7880.46513562979, 0.018000000000000002, 0.922, 0.428, 192.0, 0.0, 0.0, 0.0, 0.0, 0.0, 0.0, 0.0, 0.0, 0.0, 1.654609385568218E9, 0.0, 2022-06-07 15:43:05.568
249.0, 40321.831741551374, 14128.872946366424, -17973.03771651241, -20342.054407841493, -1474.0975468275008, -4009.612382604168, 16426.878145560997, 7883.639083342444, 0.018000000000000002, 0.922, 0.428, 192.0, 0.0, 0.0, 0.0, 0.0, 0.0, 0.0, 0.0, 0.0, 0.0, 1.65460938556822E9, 0.0, 2022-06-07 15:43:05.568
250.0, 40433.47870510563, 14157.237310080209, -17931.821099736822, -20316.819288351453, -1427.6282701049174, -4010.7299698269335, 16441.697352134866, 7888.13178397796, 0.018000000000000002, 0.922, 0.428, 192.0, 0.0, 0.0, 0.0, 0.0, 0.0, 0.0, 0.0, 0.0, 0.0, 1.654609385568222E9, 0.0, 2022-06-07 15:43:05.568
251.0, 40440.07246971995, 14135.824338892024, -17956.117445959742, -20304.190552734202, -1428.3211741830319, -3952.682489476501, 16475.247320562285, 7884.600208354022, 0.018000000000000002, 0.922, 0.428, 192.0, 0.0, 0.0, 0.0, 0.0, 0.0, 0.0, 0.0, 0.0, 0.0, 1.654609385568224E9, 0.0, 2022-06-07 15:43:05.568
252.0, 40332.538227145465, 14093.668948849316, -18019.79756591291, -20339.79688165151, -1484.2228870657548, -3931.358925266138, 16459.31052676565, 7865.60122556701, 0.018000000000000002, 0.922, 0.428, 192.0, 0.0, 0.0, 0.0, 0.0, 0.0, 0.0, 0.0, 0.0, 0.0, 1.654609385568226E9, 0.0, 2022-06-07 15:43:05.568
253.0, 40257.90575240919, 14088.662158091327, -18036.494319021025, -20368.541225021032, -1514.889480458436, -3965.2218181159283, 16393.05995620012, 7857.442838840823, 0.018000000000000002, 0.922, 0.428, 192.0, 0.0, 0.0, 0.0, 0.0, 0.0, 0.0, 0.0, 0.0, 0.0, 1.654609385568228E9, 0.0, 2022-06-07 15:43:05.568
254.0, 40314.96975600359, 14121.005132318156, -18001.51383894847, -20369.636460499343, -1491.2413348247212, -4017.2566792078833, 16397.753822535735, 7862.896664487918, 0.018000000000000002, 0.922, 0.428, 192.0, 0.0, 0.0, 0.0, 0.0, 0.0, 0.0, 0.0, 0.0, 0.0, 1.654609385568231E9, 0.0, 2022-06-07 15:43:05.568
255.0, 40424.71682127915, 14148.207205320265, -17953.256422669463, -20342.568497963966, -1443.386249945909, -4011.1099494826735, 16432.689599119378, 7877.782926295153, 0.014, 0.924, 0.426, 192.0, 0.0, 112.0, 28.0, 224.0, 13.0, 80.0, 0.0, 0.0, 0.0, 1.654609385568233E9, 0.0, 2022-06-07 15:43:05.568
0.0, 40437.07733596293, 14132.650391179372, -17968.54501587689, -20326.20702102268, -1435.0714010085346, -3952.6601377320458, 16442.59142191308, 7871.300920403114, 0.014, 0.924, 0.426, 192.0, 0.0, 0.0, 0.0, 0.0, 0.0, 0.0, 0.0, 0.0, 0.0, 1.654609385628506E9, 0.0, 2022-06-07 15:43:05.628
1.0, 40339.46726792661, 14095.367681427919, -18022.792699669924, -20347.485881744135, -1481.7865469201265, -3931.068352588219, 16411.924828520398, 7849.686783514832, 0.014, 0.924, 0.426, 192.0, 0.0, 0.0, 0.0, 0.0, 0.0, 0.0, 0.0, 0.0, 0.0, 1.654609385628513E9, 0.0, 2022-06-07 15:43:05.628
2.0, 40255.715281452576, 14077.866265519413, -18042.015199901485, -20377.012536169594, -1518.7563322492042, -3976.0847659212072, 16388.9695869648, 7839.8743676989525, 0.014, 0.924, 0.426, 192.0, 0.0, 0.0, 0.0, 0.0, 0.0, 0.0, 0.0, 0.0, 0.0, 1.654609385628517E9, 0.0, 2022-06-07 15:43:05.628
3.0, 40302.676296553174, 14104.867172821425, -18003.257275015985, -20375.827893713464, -1501.9478204188133, -4039.2731474963607, 16393.19406666685, 7843.093018900517, 0.014, 0.924, 0.426, 192.0, 0.0, 0.0, 0.0, 0.0, 0.0, 0.0, 0.0, 0.0, 0.0, 1.654609385628521E9, 0.0, 2022-06-07 15:43:05.628
4.0, 40410.74698099458, 14137.925402870824, -17963.247652440983, -20342.814367152976, -1452.6622238948612, -4037.976746317953, 16419.099738490553, 7854.850036484008, 0.014, 0.924, 0.426, 192.0, 0.0, 0.0, 0.0, 0.0, 0.0, 0.0, 0.0, 0.0, 0.0, 1.654609385628524E9, 0.0, 2022-06-07 15:43:05.628
5.0, 40430.394164370795, 14128.068283566034, -17978.290376459405, -20318.78624186352, -1445.28614822461, -3975.905951965565, 16423.145404236962, 7852.547806805112, 0.014, 0.924, 0.426, 192.0, 0.0, 0.0, 0.0, 0.0, 0.0, 0.0, 0.0, 0.0, 0.0, 1.654609385628528E9, 0.0, 2022-06-07 15:43:05.628
6.0, 40336.89681731425, 14097.98283552919, -18036.919002165676, -20332.890192614817, -1488.0003318787017, -3943.518274249825, 16409.73435756378, 7846.669298013366, 0.014, 0.924, 0.426, 192.0, 0.0, 0.0, 0.0, 0.0, 0.0, 0.0, 0.0, 0.0, 0.0, 1.654609385628532E9, 0.0, 2022-06-07 15:43:05.628
7.0, 40255.93879889713, 14092.439602904273, -18046.731417981555, -20361.299259817515, -1518.6222217824725, -3975.615379287646, 16403.00648248273, 7852.234882382737, 0.014, 0.924, 0.426, 192.0, 0.0, 0.0, 0.0, 0.0, 0.0, 0.0, 0.0, 0.0, 0.0, 1.654609385628536E9, 0.0, 2022-06-07 15:43:05.628
8.0, 40303.07862795337, 14115.9312863268, -17990.94146382111, -20361.56748075098, -1496.9186779163692, -4035.1827782610394, 16412.282456431683, 7866.539998834133, 0.014, 0.924, 0.426, 192.0, 0.0, 0.0, 0.0, 0.0, 0.0, 0.0, 0.0, 0.0, 0.0, 1.654609385628539E9, 0.0, 2022-06-07 15:43:05.628
9.0, 40425.029745701526, 14145.23442330771, -17945.36625687674, -20321.222582009148, -1444.6379476354061, -4022.4422839215144, 16442.63612540199, 7887.058900244106, 0.016, 0.92, 0.43, 192.0, 0.0, 128.0, 28.0, 192.0, 13.0, 112.0, 0.0, 0.0, 0.0, 1.654609385628543E9, 0.0, 2022-06-07 15:43:05.628
10.0, 40453.52821988204, 14144.250946551676, -17954.910451759155, -20299.25081720958, -1428.9693747722358, -3947.4074777850483, 16467.714782680843, 7896.08900500405, 0.016, 0.92, 0.43, 192.0, 0.0, 0.0, 0.0, 0.0, 0.0, 0.0, 0.0, 0.0, 0.0, 1.654609385628547E9, 0.0, 2022-06-07 15:43:05.628
11.0, 40353.906494844734, 14112.958504314245, -18009.672225674658, -20317.17691626274, -1473.8516776384924, -3918.8866518600767, 16452.426189473415, 7885.5613333656, 0.016, 0.92, 0.43, 192.0, 0.0, 0.0, 0.0, 0.0, 0.0, 0.0, 0.0, 0.0, 0.0, 1.654609385628551E9, 0.0, 2022-06-07 15:43:05.628
12.0, 40258.084566364836, 14094.428908160795, -18030.258182317993, -20349.855166656394, -1516.834082226048, -3959.5891785131907, 16417.378654167493, 7872.977301237262, 0.016, 0.92, 0.43, 192.0, 0.0, 0.0, 0.0, 0.0, 0.0, 0.0, 0.0, 0.0, 0.0, 1.654609385628555E9, 0.0, 2022-06-07 15:43:05.628
13.0, 40303.12333144228, 14131.666914423336, -17985.621748640748, -20344.06606484247, -1495.7563872046933, -4010.5288041268354, 16420.01616001322, 7885.60603685451, 0.016, 0.92, 0.43, 192.0, 0.0, 0.0, 0.0, 0.0, 0.0, 0.0, 0.0, 0.0, 0.0, 1.654609385628559E9, 0.0, 2022-06-07 15:43:05.628
14.0, 40423.196902656186, 14163.540502016605, -17937.051407939365, -20308.951474303183, -1441.28518596711, -4000.291705166305, 16455.95776509735, 7902.816880085097, 0.016, 0.92, 0.43, 192.0, 0.0, 0.0, 0.0, 0.0, 0.0, 0.0, 0.0, 0.0, 0.0, 1.654609385628563E9, 0.0, 2022-06-07 15:43:05.628
15.0, 40448.81200180197, 14149.794179176592, -17946.34973363277, -20281.324718156426, -1431.4504184067748, -3929.146102565063, 16468.407686758957, 7906.840194087053, 0.016, 0.92, 0.43, 192.0, 0.0, 0.0, 0.0, 0.0, 0.0, 0.0, 0.0, 0.0, 0.0, 1.654609385687818E9, 0.0, 2022-06-07 15:43:05.687
16.0, 40345.63634939627, 14113.293780481075, -17999.18925752512, -20301.06130851046, -1480.7807184196377, -3899.9547243064317, 16438.232831744295, 7891.216324712793, 0.016, 0.92, 0.43, 192.0, 0.0, 0.0, 0.0, 0.0, 0.0, 0.0, 0.0, 0.0, 0.0, 1.654609385687824E9, 0.0, 2022-06-07 15:43:05.687
17.0, 40257.12344135326, 14092.953693026746, -18021.406891513692, -20331.16910829176, -1517.7058002598048, -3938.06444860273, 16411.075462231096, 7880.643949585432, 0.016, 0.92, 0.43, 192.0, 0.0, 0.0, 0.0, 0.0, 0.0, 0.0, 0.0, 0.0, 0.0, 1.654609385687826E9, 0.0, 2022-06-07 15:43:05.687
18.0, 40296.7083807836, 14110.343350212974, -17994.09305978931, -20341.58502120793, -1505.769968720671, -4001.9457342559976, 16401.620674326503, 7876.285359416647, 0.014, 0.924, 0.426, 192.0, 0.0, 112.0, 28.0, 224.0, 13.0, 80.0, 0.0, 0.0, 0.0, 1.654609385687829E9, 0.0, 2022-06-07 15:43:05.687
19.0, 40413.02685892902, 14141.23346105021, -17955.089265714796, -20320.104994786383, -1455.3891367184087, -4005.767882557855, 16420.68671234688, 7882.879124030963, 0.014, 0.924, 0.426, 192.0, 0.0, 0.0, 0.0, 0.0, 0.0, 0.0, 0.0, 0.0, 0.0, 1.654609385687832E9, 0.0, 2022-06-07 15:43:05.687
20.0, 40434.95392023968, 14132.739798157192, -17968.83558855481, -20305.68811961271, -1445.7331831137162, -3944.099419605663, 16438.34459046657, 7880.487487374246, 0.014, 0.924, 0.426, 192.0, 0.0, 0.0, 0.0, 0.0, 0.0, 0.0, 0.0, 0.0, 0.0, 1.654609385687834E9, 0.0, 2022-06-07 15:43:05.687
21.0, 40328.2690439545, 14107.728196111704, -18013.42731874315, -20305.26343646806, -1491.3083900580873, -3906.973172065398, 16423.7265495928, 7870.116277946982, 0.014, 0.924, 0.426, 192.0, 0.0, 0.0, 0.0, 0.0, 0.0, 0.0, 0.0, 0.0, 0.0, 1.654609385687837E9, 0.0, 2022-06-07 15:43:05.687
22.0, 40242.907731879684, 14095.993530272668, -18032.38159804125, -20328.911582101773, -1526.668849786383, -3941.104285848652, 16393.328177133582, 7859.208626652793, 0.014, 0.924, 0.426, 192.0, 0.0, 0.0, 0.0, 0.0, 0.0, 0.0, 0.0, 0.0, 0.0, 1.654609385687847E9, 0.0, 2022-06-07 15:43:05.687
23.0, 40292.72977027056, 14114.433719448296, -17999.65864415868, -20337.49465197261, -1507.2675355991764, -4005.5667168577575, 16388.00846195322, 7860.281510386648, 0.014, 0.924, 0.426, 192.0, 0.0, 0.0, 0.0, 0.0, 0.0, 0.0, 0.0, 0.0, 0.0, 1.65460938568785E9, 0.0, 2022-06-07 15:43:05.687
24.0, 40411.95397519517, 14149.928289643323, -17951.17771043512, -20304.034090523015, -1451.1199535274452, -3998.861193521165, 16427.459290916835, 7887.282417688659, 0.014, 0.924, 0.426, 192.0, 0.0, 0.0, 0.0, 0.0, 0.0, 0.0, 0.0, 0.0, 0.0, 1.654609385687852E9, 0.0, 2022-06-07 15:43:05.687
25.0, 40444.587522099915, 14146.977859375223, -17955.737466304003, -20282.665822823743, -1435.741953342194, -3935.136370079085, 16446.391218470482, 7886.924789777374, 0.014, 0.924, 0.426, 192.0, 0.0, 0.0, 0.0, 0.0, 0.0, 0.0, 0.0, 0.0, 0.0, 1.654609385687855E9, 0.0, 2022-06-07 15:43:05.687
26.0, 40344.85403834034, 14108.622265889915, -18005.42539422815, -20305.755174846076, -1481.6300847089392, -3907.844890099155, 16429.158023495438, 7875.950083249818, 0.014, 0.924, 0.426, 192.0, 0.0, 0.0, 0.0, 0.0, 0.0, 0.0, 0.0, 0.0, 0.0, 1.654609385687857E9, 0.0, 2022-06-07 15:43:05.687
27.0, 40254.217714574064, 14094.384204671886, -18035.62260098727, -20345.92125963226, -1522.0420386841345, -3956.3481755671714, 16399.05022371414, 7858.605129552499, 0.014, 0.924, 0.426, 192.0, 0.0, 0.0, 0.0, 0.0, 0.0, 0.0, 0.0, 0.0, 0.0, 1.65460938568786E9, 0.0, 2022-06-07 15:43:05.687
28.0, 40300.03879070745, 14133.723274913225, -18007.325292506852, -20358.393533038325, -1509.7932827226261, -4024.297478711305, 16397.306787646627, 7859.879178986452, 0.02, 0.93, 0.428, 192.0, 0.0, 160.0, 29.0, 16.0, 13.0, 96.0, 0.0, 0.0, 0.0, 1.654609385687862E9, 0.0, 2022-06-07 15:43:05.687
29.0, 40429.343632381395, 14170.983632920223, -17940.27005914093, -20324.240067510615, -1458.093697797501, -4024.520996155858, 16431.68377061889, 7876.732394305754, 0.02, 0.93, 0.428, 192.0, 0.0, 0.0, 0.0, 0.0, 0.0, 0.0, 0.0, 0.0, 0.0, 1.654609385687878E9, 0.0, 2022-06-07 15:43:05.687
30.0, 40455.048138505, 14156.209129835264, -17943.55576557586, -20289.81838104944, -1436.0101742756576, -3950.044983630775, 16459.10936106555, 7892.13274623546, 0.02, 0.93, 0.428, 192.0, 0.0, 0.0, 0.0, 0.0, 0.0, 0.0, 0.0, 0.0, 0.0, 1.654609385747673E9, 0.0, 2022-06-07 15:43:05.747
31.0, 40354.353529733846, 14121.809795118546, -17990.60618765428, -20302.58122713342, -1477.5844189625286, -3915.2880210027724, 16437.428168943905, 7881.94035076384, 0.02, 0.93, 0.428, 192.0, 0.0, 0.0, 0.0, 0.0, 0.0, 0.0, 0.0, 0.0, 0.0, 1.654609385747678E9, 0.0, 2022-06-07 15:43:05.747
32.0, 40273.507270038994, 14117.853536349958, -18014.43314724364, -20334.298352515503, -1517.504634559707, -3956.839913945188, 16411.16486920892, 7870.004519224706, 0.02, 0.93, 0.428, 192.0, 0.0, 0.0, 0.0, 0.0, 0.0, 0.0, 0.0, 0.0, 0.0, 1.654609385747681E9, 0.0, 2022-06-07 15:43:05.747
33.0, 40324.53630263046, 14144.139187829398, -17979.139742748706, -20342.702608430696, -1500.0479221401122, -4021.1905862320173, 16412.304808176137, 7874.988958238239, 0.02, 0.93, 0.428, 192.0, 0.0, 0.0, 0.0, 0.0, 0.0, 0.0, 0.0, 0.0, 0.0, 1.654609385747683E9, 0.0, 2022-06-07 15:43:05.747
34.0, 40449.840182046915, 14179.544351046605, -17928.35657934625, -20305.464602168155, -1446.515494169652, -4014.84269080671, 16438.4787009333, 7890.1210892344825, 0.02, 0.93, 0.428, 192.0, 0.0, 0.0, 0.0, 0.0, 0.0, 0.0, 0.0, 0.0, 0.0, 1.654609385747685E9, 0.0, 2022-06-07 15:43:05.747
35.0, 40487.7040371542, 14180.952510947289, -17938.236050395495, -20268.785389516997, -1435.6301946199173, -3946.803980684755, 16450.81686387263, 7887.438879899845, 0.02, 0.93, 0.428, 192.0, 0.0, 0.0, 0.0, 0.0, 0.0, 0.0, 0.0, 0.0, 0.0, 1.654609385747688E9, 0.0, 2022-06-07 15:43:05.747
36.0, 40392.0832743744, 14140.562908716549, -17999.077498802842, -20293.282901440016, -1482.5688579760622, -3918.2384512708727, 16465.21138730185, 7872.79848728162, 0.02, 0.93, 0.428, 192.0, 0.0, 0.0, 0.0, 0.0, 0.0, 0.0, 0.0, 0.0, 0.0, 1.65460938574769E9, 0.0, 2022-06-07 15:43:05.747
37.0, 40292.97563945957, 14131.622210934427, -18020.915153135677, -20326.11761404486, -1511.8496432125144, -3957.2869488342944, 16424.039474015175, 7867.434068612346, 0.02, 0.93, 0.428, 192.0, 0.0, 0.0, 0.0, 0.0, 0.0, 0.0, 0.0, 0.0, 0.0, 1.654609385747693E9, 0.0, 2022-06-07 15:43:05.747
38.0, 40327.66554685421, 14156.61146123546, -17978.26802471495, -20327.302256500992, -1490.414320279875, -4008.941830270509, 16401.508915604223, 7874.787792538142, 0.024, 0.934, 0.434, 192.0, 0.0, 192.0, 29.0, 48.0, 13.0, 144.0, 0.0, 0.0, 0.0, 1.654609385747695E9, 0.0, 2022-06-07 15:43:05.747
39.0, 40448.63318784633, 14184.126458659943, -17926.07670141181, -20293.573474117933, -1434.8255318195263, -4000.135242955118, 16439.14925326696, 7898.078310260572, 0.024, 0.934, 0.434, 192.0, 0.0, 0.0, 0.0, 0.0, 0.0, 0.0, 0.0, 0.0, 0.0, 1.654609385747697E9, 0.0, 2022-06-07 15:43:05.747
40.0, 40477.98102831615, 14173.755249232681, -17936.51496607244, -20271.91463374074, -1425.2589851926548, -3933.6611549450345, 16464.02674484572, 7899.732339350265, 0.024, 0.934, 0.434, 192.0, 0.0, 0.0, 0.0, 0.0, 0.0, 0.0, 0.0, 0.0, 0.0, 1.6546093857477E9, 0.0, 2022-06-07 15:43:05.747
41.0, 40390.02691388451, 14145.927327385823, -17987.745164364, -20288.276110682025, -1472.2647037821655, -3900.424110939993, 16449.475759205314, 7887.70710083331, 0.024, 0.934, 0.434, 192.0, 0.0, 0.0, 0.0, 0.0, 0.0, 0.0, 0.0, 0.0, 0.0, 1.654609385747702E9, 0.0, 2022-06-07 15:43:05.747
42.0, 40294.51790982699, 14131.622210934427, -18019.104661834797, -20320.64143665331, -1513.5260240466625, -3940.813713170733, 16418.317427434617, 7871.055051214105, 0.024, 0.934, 0.434, 192.0, 0.0, 0.0, 0.0, 0.0, 0.0, 0.0, 0.0, 0.0, 0.0, 1.654609385747704E9, 0.0, 2022-06-07 15:43:05.747
43.0, 40341.63538713878, 14154.599804234482, -17984.392402695707, -20323.7483291326, -1499.734997717738, -3997.810661531766, 16414.942314021864, 7874.586626838044, 0.024, 0.934, 0.434, 192.0, 0.0, 0.0, 0.0, 0.0, 0.0, 0.0, 0.0, 0.0, 0.0, 1.654609385747716E9, 0.0, 2022-06-07 15:43:05.747
44.0, 40472.77307185806, 14179.812571980068, -17934.8832887272, -20290.600692105378, -1438.8264940770262, -3990.2557719058723, 16458.170587798428, 7898.32417944958, 0.024, 0.934, 0.434, 192.0, 0.0, 0.0, 0.0, 0.0, 0.0, 0.0, 0.0, 0.0, 0.0, 1.654609385747719E9, 0.0, 2022-06-07 15:43:05.747
45.0, 40497.091769825434, 14181.019566180656, -17957.302088415872, -20275.15563668676, -1430.802217817571, -3924.899271118554, 16468.385335014504, 7894.70319684782, 0.024, 0.934, 0.434, 192.0, 0.0, 0.0, 0.0, 0.0, 0.0, 0.0, 0.0, 0.0, 0.0, 1.654609385807976E9, 0.0, 2022-06-07 15:43:05.807
46.0, 40403.66147800225, 14146.821397164036, -17990.56148416537, -20294.668709596244, -1476.7127009287717, -3887.9294857894765, 16443.843119602578, 7881.4933158747335, 0.024, 0.934, 0.434, 192.0, 0.0, 0.0, 0.0, 0.0, 0.0, 0.0, 0.0, 0.0, 0.0, 1.654609385807981E9, 0.0, 2022-06-07 15:43:05.807
47.0, 40305.55967158791, 14117.182984016299, -18022.256257802994, -20339.774529907052, -1520.2091956387992, -3930.2413380433727, 16410.270799430706, 7864.751859277709, 0.024, 0.934, 0.434, 192.0, 0.0, 0.0, 0.0, 0.0, 0.0, 0.0, 0.0, 0.0, 0.0, 1.654609385807984E9, 0.0, 2022-06-07 15:43:05.807
48.0, 40338.97552954859, 14141.255812794663, -17994.361280722773, -20352.090341101928, -1502.9089454303917, -3990.2557719058723, 16405.934561006376, 7866.830571512052, 0.018000000000000002, 0.93, 0.432, 192.0, 0.0, 144.0, 29.0, 16.0, 13.0, 128.0, 0.0, 0.0, 0.0, 1.654609385807987E9, 0.0, 2022-06-07 15:43:05.807
49.0, 40461.84306881941, 14179.18672313532, -17951.714152302047, -20316.886343584818, -1450.5611599160625, -3993.452071362981, 16443.574898669114, 7883.862600786996, 0.018000000000000002, 0.93, 0.432, 192.0, 0.0, 0.0, 0.0, 0.0, 0.0, 0.0, 0.0, 0.0, 0.0, 1.654609385807989E9, 0.0, 2022-06-07 15:43:05.807
50.0, 40501.11508382739, 14181.310138858575, -17948.115521444743, -20293.238197951105, -1423.2696799361324, -3928.58730895368, 16474.532064739713, 7892.9374090358515, 0.018000000000000002, 0.93, 0.432, 192.0, 0.0, 0.0, 0.0, 0.0, 0.0, 0.0, 0.0, 0.0, 0.0, 1.654609385807992E9, 0.0, 2022-06-07 15:43:05.807
51.0, 40404.17556812472, 14143.692152940292, -17998.831629613833, -20315.92521857324, -1467.1014508129897, -3897.1160527606075, 16450.079256305606, 7878.453478628812, 0.018000000000000002, 0.93, 0.432, 192.0, 0.0, 0.0, 0.0, 0.0, 0.0, 0.0, 0.0, 0.0, 0.0, 1.654609385807994E9, 0.0, 2022-06-07 15:43:05.807
52.0, 40315.10386647032, 14123.75439688616, -18023.798528170413, -20355.621916725864, -1507.4910530437296, -3938.3103177917387, 16413.511802376725, 7865.422411611368, 0.018000000000000002, 0.93, 0.432, 192.0, 0.0, 0.0, 0.0, 0.0, 0.0, 0.0, 0.0, 0.0, 0.0, 1.654609385807997E9, 0.0, 2022-06-07 15:43:05.807
53.0, 40353.39240472227, 14148.967164631746, -17988.92980682013, -20365.479036030654, -1485.6757504553498, -4005.2314406909277, 16409.622598841503, 7865.333004633547, 0.018000000000000002, 0.93, 0.432, 192.0, 0.0, 0.0, 0.0, 0.0, 0.0, 0.0, 0.0, 0.0, 0.0, 1.654609385807999E9, 0.0, 2022-06-07 15:43:05.807
54.0, 40463.09476650891, 14180.393717335906, -17943.26519289794, -20339.573364206954, -1439.4523429217747, -4019.380094931137, 16429.560354895635, 7872.8655425149855, 0.018000000000000002, 0.93, 0.432, 192.0, 0.0, 0.0, 0.0, 0.0, 0.0, 0.0, 0.0, 0.0, 0.0, 1.654609385808002E9, 0.0, 2022-06-07 15:43:05.808
55.0, 40503.88670013985, 14172.257682354175, -17945.902698743666, -20312.795974349498, -1422.9567555137583, -3955.968195911431, 16448.96166908284, 7876.330062905558, 0.018000000000000002, 0.93, 0.432, 192.0, 0.0, 0.0, 0.0, 0.0, 0.0, 0.0, 0.0, 0.0, 0.0, 1.654609385808004E9, 0.0, 2022-06-07 15:43:05.808
56.0, 40405.00258266957, 14128.783539388603, -17998.719870891557, -20327.92810534574, -1466.2967880125987, -3919.2442797713616, 16434.097759020064, 7866.830571512052, 0.018000000000000002, 0.93, 0.432, 192.0, 0.0, 0.0, 0.0, 0.0, 0.0, 0.0, 0.0, 0.0, 0.0, 1.654609385808007E9, 0.0, 2022-06-07 15:43:05.808
57.0, 40309.58298558986, 14111.192716502275, -18024.379673526248, -20359.108788860893, -1510.6873525008384, -3955.901140678065, 16407.365072651515, 7856.884045229441, 0.018000000000000002, 0.93, 0.432, 192.0, 0.0, 0.0, 0.0, 0.0, 0.0, 0.0, 0.0, 0.0, 0.0, 1.654609385808009E9, 0.0, 2022-06-07 15:43:05.808
58.0, 40346.06103254092, 14133.432702235306, -17987.476943430538, -20360.56165225049, -1492.381273791942, -4012.160481472073, 16402.134764448972, 7860.348565620014, 0.026000000000000002, 0.928, 0.436, 192.0, 0.0, 208.0, 29.0, 0.0, 13.0, 160.0, 0.0, 0.0, 0.0, 1.654609385808012E9, 0.0, 2022-06-07 15:43:05.808
59.0, 40469.554420656495, 14174.202284121786, -17934.860936982746, -20328.755119890586, -1427.4047526603642, -4009.947658770998, 16437.718741621822, 7880.956874007807, 0.026000000000000002, 0.928, 0.436, 192.0, 0.0, 0.0, 0.0, 0.0, 0.0, 0.0, 0.0, 0.0, 0.0, 1.654609385808014E9, 0.0, 2022-06-07 15:43:05.808
60.0, 40511.2627758101, 14178.940853946311, -17939.755969018457, -20302.44711666669, -1414.8430722764817, -3945.5746347397135, 16462.21625354484, 7885.538981621145, 0.026000000000000002, 0.928, 0.436, 192.0, 0.0, 0.0, 0.0, 0.0, 0.0, 0.0, 0.0, 0.0, 0.0, 1.654609385868289E9, 0.0, 2022-06-07 15:43:05.868
61.0, 40410.1881873832, 14140.540556972093, -18001.17856278164, -20326.721111145154, -1475.7515759171936, -3913.745750635356, 16439.797453856165, 7867.948158734818, 0.026000000000000002, 0.928, 0.436, 192.0, 0.0, 0.0, 0.0, 0.0, 0.0, 0.0, 0.0, 0.0, 0.0, 1.654609385868299E9, 0.0, 2022-06-07 15:43:05.868
62.0, 40314.6121280923, 14119.172289272821, -18027.151289838708, -20365.6578499863, -1515.381218836453, -3954.0906493771854, 16404.504049361236, 7853.665394027877, 0.026000000000000002, 0.928, 0.436, 192.0, 0.0, 0.0, 0.0, 0.0, 0.0, 0.0, 0.0, 0.0, 0.0, 1.654609385868303E9, 0.0, 2022-06-07 15:43:05.868
63.0, 40349.95023607615, 14137.545423215082, -17989.98033880953, -20356.001896381607, -1495.6446284824167, -4009.0759407372407, 16422.832479814588, 7859.409792352891, 0.026000000000000002, 0.928, 0.436, 192.0, 0.0, 0.0, 0.0, 0.0, 0.0, 0.0, 0.0, 0.0, 0.0, 1.654609385868308E9, 0.0, 2022-06-07 15:43:05.868
64.0, 40469.86734507887, 14170.916577686856, -17947.489672599993, -20327.704587901186, -1448.1471715148894, -4009.612382604168, 16434.902421820454, 7870.786830280642, 0.026000000000000002, 0.928, 0.436, 192.0, 0.0, 0.0, 0.0, 0.0, 0.0, 0.0, 0.0, 0.0, 0.0, 1.654609385868359E9, 0.0, 2022-06-07 15:43:05.868
65.0, 40511.48629325465, 14175.9457201893, -17946.305030143863, -20295.58513111891, -1429.125836983423, -3935.1587218235404, 16429.158023495438, 7883.661435086899, 0.026000000000000002, 0.928, 0.436, 192.0, 0.0, 0.0, 0.0, 0.0, 0.0, 0.0, 0.0, 0.0, 0.0, 1.654609385868363E9, 0.0, 2022-06-07 15:43:05.868
66.0, 40412.579824039916, 14148.877757653923, -18004.75484189449, -20309.93495105922, -1470.901247370392, -3893.137442247563, 16438.992791055774, 7880.420432140879, 0.026000000000000002, 0.928, 0.436, 192.0, 0.0, 0.0, 0.0, 0.0, 0.0, 0.0, 0.0, 0.0, 0.0, 1.654609385868368E9, 0.0, 2022-06-07 15:43:05.868
67.0, 40315.059162981415, 14129.789367889092, -18036.337856809838, -20342.12146307486, -1515.4929775587295, -3927.804997897744, 16419.882049546486, 7872.373804136969, 0.026000000000000002, 0.928, 0.436, 192.0, 0.0, 0.0, 0.0, 0.0, 0.0, 0.0, 0.0, 0.0, 0.0, 1.654609385868371E9, 0.0, 2022-06-07 15:43:05.868
68.0, 40350.777250620995, 14155.404467034874, -17981.46432417206, -20343.30610553099, -1494.2364685817324, -3981.650350290579, 16424.933543793388, 7881.515667619189, 0.03, 0.92, 0.442, 192.0, 0.0, 240.0, 28.0, 192.0, 13.0, 208.0, 0.0, 0.0, 0.0, 1.654609385868375E9, 0.0, 2022-06-07 15:43:05.868
69.0, 40478.361007971886, 14190.295540129608, -17933.65394278216, -20310.694910370697, -1436.0325260201128, -3979.035196189308, 16456.225986030815, 7901.654589373421, 0.03, 0.92, 0.442, 192.0, 0.0, 0.0, 0.0, 0.0, 0.0, 0.0, 0.0, 0.0, 0.0, 1.654609385868378E9, 0.0, 2022-06-07 15:43:05.868
70.0, 40519.51056951411, 14186.004005194189, -17937.632553295203, -20288.074944981927, -1420.7215810682276, -3918.618430926613, 16473.4368292614, 7899.799394583631, 0.03, 0.92, 0.442, 192.0, 0.0, 0.0, 0.0, 0.0, 0.0, 0.0, 0.0, 0.0, 0.0, 1.654609385868381E9, 0.0, 2022-06-07 15:43:05.868
71.0, 40420.84996948838, 14149.771827432136, -17991.500257432494, -20309.91259931476, -1468.2637415246656, -3888.488279400859, 16453.655535418457, 7885.360167665502, 0.03, 0.92, 0.442, 192.0, 0.0, 0.0, 0.0, 0.0, 0.0, 0.0, 0.0, 0.0, 0.0, 1.654609385868384E9, 0.0, 2022-06-07 15:43:05.868
72.0, 40327.82200906539, 14131.0857690675, -18017.94237112312, -20343.239050297627, -1508.832157711048, -3923.267593773317, 16429.627410129, 7878.721699562276, 0.03, 0.92, 0.442, 192.0, 0.0, 0.0, 0.0, 0.0, 0.0, 0.0, 0.0, 0.0, 0.0, 1.654609385868387E9, 0.0, 2022-06-07 15:43:05.868
73.0, 40367.6751694292, 14159.51718801465, -17983.520684661948, -20350.615125967877, -1491.3530935469978, -3986.187754415006, 16423.68184610389, 7882.610903097499, 0.03, 0.92, 0.442, 192.0, 0.0, 0.0, 0.0, 0.0, 0.0, 0.0, 0.0, 0.0, 0.0, 1.654609385868391E9, 0.0, 2022-06-07 15:43:05.868
74.0, 40479.56800217248, 14189.580284307038, -17933.87746022671, -20325.60352392239, -1438.6476801213837, -3995.351969641682, 16453.16379704044, 7898.055958516116, 0.03, 0.92, 0.442, 192.0, 0.0, 0.0, 0.0, 0.0, 0.0, 0.0, 0.0, 0.0, 0.0, 1.654609385868395E9, 0.0, 2022-06-07 15:43:05.868
75.0, 40506.25598505211, 14181.645415025403, -17935.285620127397, -20290.64539559429, -1420.2968979235766, -3932.364753766627, 16475.180265328916, 7903.1521562519265, 0.03, 0.92, 0.442, 192.0, 0.0, 0.0, 0.0, 0.0, 0.0, 0.0, 0.0, 0.0, 0.0, 1.654609385928467E9, 0.0, 2022-06-07 15:43:05.928
76.0, 40408.22123387113, 14146.0390861081, -17987.32048121935, -20312.415994693758, -1458.4736774532412, -3900.647628384546, 16452.426189473415, 7884.264932187192, 0.03, 0.92, 0.442, 192.0, 0.0, 0.0, 0.0, 0.0, 0.0, 0.0, 0.0, 0.0, 0.0, 1.654609385928472E9, 0.0, 2022-06-07 15:43:05.928
77.0, 40315.72971531507, 14126.056626565056, -18019.775214168458, -20353.54320449152, -1502.0148756521794, -3940.6348992150906, 16419.233848957283, 7868.104620946005, 0.03, 0.92, 0.442, 192.0, 0.0, 0.0, 0.0, 0.0, 0.0, 0.0, 0.0, 0.0, 0.0, 1.654609385928475E9, 0.0, 2022-06-07 15:43:05.928
78.0, 40354.08530880038, 14148.251908809176, -17985.912321318665, -20358.12531210486, -1484.1334800879335, -3997.877716765132, 16417.557468123134, 7875.793621038631, 0.026000000000000002, 0.916, 0.446, 192.0, 0.0, 208.0, 28.0, 160.0, 13.0, 240.0, 0.0, 0.0, 0.0, 1.654609385928477E9, 0.0, 2022-06-07 15:43:05.928
79.0, 40474.4047492033, 14180.706641758281, -17941.007666707956, -20333.069006570462, -1430.37753467292, -4000.828147033232, 16445.20657601435, 7892.199801468826, 0.026000000000000002, 0.916, 0.446, 192.0, 0.0, 0.0, 0.0, 0.0, 0.0, 0.0, 0.0, 0.0, 0.0, 1.654609385928479E9, 0.0, 2022-06-07 15:43:05.928
80.0, 40502.97027861718, 14164.389868305907, -17955.759818048457, -20318.853297096884, -1420.609822345951, -3945.8652074176325, 16460.67398317742, 7884.913132776396, 0.026000000000000002, 0.916, 0.446, 192.0, 0.0, 0.0, 0.0, 0.0, 0.0, 0.0, 0.0, 0.0, 0.0, 1.654609385928481E9, 0.0, 2022-06-07 15:43:05.928
81.0, 40401.9850971681, 14128.068283566034, -18012.466193731572, -20341.182689807738, -1469.5601427030736, -3916.5397186922696, 16434.477738675803, 7867.41171686789, 0.026000000000000002, 0.916, 0.446, 192.0, 0.0, 0.0, 0.0, 0.0, 0.0, 0.0, 0.0, 0.0, 0.0, 1.654609385928483E9, 0.0, 2022-06-07 15:43:05.928
82.0, 40294.89788948272, 14108.21993448972, -18040.227060345063, -20373.190387867737, -1513.5260240466625, -3952.59308249868, 16405.57693309509, 7861.019117953672, 0.026000000000000002, 0.916, 0.446, 192.0, 0.0, 0.0, 0.0, 0.0, 0.0, 0.0, 0.0, 0.0, 0.0, 1.654609385928486E9, 0.0, 2022-06-07 15:43:05.928
83.0, 40322.256424696025, 14126.570716687527, -18011.32625476435, -20378.46539955919, -1497.8350994390369, -4010.864080293665, 16402.62650282699, 7866.070612200572, 0.026000000000000002, 0.916, 0.446, 192.0, 0.0, 0.0, 0.0, 0.0, 0.0, 0.0, 0.0, 0.0, 0.0, 1.654609385928488E9, 0.0, 2022-06-07 15:43:05.928
84.0, 40446.57682735644, 14168.591996263505, -17959.11257971675, -20343.26140204208, -1442.38042144542, -4007.7571878143776, 16431.795529341165, 7885.315464176591, 0.026000000000000002, 0.916, 0.446, 192.0, 0.0, 0.0, 0.0, 0.0, 0.0, 0.0, 0.0, 0.0, 0.0, 1.65460938592849E9, 0.0, 2022-06-07 15:43:05.928
85.0, 40493.00140059011, 14167.89909218539, -17933.16220440414, -20306.783355091018, -1426.6671450933393, -3936.0527916017527, 16455.935413352898, 7894.9937695257395, 0.026000000000000002, 0.916, 0.446, 192.0, 0.0, 0.0, 0.0, 0.0, 0.0, 0.0, 0.0, 0.0, 0.0, 1.654609385928492E9, 0.0, 2022-06-07 15:43:05.928
86.0, 40393.04439938598, 14129.767016144637, -17996.32823423484, -20323.97184657715, -1477.763232918171, -3902.145195263052, 16432.9801717973, 7881.694481574832, 0.026000000000000002, 0.916, 0.446, 192.0, 0.0, 0.0, 0.0, 0.0, 0.0, 0.0, 0.0, 0.0, 0.0, 1.654609385928502E9, 0.0, 2022-06-07 15:43:05.928
87.0, 40295.23316564956, 14116.355969471451, -18033.029798630454, -20355.867785914874, -1521.1703206503776, -3939.9866986258867, 16405.308712161626, 7870.451554113813, 0.026000000000000002, 0.916, 0.446, 192.0, 0.0, 0.0, 0.0, 0.0, 0.0, 0.0, 0.0, 0.0, 0.0, 1.654609385928505E9, 0.0, 2022-06-07 15:43:05.928
88.0, 40327.33027068738, 14140.205280805265, -17995.32240573435, -20357.857091171398, -1503.8924221864252, -3998.861193521165, 16403.00648248273, 7874.832496027053, 0.03, 0.924, 0.436, 192.0, 0.0, 240.0, 28.0, 224.0, 13.0, 160.0, 0.0, 0.0, 0.0, 1.654609385928507E9, 0.0, 2022-06-07 15:43:05.928
89.0, 40450.600141358394, 14179.56670279106, -17934.905640471654, -20321.155526775783, -1434.8478835639817, -3995.0837487082185, 16445.899480092463, 7899.620580627988, 0.03, 0.924, 0.436, 192.0, 0.0, 0.0, 0.0, 0.0, 0.0, 0.0, 0.0, 0.0, 0.0, 1.654609385928509E9, 0.0, 2022-06-07 15:43:05.928
90.0, 40490.945040100225, 14177.28682485662, -17940.940611474587, -20297.4403259087, -1418.508758367152, -3937.952689880454, 16465.81488440214, 7900.961685295307, 0.03, 0.924, 0.436, 192.0, 0.0, 0.0, 0.0, 0.0, 0.0, 0.0, 0.0, 0.0, 0.0, 1.654609385987373E9, 0.0, 2022-06-07 15:43:05.987
91.0, 40402.09685589038, 14153.258699567165, -17985.934673063122, -20299.943721287695, -1457.512552441663, -3897.227811482884, 16482.221064832338, 7889.4728886452785, 0.03, 0.924, 0.436, 192.0, 0.0, 0.0, 0.0, 0.0, 0.0, 0.0, 0.0, 0.0, 0.0, 1.654609385987379E9, 0.0, 2022-06-07 15:43:05.987
92.0, 40305.91729949919, 14138.506548226662, -18009.89574311921, -20331.12440480285, -1493.0741778700565, -3926.888576375077, 16434.34362820907, 7882.32033041958, 0.03, 0.924, 0.436, 192.0, 0.0, 0.0, 0.0, 0.0, 0.0, 0.0, 0.0, 0.0, 0.0, 1.654609385987382E9, 0.0, 2022-06-07 15:43:05.987
93.0, 40342.50710517253, 14152.834016422514, -17981.55373114988, -20343.03788459753, -1482.4570992537856, -3991.9321527400202, 16409.73435756378, 7881.739185063742, 0.03, 0.924, 0.436, 192.0, 0.0, 0.0, 0.0, 0.0, 0.0, 0.0, 0.0, 0.0, 0.0, 1.654609385987384E9, 0.0, 2022-06-07 15:43:05.987
94.0, 40462.15599324179, 14184.953473204789, -17936.045579438876, -20318.562724418967, -1434.9819940307134, -3999.7552632993775, 16433.58366889759, 7894.32321719208, 0.03, 0.924, 0.436, 192.0, 0.0, 0.0, 0.0, 0.0, 0.0, 0.0, 0.0, 0.0, 0.0, 1.654609385987386E9, 0.0, 2022-06-07 15:43:05.987
95.0, 40498.90226112631, 14170.402487564385, -17944.852166754266, -20301.843619566396, -1422.420313646831, -3942.870073660621, 16450.794512128177, 7893.764423580697, 0.03, 0.924, 0.436, 192.0, 0.0, 0.0, 0.0, 0.0, 0.0, 0.0, 0.0, 0.0, 0.0, 1.654609385987388E9, 0.0, 2022-06-07 15:43:05.987
96.0, 40400.30871633395, 14132.404521990362, -17994.875370845242, -20317.199268007193, -1458.7642501311602, -3905.073273786697, 16450.6827534059, 7886.164830465893, 0.03, 0.924, 0.436, 192.0, 0.0, 0.0, 0.0, 0.0, 0.0, 0.0, 0.0, 0.0, 0.0, 1.654609385987391E9, 0.0, 2022-06-07 15:43:05.987
97.0, 40302.51983434198, 14120.781614873602, -18013.740243165525, -20335.84062288292, -1485.8545644109922, -3927.0226868418085, 16446.10064579256, 7889.897571789929, 0.024, 0.924, 0.432, 192.0, 0.0, 192.0, 28.0, 224.0, 13.0, 128.0, 0.0, 0.0, 0.0, 1.654609385987393E9, 0.0, 2022-06-07 15:43:05.987
98.0, 40329.878369555285, 14135.645524936383, -17987.07461203034, -20338.5004804731, -1469.7166049142606, -3979.92926596752, 16442.703180635355, 7897.094833504539, 0.024, 0.924, 0.432, 192.0, 0.0, 0.0, 0.0, 0.0, 0.0, 0.0, 0.0, 0.0, 0.0, 1.654609385987395E9, 0.0, 2022-06-07 15:43:05.987
99.0, 40445.54864711149, 14176.504513800683, -17936.872593983724, -20309.711433614666, -1421.7497613131716, -3980.555114812269, 16462.037439589196, 7914.260973246214, 0.024, 0.924, 0.432, 192.0, 0.0, 0.0, 0.0, 0.0, 0.0, 0.0, 0.0, 0.0, 0.0, 1.654609385987397E9, 0.0, 2022-06-07 15:43:05.987
100.0, 40489.64863892182, 14183.65707202638, -17936.336152116794, -20279.983613489105, -1408.2046041732556, -3911.9576110789317, 16474.21914031734, 7922.218194272304, 0.024, 0.924, 0.432, 192.0, 0.0, 0.0, 0.0, 0.0, 0.0, 0.0, 0.0, 0.0, 0.0, 1.654609385987399E9, 0.0, 2022-06-07 15:43:05.987
101.0, 40399.05701864446, 14145.726161685725, -17996.484696446027, -20300.390756176803, -1457.5349041861182, -3879.5252298742807, 16445.228927758806, 7898.882973060963, 0.024, 0.924, 0.432, 192.0, 0.0, 0.0, 0.0, 0.0, 0.0, 0.0, 0.0, 0.0, 0.0, 1.654609385987402E9, 0.0, 2022-06-07 15:43:05.987
102.0, 40293.55678481541, 14121.139242784888, -18045.077388891863, -20342.79201540852, -1508.5639367775843, -3921.010067583331, 16416.618694856013, 7880.420432140879, 0.024, 0.924, 0.432, 192.0, 0.0, 0.0, 0.0, 0.0, 0.0, 0.0, 0.0, 0.0, 0.0, 1.654609385987404E9, 0.0, 2022-06-07 15:43:05.987
103.0, 40326.07857299788, 14149.794179176592, -17989.37684170924, -20346.010666610084, -1491.218983080266, -3976.844725232688, 16426.16288973843, 7890.568124123589, 0.024, 0.924, 0.432, 192.0, 0.0, 0.0, 0.0, 0.0, 0.0, 0.0, 0.0, 0.0, 0.0, 1.654609385987406E9, 0.0, 2022-06-07 15:43:05.987
104.0, 40451.0471762475, 14184.394679593406, -17927.194288634575, -20313.533581916523, -1438.021831276635, -3982.879696235621, 16454.77312264122, 7905.052054530627, 0.024, 0.924, 0.432, 192.0, 0.0, 0.0, 0.0, 0.0, 0.0, 0.0, 0.0, 0.0, 0.0, 1.654609385987408E9, 0.0, 2022-06-07 15:43:05.987
105.0, 40512.000383377126, 14189.915560473868, -17921.427538565105, -20283.11285771285, -1413.479615864708, -3925.1227885631074, 16483.271596821738, 7909.812976099608, 0.024, 0.924, 0.432, 192.0, 0.0, 0.0, 0.0, 0.0, 0.0, 0.0, 0.0, 0.0, 0.0, 1.654609386047596E9, 0.0, 2022-06-07 15:43:06.047
106.0, 40431.13177193782, 14162.981708405223, -17973.46239965706, -20300.837791065907, -1456.640834407906, -3893.0927387586526, 16462.238605289294, 7890.948103779328, 0.024, 0.924, 0.432, 192.0, 0.0, 0.0, 0.0, 0.0, 0.0, 0.0, 0.0, 0.0, 0.0, 1.654609386047615E9, 0.0, 2022-06-07 15:43:06.047
107.0, 40326.77147707599, 14145.055609352066, -18004.911304105677, -20333.96307634867, -1497.7009889723051, -3932.4988642333587, 16425.268819960216, 7875.927731505362, 0.016, 0.918, 0.43, 192.0, 0.0, 128.0, 28.0, 176.0, 13.0, 112.0, 0.0, 0.0, 0.0, 1.654609386047644E9, 0.0, 2022-06-07 15:43:06.047
108.0, 40339.28845397096, 14160.590071748504, -17977.530417147926, -20340.579192707442, -1488.7826429346376, -3993.5638300852575, 16416.953971022842, 7878.833458284553, 0.016, 0.918, 0.43, 192.0, 0.0, 0.0, 0.0, 0.0, 0.0, 0.0, 0.0, 0.0, 0.0, 1.654609386047647E9, 0.0, 2022-06-07 15:43:06.047
109.0, 40447.247379690096, 14185.825191238546, -17927.97659969051, -20312.46069818267, -1438.6029766324732, -4001.3198854112493, 16448.089951049085, 7898.70415910532, 0.016, 0.918, 0.43, 192.0, 0.0, 0.0, 0.0, 0.0, 0.0, 0.0, 0.0, 0.0, 0.0, 1.654609386047649E9, 0.0, 2022-06-07 15:43:06.047
110.0, 40502.8585198949, 14182.09244991451, -17930.390588091683, -20281.883511767806, -1416.0500664770684, -3935.382239268093, 16468.49709373678, 7904.157984752415, 0.016, 0.918, 0.43, 192.0, 0.0, 0.0, 0.0, 0.0, 0.0, 0.0, 0.0, 0.0, 0.0, 1.654609386047652E9, 0.0, 2022-06-07 15:43:06.047
111.0, 40414.680888018716, 14141.479330239217, -17987.543998663903, -20300.390756176803, -1456.2608547521656, -3902.3240092186943, 16449.721628394323, 7885.471926387779, 0.016, 0.918, 0.43, 192.0, 0.0, 0.0, 0.0, 0.0, 0.0, 0.0, 0.0, 0.0, 0.0, 1.654609386047654E9, 0.0, 2022-06-07 15:43:06.047
112.0, 40320.53534037296, 14124.93903934229, -18010.342778008315, -20333.6501519263, -1487.061558611579, -3930.911890377032, 16432.331971208092, 7877.961740250796, 0.016, 0.918, 0.43, 192.0, 0.0, 0.0, 0.0, 0.0, 0.0, 0.0, 0.0, 0.0, 0.0, 1.654609386047657E9, 0.0, 2022-06-07 15:43:06.047
113.0, 40350.017291309516, 14155.9409089018, -17975.295242702396, -20338.098149072906, -1469.0237008361462, -3986.0536439482744, 16434.58949739808, 7888.0647287445945, 0.016, 0.918, 0.43, 192.0, 0.0, 0.0, 0.0, 0.0, 0.0, 0.0, 0.0, 0.0, 0.0, 1.654609386047659E9, 0.0, 2022-06-07 15:43:06.047
114.0, 40465.978141543645, 14199.079775700544, -17924.132099644197, -20297.976767775628, -1416.094769965979, -3988.0876526937072, 16460.182244799405, 7906.616676642499, 0.016, 0.918, 0.43, 192.0, 0.0, 0.0, 0.0, 0.0, 0.0, 0.0, 0.0, 0.0, 0.0, 1.654609386047662E9, 0.0, 2022-06-07 15:43:06.047
115.0, 40506.68066819676, 14185.601673793994, -17930.658809025146, -20282.01762223454, -1398.414540101831, -3930.0848758321854, 16477.013108374253, 7910.148252266437, 0.016, 0.918, 0.43, 192.0, 0.0, 0.0, 0.0, 0.0, 0.0, 0.0, 0.0, 0.0, 0.0, 1.654609386047664E9, 0.0, 2022-06-07 15:43:06.047
116.0, 40413.16096939576, 14141.076998839022, -17986.247597485497, -20304.63758762331, -1447.029584292124, -3898.4795091723813, 16465.8372361466, 7892.199801468826, 0.016, 0.918, 0.43, 192.0, 0.0, 0.0, 0.0, 0.0, 0.0, 0.0, 0.0, 0.0, 0.0, 1.654609386047667E9, 0.0, 2022-06-07 15:43:06.047
117.0, 40305.179691932164, 14119.284047995097, -18015.48367923304, -20336.980561850138, -1489.3414365460203, -3927.9838118533867, 16482.01989913224, 7886.99184501074, 0.022, 0.922, 0.434, 192.0, 0.0, 176.0, 28.0, 208.0, 13.0, 144.0, 0.0, 0.0, 0.0, 1.654609386047669E9, 0.0, 2022-06-07 15:43:06.047
118.0, 40321.67527934018, 14132.22570803472, -17987.52164691945, -20346.345942776912, -1479.730186430238, -3986.3218648817383, 16439.506881178248, 7891.3504351795245, 0.022, 0.922, 0.434, 192.0, 0.0, 0.0, 0.0, 0.0, 0.0, 0.0, 0.0, 0.0, 0.0, 1.654609386047672E9, 0.0, 2022-06-07 15:43:06.047
119.0, 40441.7488505541, 14177.912673701368, -17935.106806171752, -20315.656997639777, -1429.5281683836185, -3989.6075713166683, 16440.5797649121, 7907.443691187345, 0.022, 0.922, 0.434, 192.0, 0.0, 0.0, 0.0, 0.0, 0.0, 0.0, 0.0, 0.0, 0.0, 1.654609386047674E9, 0.0, 2022-06-07 15:43:06.047
120.0, 40491.32501975597, 14186.629854038938, -17939.152471918165, -20286.957357759162, -1411.8255867750154, -3925.3463060076606, 16468.29592803668, 7913.165737767904, 0.022, 0.922, 0.434, 192.0, 0.0, 0.0, 0.0, 0.0, 0.0, 0.0, 0.0, 0.0, 0.0, 1.654609386107968E9, 0.0, 2022-06-07 15:43:06.107
121.0, 40408.444751315685, 14155.404467034874, -17994.8977225897, -20295.473372396635, -1446.515494169652, -3884.174392720985, 16457.097704064574, 7905.119109763994, 0.022, 0.922, 0.434, 192.0, 0.0, 0.0, 0.0, 0.0, 0.0, 0.0, 0.0, 0.0, 0.0, 1.654609386107974E9, 0.0, 2022-06-07 15:43:06.107
122.0, 40302.1622064307, 14128.112987054943, -18007.057071573385, -20332.53256470353, -1494.5270412596515, -3923.3122972622273, 16424.195936226362, 7883.79554555363, 0.022, 0.922, 0.434, 192.0, 0.0, 0.0, 0.0, 0.0, 0.0, 0.0, 0.0, 0.0, 0.0, 1.654609386107977E9, 0.0, 2022-06-07 15:43:06.107
123.0, 40324.625709608285, 14135.37730400292, -17983.18540849512, -20347.79880616651, -1492.2248115807547, -3994.0779202077297, 16410.136688963972, 7879.191086195838, 0.022, 0.922, 0.434, 192.0, 0.0, 0.0, 0.0, 0.0, 0.0, 0.0, 0.0, 0.0, 0.0, 1.654609386107992E9, 0.0, 2022-06-07 15:43:06.107
124.0, 40449.19198145771, 14171.967109676256, -17935.598544549768, -20320.529677931034, -1438.2453487211883, -4004.6949988240003, 16436.24352648777, 7897.3407026935465, 0.022, 0.922, 0.434, 192.0, 0.0, 0.0, 0.0, 0.0, 0.0, 0.0, 0.0, 0.0, 0.0, 1.654609386107995E9, 0.0, 2022-06-07 15:43:06.107
125.0, 40506.814778663495, 14171.698888742792, -17927.708378757045, -20294.40048866278, -1411.9373454972917, -3946.871035918121, 16460.584576199602, 7902.0345690291615, 0.022, 0.922, 0.434, 192.0, 0.0, 0.0, 0.0, 0.0, 0.0, 0.0, 0.0, 0.0, 0.0, 1.654609386107997E9, 0.0, 2022-06-07 15:43:06.107
126.0, 40414.54677755199, 14132.18100454581, -17979.989109038008, -20313.86885808335, -1454.964453573758, -3916.718532647912, 16437.8305003441, 7878.341719906536, 0.022, 0.922, 0.434, 192.0, 0.0, 0.0, 0.0, 0.0, 0.0, 0.0, 0.0, 0.0, 0.0, 1.654609386107999E9, 0.0, 2022-06-07 15:43:06.107
127.0, 40295.36727611629, 14104.151916998855, -18019.50699323499, -20355.42075102577, -1506.9769629212574, -3956.2811203338056, 16397.262084157715, 7853.620690538966, 0.022, 0.928, 0.434, 192.0, 0.0, 176.0, 29.0, 0.0, 13.0, 144.0, 0.0, 0.0, 0.0, 1.654609386108001E9, 0.0, 2022-06-07 15:43:06.108
128.0, 40320.24476769505, 14127.88946961039, -17991.455553943582, -20363.109751118394, -1492.2248115807547, -4016.0273332628412, 16394.468116100805, 7857.845170241019, 0.022, 0.928, 0.434, 192.0, 0.0, 0.0, 0.0, 0.0, 0.0, 0.0, 0.0, 0.0, 0.0, 1.654609386108007E9, 0.0, 2022-06-07 15:43:06.108
129.0, 40446.554475611985, 14171.765943976157, -17938.146643417676, -20334.521869960055, -1432.2103777182554, -4023.4481124220033, 16433.8295380866, 7881.806240297108, 0.022, 0.928, 0.434, 192.0, 0.0, 0.0, 0.0, 0.0, 0.0, 0.0, 0.0, 0.0, 0.0, 1.65460938610801E9, 0.0, 2022-06-07 15:43:06.108
130.0, 40504.512548984596, 14176.124534144943, -17928.580096790804, -20296.658014852765, -1400.3367901249874, -3957.6445767455793, 16466.999526858275, 7897.094833504539, 0.022, 0.928, 0.434, 192.0, 0.0, 0.0, 0.0, 0.0, 0.0, 0.0, 0.0, 0.0, 0.0, 1.654609386108012E9, 0.0, 2022-06-07 15:43:06.108
131.0, 40417.00546944207, 14151.314097799552, -17973.75297233498, -20298.669671853742, -1425.0578194925572, -3908.8954220885544, 16469.391163514993, 7893.5632578806, 0.022, 0.928, 0.434, 192.0, 0.0, 0.0, 0.0, 0.0, 0.0, 0.0, 0.0, 0.0, 0.0, 1.654609386108014E9, 0.0, 2022-06-07 15:43:06.108
132.0, 40303.43625586465, 14128.828242877513, -18011.19214429762, -20338.209907795183, -1475.282189283632, -3937.4833032468923, 16439.953916067352, 7879.414603640391, 0.022, 0.928, 0.434, 192.0, 0.0, 0.0, 0.0, 0.0, 0.0, 0.0, 0.0, 0.0, 0.0, 1.654609386108016E9, 0.0, 2022-06-07 15:43:06.108
133.0, 40316.82495079338, 14133.991495846689, -17995.52357143445, -20355.30899230349, -1477.450308495797, -3999.129414454629, 16427.481642661292, 7881.135687963449, 0.022, 0.928, 0.434, 192.0, 0.0, 0.0, 0.0, 0.0, 0.0, 0.0, 0.0, 0.0, 0.0, 1.654609386108019E9, 0.0, 2022-06-07 15:43:06.108
134.0, 40425.20855965716, 14165.932138673323, -17951.803559279866, -20333.918372859764, -1430.578700373018, -4013.881565795132, 16440.624468401013, 7889.696406089832, 0.022, 0.928, 0.434, 192.0, 0.0, 0.0, 0.0, 0.0, 0.0, 0.0, 0.0, 0.0, 0.0, 1.654609386108021E9, 0.0, 2022-06-07 15:43:06.108
135.0, 40480.50677543959, 14174.828132966535, -17946.997934221978, -20303.318834700447, -1406.7517407836606, -3951.006108642353, 16466.954823369364, 7900.179374239371, 0.022, 0.928, 0.434, 192.0, 0.0, 0.0, 0.0, 0.0, 0.0, 0.0, 0.0, 0.0, 0.0, 1.654609386168252E9, 0.0, 2022-06-07 15:43:06.168
136.0, 40398.85585294436, 14133.097426068476, -17998.98809182502, -20317.042805796005, -1456.4620204522635, -3907.7331313768786, 16450.280422005704, 7887.505935133212, 0.022, 0.928, 0.434, 192.0, 0.0, 0.0, 0.0, 0.0, 0.0, 0.0, 0.0, 0.0, 0.0, 1.654609386168257E9, 0.0, 2022-06-07 15:43:06.168
137.0, 40294.51790982699, 14111.12566126891, -18030.973438140565, -20346.88238464384, -1497.8350994390369, -3934.39876251206, 16426.14053799397, 7879.280493173658, 0.018000000000000002, 0.932, 0.438, 192.0, 0.0, 144.0, 29.0, 32.0, 13.0, 176.0, 0.0, 0.0, 0.0, 1.65460938616826E9, 0.0, 2022-06-07 15:43:06.168
138.0, 40312.64517458024, 14140.026466849622, -17997.31171099087, -20350.190442823226, -1481.6300847089392, -3989.786385272311, 16425.939372293877, 7884.980188009762, 0.018000000000000002, 0.932, 0.438, 192.0, 0.0, 0.0, 0.0, 0.0, 0.0, 0.0, 0.0, 0.0, 0.0, 1.654609386168262E9, 0.0, 2022-06-07 15:43:06.168
139.0, 40440.743022053604, 14182.383022592428, -17954.306954658863, -20320.88730584232, -1429.8187410615376, -3999.867022021654, 16447.5311574377, 7898.838269572052, 0.018000000000000002, 0.932, 0.438, 192.0, 0.0, 0.0, 0.0, 0.0, 0.0, 0.0, 0.0, 0.0, 0.0, 1.654609386168264E9, 0.0, 2022-06-07 15:43:06.168
140.0, 40494.74483665763, 14179.119667901954, -17949.054294711863, -20296.881532297317, -1413.904299009359, -3944.881730661599, 16460.91985236643, 7896.558391637611, 0.018000000000000002, 0.932, 0.438, 192.0, 0.0, 0.0, 0.0, 0.0, 0.0, 0.0, 0.0, 0.0, 0.0, 1.654609386168267E9, 0.0, 2022-06-07 15:43:06.168
141.0, 40413.92092870724, 14138.104216826465, -17978.871521815243, -20307.990349291606, -1455.9032268408807, -3904.0003900528422, 16447.35234348206, 7885.293112432136, 0.018000000000000002, 0.932, 0.438, 192.0, 0.0, 0.0, 0.0, 0.0, 0.0, 0.0, 0.0, 0.0, 0.0, 1.654609386168269E9, 0.0, 2022-06-07 15:43:06.168
142.0, 40312.62282283579, 14119.686379395293, -18019.641103701724, -20340.668599685265, -1495.801090693604, -3934.3093555342384, 16420.61965711351, 7873.267873915181, 0.018000000000000002, 0.932, 0.438, 192.0, 0.0, 0.0, 0.0, 0.0, 0.0, 0.0, 0.0, 0.0, 0.0, 1.654609386168271E9, 0.0, 2022-06-07 15:43:06.168
143.0, 40330.54892188894, 14137.74658891518, -17998.22813251354, -20353.900832402807, -1489.0508638681013, -3999.3976353880926, 16406.023967984198, 7867.590530823533, 0.018000000000000002, 0.932, 0.438, 192.0, 0.0, 0.0, 0.0, 0.0, 0.0, 0.0, 0.0, 0.0, 0.0, 1.654609386168273E9, 0.0, 2022-06-07 15:43:06.168
144.0, 40446.621530845354, 14186.987481950222, -17938.079588184308, -20322.139003531815, -1431.4280666623197, -4010.4170454045593, 16441.6302969015, 7890.478717145767, 0.018000000000000002, 0.932, 0.438, 192.0, 0.0, 0.0, 0.0, 0.0, 0.0, 0.0, 0.0, 0.0, 0.0, 1.654609386168275E9, 0.0, 2022-06-07 15:43:06.168
145.0, 40486.42998772025, 14190.85433374099, -17930.97173344752, -20287.35968915936, -1412.7867117865935, -3946.9604428959424, 16499.16368712946, 7902.794528340642, 0.018000000000000002, 0.932, 0.438, 192.0, 0.0, 0.0, 0.0, 0.0, 0.0, 0.0, 0.0, 0.0, 0.0, 1.654609386168278E9, 0.0, 2022-06-07 15:43:06.168
146.0, 40402.27566984602, 14153.191644333798, -17982.35839395027, -20301.262474210558, -1450.0470697935905, -3904.447424941948, 16458.908195365453, 7889.852868301019, 0.018000000000000002, 0.932, 0.438, 192.0, 0.0, 0.0, 0.0, 0.0, 0.0, 0.0, 0.0, 0.0, 0.0, 1.65460938616828E9, 0.0, 2022-06-07 15:43:06.168
147.0, 40297.580098817365, 14126.302495754064, -18015.349568766305, -20337.047617083506, -1491.4201487803637, -3934.041134600775, 16415.143479721963, 7876.307711161103, 0.02, 0.922, 0.438, 192.0, 0.0, 160.0, 28.0, 208.0, 13.0, 176.0, 0.0, 0.0, 0.0, 1.654609386168282E9, 0.0, 2022-06-07 15:43:06.168
148.0, 40311.2146629351, 14140.808777905559, -17986.0464317854, -20347.061198599484, -1482.345340531509, -3992.1109666956627, 16407.9238662629, 7878.766403051187, 0.02, 0.922, 0.438, 192.0, 0.0, 0.0, 0.0, 0.0, 0.0, 0.0, 0.0, 0.0, 0.0, 1.654609386168284E9, 0.0, 2022-06-07 15:43:06.168
149.0, 40421.3417078664, 14176.258644611675, -17938.191346906584, -20328.553954190487, -1432.7915230740932, -4003.778577301333, 16433.807186342143, 7897.385406182458, 0.02, 0.922, 0.438, 192.0, 0.0, 0.0, 0.0, 0.0, 0.0, 0.0, 0.0, 0.0, 0.0, 1.654609386168286E9, 0.0, 2022-06-07 15:43:06.168
150.0, 40482.67489465176, 14181.42189758085, -17934.190384649086, -20285.571549602933, -1404.7400837826829, -3941.819541671222, 16464.987869857297, 7909.18712725486, 0.02, 0.922, 0.438, 192.0, 0.0, 0.0, 0.0, 0.0, 0.0, 0.0, 0.0, 0.0, 0.0, 1.654609386227714E9, 0.0, 2022-06-07 15:43:06.227
