%OpenBCI Raw EEG Data
%Number of channels = 8
%Sample Rate = 250 Hz
%Board = OpenBCI_GUI$BoardCytonSerial
Sample Index, EXG Channel 0, EXG Channel 1, EXG Channel 2, EXG Channel 3, EXG Channel 4, EXG Channel 5, EXG Channel 6, EXG Channel 7, Accel Channel 0, Accel Channel 1, Accel Channel 2, Other, Other, Other, Other, Other, Other, Other, Analog Channel 0, Analog Channel 1, Analog Channel 2, Timestamp, Other, Timestamp (Formatted)
0.0, 0.0, 0.0, 0.0, 0.0, 0.0, 0.0, 0.0, 0.0, 0.0, 0.0, 0.0, 192.0, 0.0, 0.0, 0.0, 0.0, 0.0, 0.0, 0.0, 0.0, 0.0, 1.6521697867680156E9, 0.0, 2022-05-10 10:03:06.768
1.0, 29322.94062649496, 17939.64421029618, -43338.44552498407, -30276.756617636278, -30367.795272802745, -20956.928546062536, -13972.254272968088, -37368.13811876036, 0.016, 0.868, 0.538, 192.0, 0.0, 128.0, 27.0, 32.0, 16.0, 208.0, 0.0, 0.0, 0.0, 1.652169787247933E9, 0.0, 2022-05-10 10:03:07.247
2.0, 29306.914425720504, 17937.856070739756, -43327.53787368988, -30269.939335577412, -30362.16263320001, -20948.166662236057, -13948.650830823282, -37341.58424634746, 0.016, 0.868, 0.538, 192.0, 0.0, 0.0, 0.0, 0.0, 0.0, 0.0, 0.0, 0.0, 0.0, 1.6521697872480593E9, 0.0, 2022-05-10 10:03:07.248
3.0, 29315.56455082471, 17954.061085469853, -43321.88288234269, -30261.959762806866, -30349.86917374959, -20938.354246420175, -13913.335074583898, -37322.85348449391, 0.016, 0.868, 0.538, 192.0, 0.0, 0.0, 0.0, 0.0, 0.0, 0.0, 0.0, 0.0, 0.0, 1.6521697872480645E9, 0.0, 2022-05-10 10:03:07.248
4.0, 29324.79582128475, 17961.303050673374, -43329.326013246304, -30265.84896634209, -30352.43962436195, -20935.940258019004, -13918.90065895327, -37330.74365028663, 0.016, 0.868, 0.538, 192.0, 0.0, 0.0, 0.0, 0.0, 0.0, 0.0, 0.0, 0.0, 0.0, 1.6521697872480693E9, 0.0, 2022-05-10 10:03:07.248
5.0, 29318.894960748552, 17952.31764940234, -43343.67583318661, -30285.205577040386, -30372.0197525048, -20955.073351272746, -13945.163958688256, -37352.76011857511, 0.016, 0.868, 0.538, 192.0, 0.0, 0.0, 0.0, 0.0, 0.0, 0.0, 0.0, 0.0, 0.0, 1.6521697872480736E9, 0.0, 2022-05-10 10:03:07.248
6.0, 29305.998004197838, 17946.617954566234, -43344.2793302869, -30284.8479491291, -30373.42791240548, -20969.445522957507, -13946.862691266859, -37362.997217535645, 0.016, 0.868, 0.538, 192.0, 0.0, 0.0, 0.0, 0.0, 0.0, 0.0, 0.0, 0.0, 0.0, 1.6521697872480786E9, 0.0, 2022-05-10 10:03:07.248
7.0, 29311.697699033943, 17948.093169700285, -43328.990737079475, -30266.877146587034, -30356.39588313054, -20955.855662328682, -13945.879214510825, -37353.408319164315, 0.016, 0.868, 0.538, 192.0, 0.0, 0.0, 0.0, 0.0, 0.0, 0.0, 0.0, 0.0, 0.0, 1.6521697872480829E9, 0.0, 2022-05-10 10:03:07.248
8.0, 29322.76181253932, 17955.82687328182, -43326.01795506692, -30263.434977940917, -30353.892487751546, -20945.842080812705, -13952.227109936131, -37352.11191798591, 0.016, 0.864, 0.54, 192.0, 0.0, 128.0, 27.0, 0.0, 16.0, 224.0, 0.0, 0.0, 0.0, 1.6521697872480876E9, 0.0, 2022-05-10 10:03:07.248
9.0, 29339.078585991694, 17956.117445959742, -43330.5777109358, -30266.81009135367, -30354.92066799649, -20940.18708946551, -13935.440949850197, -37344.82524929348, 0.016, 0.864, 0.54, 192.0, 0.0, 0.0, 0.0, 0.0, 0.0, 0.0, 0.0, 0.0, 0.0, 1.652169787248092E9, 0.0, 2022-05-10 10:03:07.248
10.0, 29343.90656279404, 17956.87740527122, -43329.57188243531, -30270.051094299688, -30359.569830843193, -20945.52915639033, -13927.349618357375, -37340.15373470232, 0.016, 0.864, 0.54, 192.0, 0.0, 0.0, 0.0, 0.0, 0.0, 0.0, 0.0, 0.0, 0.0, 1.6521697872480965E9, 0.0, 2022-05-10 10:03:07.248
11.0, 29335.65876909003, 17956.87740527122, -43331.89646385866, -30273.537966434717, -30359.34631339864, -20953.48637741642, -13938.436083607208, -37346.211057449706, 0.016, 0.864, 0.54, 192.0, 0.0, 0.0, 0.0, 0.0, 0.0, 0.0, 0.0, 0.0, 0.0, 1.6521697872481008E9, 0.0, 2022-05-10 10:03:07.248
12.0, 29330.786088798774, 17977.23984447001, -43323.08987654327, -30260.395140694996, -30344.30358938022, -20940.701179587984, -13921.113481654345, -37333.67172881028, 0.016, 0.864, 0.54, 192.0, 0.0, 0.0, 0.0, 0.0, 0.0, 0.0, 0.0, 0.0, 0.0, 1.6521697872481053E9, 0.0, 2022-05-10 10:03:07.248
13.0, 29330.987254498872, 17988.818048097855, -43317.591347407266, -30250.023931267733, -30339.05092943322, -20926.485470114407, -13917.738368241593, -37326.6085775624, 0.016, 0.864, 0.54, 192.0, 0.0, 0.0, 0.0, 0.0, 0.0, 0.0, 0.0, 0.0, 0.0, 1.6521697872481093E9, 0.0, 2022-05-10 10:03:07.248
14.0, 29324.3711381401, 17964.588757108304, -43338.93726336209, -30269.17937626593, -30358.72046455389, -20939.181260965022, -13954.350525659387, -37358.75038608914, 0.016, 0.864, 0.54, 192.0, 0.0, 0.0, 0.0, 0.0, 0.0, 0.0, 0.0, 0.0, 0.0, 1.6521697872481136E9, 0.0, 2022-05-10 10:03:07.248
15.0, 29317.75502178133, 17945.96975397703, -43352.03538561289, -30281.495187460805, -30365.67185707949, -20954.894537317105, -13964.744086831104, -37375.380083963886, 0.016, 0.864, 0.54, 192.0, 0.0, 0.0, 0.0, 0.0, 0.0, 0.0, 0.0, 0.0, 0.0, 1.652169787248118E9, 0.0, 2022-05-10 10:03:07.248
16.0, 29334.116498722615, 17961.59362335129, -43334.60102493776, -30261.445672684393, -30343.320112624184, -20946.95966803547, -13930.769435259037, -37351.97780751918, 0.016, 0.864, 0.54, 192.0, 0.0, 0.0, 0.0, 0.0, 0.0, 0.0, 0.0, 0.0, 0.0, 1.6521697872481236E9, 0.0, 2022-05-10 10:03:07.248
17.0, 29330.18259169848, 17962.197120451587, -43330.935338847084, -30258.249373227285, -30345.823508003177, -20944.702141845482, -13938.23491790711, -37343.4617928817, 0.016, 0.864, 0.54, 192.0, 0.0, 0.0, 0.0, 0.0, 0.0, 0.0, 0.0, 0.0, 0.0, 1.652169787248128E9, 0.0, 2022-05-10 10:03:07.248
18.0, 29325.19815268495, 17960.297222172885, -43336.187998794085, -30259.881050572523, -30353.28899065125, -20937.929563275524, -13962.71007808567, -37350.23437145166, 0.014, 0.86, 0.542, 192.0, 0.0, 112.0, 26.0, 224.0, 16.0, 240.0, 0.0, 0.0, 0.0, 1.6521697872481322E9, 0.0, 2022-05-10 10:03:07.248
19.0, 29335.144678967557, 17967.025097253932, -43341.083030829795, -30260.395140694996, -30352.640790062047, -20929.324141660232, -13948.226147678632, -37346.65809233882, 0.014, 0.86, 0.542, 192.0, 0.0, 0.0, 0.0, 0.0, 0.0, 0.0, 0.0, 0.0, 0.0, 1.6521697872481368E9, 0.0, 2022-05-10 10:03:07.248
20.0, 29333.110670222126, 17959.894890772688, -43348.32499603331, -30268.88880358801, -30357.714636053403, -20933.74978706238, -13939.28544989651, -37337.113897456395, 0.014, 0.86, 0.542, 192.0, 0.0, 0.0, 0.0, 0.0, 0.0, 0.0, 0.0, 0.0, 0.0, 1.6521697872481413E9, 0.0, 2022-05-10 10:03:07.248
21.0, 29316.682138047476, 17951.714152302047, -43350.60487396776, -30276.398989724996, -30366.85649953562, -20949.418359925552, -13946.058028466467, -37341.69600506974, 0.014, 0.86, 0.542, 192.0, 0.0, 0.0, 0.0, 0.0, 0.0, 0.0, 0.0, 0.0, 0.0, 1.6521697872481456E9, 0.0, 2022-05-10 10:03:07.248
22.0, 29320.101954949136, 17947.310858644352, -43340.6806994296, -30270.47577744434, -30362.363798900107, -20953.66519137206, -13944.225185421132, -37346.546333616534, 0.014, 0.86, 0.542, 192.0, 0.0, 0.0, 0.0, 0.0, 0.0, 0.0, 0.0, 0.0, 0.0, 1.6521697872481585E9, 0.0, 2022-05-10 10:03:07.248
23.0, 29324.14762069555, 17952.205890680063, -43332.49996095896, -30260.104568017076, -30351.143223183542, -20936.29788593029, -13933.80927250496, -37337.538580601045, 0.014, 0.86, 0.542, 192.0, 0.0, 0.0, 0.0, 0.0, 0.0, 0.0, 0.0, 0.0, 0.0, 1.6521697872481627E9, 0.0, 2022-05-10 10:03:07.248
24.0, 29313.731707779374, 17949.344867389784, -43346.15687682115, -30271.90628908948, -30363.324923911685, -20942.712836588962, -13945.007496477068, -37349.563819118004, 0.014, 0.86, 0.542, 192.0, 0.0, 0.0, 0.0, 0.0, 0.0, 0.0, 0.0, 0.0, 0.0, 1.6521697872481673E9, 0.0, 2022-05-10 10:03:07.248
25.0, 29315.13986768006, 17956.586832593304, -43351.67775770161, -30277.382466481027, -30369.739874570358, -20952.324086704743, -13968.029793266034, -37360.18089773427, 0.014, 0.86, 0.542, 192.0, 0.0, 0.0, 0.0, 0.0, 0.0, 0.0, 0.0, 0.0, 0.0, 1.652169787248171E9, 0.0, 2022-05-10 10:03:07.248
26.0, 29314.066983946203, 17954.105788958765, -43350.00137686746, -30278.589460681615, -30366.230650690875, -20963.477607187942, -13950.327211657432, -37355.73290058767, 0.014, 0.86, 0.542, 192.0, 0.0, 0.0, 0.0, 0.0, 0.0, 0.0, 0.0, 0.0, 0.0, 1.6521697872481754E9, 0.0, 2022-05-10 10:03:07.248
27.0, 29310.110725177616, 17947.40026562217, -43344.18992330908, -30274.56614667966, -30357.312304653206, -20964.52813917734, -13916.03963566299, -37346.05459523852, 0.014, 0.86, 0.542, 192.0, 0.0, 0.0, 0.0, 0.0, 0.0, 0.0, 0.0, 0.0, 0.0, 1.6521697872481794E9, 0.0, 2022-05-10 10:03:07.248
28.0, 29318.716146792907, 17950.954192990564, -43348.01207161094, -30275.571975180148, -30357.893450009044, -20963.05292404329, -13936.402074861775, -37359.75621458962, 0.016, 0.86, 0.538, 192.0, 0.0, 128.0, 26.0, 224.0, 16.0, 208.0, 0.0, 0.0, 0.0, 1.6521697872481835E9, 0.0, 2022-05-10 10:03:07.248
29.0, 29318.291463648256, 17940.314762629838, -43361.51252526195, -30288.08895207512, -30374.05376125023, -20969.266709001866, -13970.309671200475, -37385.79599688006, 0.016, 0.86, 0.538, 192.0, 0.0, 0.0, 0.0, 0.0, 0.0, 0.0, 0.0, 0.0, 0.0, 1.6521697872481875E9, 0.0, 2022-05-10 10:03:07.248
30.0, 29303.315794863203, 17927.9318962016, -43379.6397900152, -30307.33380405114, -30397.947776072953, -20988.645671444618, -13995.701252901705, -37412.88631115989, 0.016, 0.86, 0.538, 192.0, 0.0, 0.0, 0.0, 0.0, 0.0, 0.0, 0.0, 0.0, 0.0, 1.652169787248192E9, 0.0, 2022-05-10 10:03:07.248
31.0, 29302.93581520746, 17947.512024344447, -43354.24820831397, -30284.51267296227, -30378.21118571892, -20965.42220895555, -13957.1444937163, -37363.93599080277, 0.016, 0.86, 0.538, 192.0, 0.0, 0.0, 0.0, 0.0, 0.0, 0.0, 0.0, 0.0, 0.0, 1.652169787248196E9, 0.0, 2022-05-10 10:03:07.248
32.0, 29286.93196617746, 17943.287544642397, -43353.376490280214, -30279.03649557072, -30372.8691187941, -20952.122921004644, -13941.766493531048, -37332.68825205425, 0.016, 0.86, 0.538, 192.0, 0.0, 0.0, 0.0, 0.0, 0.0, 0.0, 0.0, 0.0, 0.0, 1.652169787248201E9, 0.0, 2022-05-10 10:03:07.248
33.0, 29296.833788971162, 17936.000875949965, -43354.359967036246, -30275.303754246685, -30375.998363017843, -20950.088912259213, -13979.116258515867, -37355.19645872074, 0.016, 0.86, 0.538, 192.0, 0.0, 0.0, 0.0, 0.0, 0.0, 0.0, 0.0, 0.0, 0.0, 1.6521697872482047E9, 0.0, 2022-05-10 10:03:07.248
34.0, 29303.42755358548, 17934.346846860273, -43370.27440908842, -30287.32899276364, -30393.432723692982, -20958.180243752035, -14000.48452621514, -37379.4704531992, 0.016, 0.86, 0.538, 192.0, 0.0, 0.0, 0.0, 0.0, 0.0, 0.0, 0.0, 0.0, 0.0, 1.6521697872482088E9, 0.0, 2022-05-10 10:03:07.248
35.0, 29306.959129209416, 17938.59367830678, -43371.92843817812, -30290.346478265106, -30386.235461978373, -20962.449426942996, -13958.932633272725, -37367.13229025988, 0.016, 0.86, 0.538, 192.0, 0.0, 0.0, 0.0, 0.0, 0.0, 0.0, 0.0, 0.0, 0.0, 1.6521697872482128E9, 0.0, 2022-05-10 10:03:07.248
36.0, 29287.915442933496, 17916.465451296026, -43380.93619119361, -30303.355193538097, -30393.58918590417, -20976.799246883304, -13958.060915238968, -37374.664828141315, 0.016, 0.86, 0.538, 192.0, 0.0, 0.0, 0.0, 0.0, 0.0, 0.0, 0.0, 0.0, 0.0, 1.6521697872482169E9, 0.0, 2022-05-10 10:03:07.248
37.0, 29286.70844873291, 17929.764739246933, -43374.990627168496, -30295.353269023093, -30389.699982368948, -20970.831331113735, -13970.555540389483, -37368.69691237175, 0.01, 0.856, 0.544, 192.0, 0.0, 80.0, 26.0, 192.0, 17.0, 0.0, 0.0, 0.0, 0.0, 1.6521697872482212E9, 0.0, 2022-05-10 10:03:07.248
38.0, 29293.99511742534, 17936.872593983724, -43374.074205645826, -30295.487379489827, -30391.689287625468, -20965.533967677828, -13996.416508724275, -37385.1254445464, 0.01, 0.856, 0.544, 192.0, 0.0, 0.0, 0.0, 0.0, 0.0, 0.0, 0.0, 0.0, 0.0, 1.6521697872482252E9, 0.0, 2022-05-10 10:03:07.248
39.0, 29305.148637908536, 17927.0825299123, -43379.41627257065, -30300.784742925734, -30391.085790525176, -20962.09179903171, -13994.181334278743, -37386.31008700253, 0.01, 0.856, 0.544, 192.0, 0.0, 0.0, 0.0, 0.0, 0.0, 0.0, 0.0, 0.0, 0.0, 1.6521697872482295E9, 0.0, 2022-05-10 10:03:07.248
40.0, 29302.153504151527, 17914.476146039506, -43386.83705172981, -30311.602987242102, -30392.382191703582, -20969.601985168694, -13969.370897933353, -37377.34703747595, 0.01, 0.856, 0.544, 192.0, 0.0, 0.0, 0.0, 0.0, 0.0, 0.0, 0.0, 0.0, 0.0, 1.6521697872482336E9, 0.0, 2022-05-10 10:03:07.248
41.0, 29292.98928892485, 17919.30412284185, -43391.262697131955, -30318.420269300972, -30401.524055185804, -20990.34440402322, -13981.10556377239, -37396.189558051774, 0.01, 0.856, 0.544, 192.0, 0.0, 0.0, 0.0, 0.0, 0.0, 0.0, 0.0, 0.0, 0.0, 1.6521697872482376E9, 0.0, 2022-05-10 10:03:07.248
42.0, 29291.983460424362, 17928.49068981298, -43375.77293822443, -30305.18803658343, -30391.39871494755, -20981.940148108024, -13977.350470703897, -37378.68814214327, 0.01, 0.856, 0.544, 192.0, 0.0, 0.0, 0.0, 0.0, 0.0, 0.0, 0.0, 0.0, 0.0, 1.6521697872482417E9, 0.0, 2022-05-10 10:03:07.248
43.0, 29287.021373155283, 17937.99018120649, -43365.893467175185, -30293.363963766573, -30378.948793285945, -20961.644764142606, -13943.889909254303, -37349.7649848181, 0.01, 0.856, 0.544, 192.0, 0.0, 0.0, 0.0, 0.0, 0.0, 0.0, 0.0, 0.0, 0.0, 1.6521697872482476E9, 0.0, 2022-05-10 10:03:07.248
44.0, 29290.105913890115, 17928.915372957632, -43382.67962726112, -30311.871208175566, -30397.50074118385, -20977.447447472507, -13977.305767214986, -37387.27121201411, 0.01, 0.856, 0.544, 192.0, 0.0, 0.0, 0.0, 0.0, 0.0, 0.0, 0.0, 0.0, 0.0, 1.6521697872482517E9, 0.0, 2022-05-10 10:03:07.248
45.0, 29288.518940033788, 17918.968846675023, -43400.73983678101, -30328.120926394575, -30413.12461055811, -20995.574712225764, -13997.735261647138, -37400.16816856482, 0.01, 0.856, 0.544, 192.0, 0.0, 0.0, 0.0, 0.0, 0.0, 0.0, 0.0, 0.0, 0.0, 1.6521697872482555E9, 0.0, 2022-05-10 10:03:07.248
46.0, 29281.098160874626, 17917.73950072998, -43396.96239196806, -30325.975158926867, -30403.982747075886, -20994.993566869925, -13963.671203097249, -37376.78824386457, 0.01, 0.856, 0.544, 192.0, 0.0, 0.0, 0.0, 0.0, 0.0, 0.0, 0.0, 0.0, 0.0, 1.6521697872482595E9, 0.0, 2022-05-10 10:03:07.248
47.0, 29289.211844111902, 17929.29535261337, -43378.1869266256, -30306.41738252847, -30383.642659621557, -20977.82742712825, -13962.039525752012, -37367.08758677096, 0.01, 0.858, 0.55, 192.0, 0.0, 80.0, 26.0, 208.0, 17.0, 48.0, 0.0, 0.0, 0.0, 1.6521697872482636E9, 0.0, 2022-05-10 10:03:07.248
48.0, 29291.625832513077, 17930.770567747422, -43380.19858362658, -30305.299795305706, -30385.028467777785, -20978.989717839922, -13990.046261554511, -37389.79695913756, 0.01, 0.858, 0.55, 192.0, 0.0, 0.0, 0.0, 0.0, 0.0, 0.0, 0.0, 0.0, 0.0, 1.6521697872482677E9, 0.0, 2022-05-10 10:03:07.248
49.0, 29296.5655680377, 17933.78805324889, -43389.452205831076, -30313.81580994318, -30403.20043601995, -20984.622357442662, -13995.790659879525, -37403.319764533015, 0.01, 0.858, 0.55, 192.0, 0.0, 0.0, 0.0, 0.0, 0.0, 0.0, 0.0, 0.0, 0.0, 1.6521697872482717E9, 0.0, 2022-05-10 10:03:07.248
50.0, 29293.592786025143, 17917.20305886305, -43396.8953367347, -30320.521333279772, -30408.363688989128, -20982.565996952773, -13981.776116106048, -37392.32270626101, 0.01, 0.858, 0.55, 192.0, 0.0, 0.0, 0.0, 0.0, 0.0, 0.0, 0.0, 0.0, 0.0, 1.6521697872482758E9, 0.0, 2022-05-10 10:03:07.248
51.0, 29286.75315222182, 17910.20696284854, -43397.901165235184, -30323.024728658766, -30408.050764566753, -20988.556264466795, -13989.062784798478, -37387.89706085886, 0.01, 0.858, 0.55, 192.0, 0.0, 0.0, 0.0, 0.0, 0.0, 0.0, 0.0, 0.0, 0.0, 1.65216978724828E9, 0.0, 2022-05-10 10:03:07.248
52.0, 29291.69288774644, 17931.016436936432, -43383.931324950616, -30310.731269208347, -30400.808799363233, -20981.381354496643, -14008.665264685782, -37383.046732312054, 0.01, 0.858, 0.55, 192.0, 0.0, 0.0, 0.0, 0.0, 0.0, 0.0, 0.0, 0.0, 0.0, 1.652169787248284E9, 0.0, 2022-05-10 10:03:07.248
53.0, 29292.02816391327, 17928.155413646153, -43380.39974932668, -30309.99366164132, -30404.385078476083, -20984.28708127583, -14011.43688099824, -37394.64728768436, 0.01, 0.858, 0.55, 192.0, 0.0, 0.0, 0.0, 0.0, 0.0, 0.0, 0.0, 0.0, 0.0, 1.652169787248288E9, 0.0, 2022-05-10 10:03:07.248
54.0, 29278.393599795534, 17917.247762351963, -43391.93324946562, -30324.14231588153, -30416.432668737492, -20994.34536628072, -13992.773174378059, -37407.27602330161, 0.01, 0.858, 0.55, 192.0, 0.0, 0.0, 0.0, 0.0, 0.0, 0.0, 0.0, 0.0, 0.0, 1.652169787248292E9, 0.0, 2022-05-10 10:03:07.248
55.0, 29276.046666627728, 17905.669558724112, -43393.00613319947, -30327.6068362721, -30419.78543040579, -21001.609683228697, -13990.314482487975, -37417.5801774955, 0.01, 0.858, 0.55, 192.0, 0.0, 0.0, 0.0, 0.0, 0.0, 0.0, 0.0, 0.0, 0.0, 1.652169787248296E9, 0.0, 2022-05-10 10:03:07.248
56.0, 29278.997096895826, 17914.6773117396, -43385.51829880694, -30323.650577503515, -30417.706718171445, -21002.280235562353, -14010.162831564288, -37418.6307094849, 0.01, 0.858, 0.55, 192.0, 0.0, 0.0, 0.0, 0.0, 0.0, 0.0, 0.0, 0.0, 0.0, 1.6521697872483003E9, 0.0, 2022-05-10 10:03:07.248
57.0, 29271.5092625033, 17926.21081187854, -43386.43472032961, -30324.991682170832, -30412.72227915791, -21004.426003030065, -13992.169677277767, -37405.711401189736, 0.012, 0.862, 0.552, 192.0, 0.0, 96.0, 26.0, 240.0, 17.0, 64.0, 0.0, 0.0, 0.0, 1.6521697872483044E9, 0.0, 2022-05-10 10:03:07.248
58.0, 29283.04276264224, 17931.575230547813, -43381.11500514925, -30315.71570822188, -30396.427857449995, -20987.841008644227, -13959.692592584204, -37366.908772815324, 0.012, 0.862, 0.552, 192.0, 0.0, 0.0, 0.0, 0.0, 0.0, 0.0, 0.0, 0.0, 0.0, 1.6521697872483084E9, 0.0, 2022-05-10 10:03:07.248
59.0, 29290.485893545854, 17934.659771282648, -43385.183022640114, -30316.632129744547, -30401.45699995244, -20985.561130709786, -14000.52922970405, -37392.009781838635, 0.012, 0.862, 0.552, 192.0, 0.0, 0.0, 0.0, 0.0, 0.0, 0.0, 0.0, 0.0, 0.0, 1.6521697872483137E9, 0.0, 2022-05-10 10:03:07.248
60.0, 29297.414934327, 17919.25941935294, -43395.35306636728, -30326.80217347171, -30417.282035026794, -20999.39686052762, -14036.940221421746, -37423.23516884269, 0.012, 0.862, 0.552, 192.0, 0.0, 0.0, 0.0, 0.0, 0.0, 0.0, 0.0, 0.0, 0.0, 1.6521697872483177E9, 0.0, 2022-05-10 10:03:07.248
61.0, 29273.878547415563, 17898.405241776138, -43404.003191471485, -30342.470746334882, -30420.455982739448, -21021.569791027283, -14003.636122183338, -37425.09036363249, 0.012, 0.862, 0.552, 192.0, 0.0, 0.0, 0.0, 0.0, 0.0, 0.0, 0.0, 0.0, 0.0, 1.652169787248322E9, 0.0, 2022-05-10 10:03:07.248
62.0, 29265.518994989277, 17912.620951249715, -43389.63101978672, -30332.032481674254, -30400.45117145195, -21014.260770590397, -13972.187217734721, -37395.0272673401, 0.012, 0.862, 0.552, 192.0, 0.0, 0.0, 0.0, 0.0, 0.0, 0.0, 0.0, 0.0, 0.0, 1.652169787248326E9, 0.0, 2022-05-10 10:03:07.248
63.0, 29283.64625974253, 17931.865803225734, -43369.5368015214, -30314.9557489104, -30383.128569499087, -20990.54556972332, -13953.881139025825, -37376.02828455309, 0.012, 0.862, 0.552, 192.0, 0.0, 0.0, 0.0, 0.0, 0.0, 0.0, 0.0, 0.0, 0.0, 1.6521697872483304E9, 0.0, 2022-05-10 10:03:07.248
64.0, 29271.33044854766, 17906.898904669157, -43400.65042980319, -30345.085900436152, -30416.119744315118, -21012.29381707833, -13987.185238264232, -37409.42179076932, 0.012, 0.862, 0.552, 192.0, 0.0, 0.0, 0.0, 0.0, 0.0, 0.0, 0.0, 0.0, 0.0, 1.652169787248336E9, 0.0, 2022-05-10 10:03:07.248
65.0, 29258.388788508033, 17905.513096512925, -43411.245156675, -30355.322999396685, -30430.20134332196, -21027.045968418835, -14011.973322865168, -37424.28570083209, 0.012, 0.862, 0.552, 192.0, 0.0, 0.0, 0.0, 0.0, 0.0, 0.0, 0.0, 0.0, 0.0, 1.65216978724834E9, 0.0, 2022-05-10 10:03:07.248
66.0, 29258.79111990823, 17920.175840875607, -43398.258793146466, -30338.71565326639, -30420.478334483905, -21025.749567240426, -14013.739110677137, -37415.05443037205, 0.012, 0.862, 0.552, 192.0, 0.0, 0.0, 0.0, 0.0, 0.0, 0.0, 0.0, 0.0, 0.0, 1.652169787248344E9, 0.0, 2022-05-10 10:03:07.248
67.0, 29275.107893360604, 17933.02809393741, -43379.34921733728, -30317.213275100385, -30404.988575576375, -21008.1587443541, -13994.807183123492, -37387.8747091144, 0.02, 0.854, 0.554, 192.0, 0.0, 160.0, 26.0, 176.0, 17.0, 80.0, 0.0, 0.0, 0.0, 1.652169787248348E9, 0.0, 2022-05-10 10:03:07.248
68.0, 29287.066076644194, 17934.726826516013, -43380.645618515686, -30306.03740287273, -30403.26749125332, -20994.904159892103, -13994.896590101313, -37388.25468877014, 0.02, 0.854, 0.554, 192.0, 0.0, 0.0, 0.0, 0.0, 0.0, 0.0, 0.0, 0.0, 0.0, 1.652169787248352E9, 0.0, 2022-05-10 10:03:07.248
69.0, 29286.55198652172, 17924.914410700134, -43400.31515363636, -30318.979062912356, -30419.31604377223, -21001.34146229523, -14013.292075788031, -37415.34500304997, 0.02, 0.854, 0.554, 192.0, 0.0, 0.0, 0.0, 0.0, 0.0, 0.0, 0.0, 0.0, 0.0, 1.652169787248356E9, 0.0, 2022-05-10 10:03:07.248
70.0, 29281.008753896804, 17922.96980893252, -43413.279165420434, -30330.28904560674, -30423.920503130023, -21011.623264744674, -14018.29886654602, -37426.8337997, 0.02, 0.854, 0.554, 192.0, 0.0, 0.0, 0.0, 0.0, 0.0, 0.0, 0.0, 0.0, 0.0, 1.65216978724836E9, 0.0, 2022-05-10 10:03:07.248
71.0, 29285.389695810045, 17924.82500372231, -43409.099389207295, -30324.611702515092, -30413.839866380677, -21011.220933344477, -14009.380520508352, -37418.69776471827, 0.02, 0.854, 0.554, 192.0, 0.0, 0.0, 0.0, 0.0, 0.0, 0.0, 0.0, 0.0, 0.0, 1.652169787248364E9, 0.0, 2022-05-10 10:03:07.248
72.0, 29278.415951539988, 17928.714207257533, -43402.97501122654, -30318.82260070117, -30415.11391581463, -21005.29772106382, -13999.09871805891, -37401.26340404313, 0.02, 0.854, 0.554, 192.0, 0.0, 0.0, 0.0, 0.0, 0.0, 0.0, 0.0, 0.0, 0.0, 1.6521697872483685E9, 0.0, 2022-05-10 10:03:07.248
73.0, 29275.21965208288, 17928.11071015724, -43399.84576700279, -30317.123868122562, -30413.325776258207, -20991.77491566836, -13997.020005824568, -37399.0282295976, 0.02, 0.854, 0.554, 192.0, 0.0, 0.0, 0.0, 0.0, 0.0, 0.0, 0.0, 0.0, 0.0, 1.6521697872483723E9, 0.0, 2022-05-10 10:03:07.248
74.0, 29273.65502997101, 17914.31968382832, -43408.2947264069, -30327.47272580537, -30422.64645369607, -20994.412421514087, -14012.845040898925, -37411.65696521485, 0.02, 0.854, 0.554, 192.0, 0.0, 0.0, 0.0, 0.0, 0.0, 0.0, 0.0, 0.0, 0.0, 1.6521697872483766E9, 0.0, 2022-05-10 10:03:07.248
75.0, 29270.145806091525, 17919.549992030858, -43401.745665281494, -30323.583522270146, -30420.679500184, -20985.650537687605, -14003.345549505419, -37392.03213358309, 0.02, 0.854, 0.554, 192.0, 0.0, 0.0, 0.0, 0.0, 0.0, 0.0, 0.0, 0.0, 0.0, 1.652169787248381E9, 0.0, 2022-05-10 10:03:07.248
76.0, 29256.89122162953, 17919.63939900868, -43401.25392690348, -30330.132583395553, -30422.892322885076, -20995.77587792586, -13994.561313934484, -37385.3266102465, 0.02, 0.854, 0.554, 192.0, 0.0, 0.0, 0.0, 0.0, 0.0, 0.0, 0.0, 0.0, 0.0, 1.6521697872483852E9, 0.0, 2022-05-10 10:03:07.248
77.0, 29261.4062740095, 17919.773509475413, -43388.06639767485, -30324.09761239262, -30407.290805255274, -20998.502790749408, -13987.095831286411, -37393.52970046159, 0.016, 0.856, 0.55, 192.0, 0.0, 128.0, 26.0, 192.0, 17.0, 48.0, 0.0, 0.0, 0.0, 1.6521697872483892E9, 0.0, 2022-05-10 10:03:07.248
78.0, 29282.819245197687, 17928.1330619017, -43370.1850021106, -30306.953824395398, -30384.20145323294, -20981.58252019674, -13959.066743739457, -37376.900002586844, 0.016, 0.856, 0.55, 192.0, 0.0, 0.0, 0.0, 0.0, 0.0, 0.0, 0.0, 0.0, 0.0, 1.6521697872483933E9, 0.0, 2022-05-10 10:03:07.248
79.0, 29286.32846907717, 17930.36823634723, -43382.947848194584, -30317.213275100385, -30401.658165652534, -20990.076183089757, -13980.278549227543, -37388.9252411038, 0.016, 0.856, 0.55, 192.0, 0.0, 0.0, 0.0, 0.0, 0.0, 0.0, 0.0, 0.0, 0.0, 1.652169787248397E9, 0.0, 2022-05-10 10:03:07.248
80.0, 29268.46942525738, 17913.291503583372, -43407.95945024007, -30338.9615224554, -30426.625064209114, -21011.712671722493, -14010.766328664582, -37414.47328501622, 0.016, 0.856, 0.55, 192.0, 0.0, 0.0, 0.0, 0.0, 0.0, 0.0, 0.0, 0.0, 0.0, 1.6521697872484012E9, 0.0, 2022-05-10 10:03:07.248
81.0, 29265.407236267, 17927.01547467893, -43408.495892107, -30334.44647007543, -30422.758212418346, -21009.81277344379, -14019.885840402347, -37413.55686349355, 0.016, 0.856, 0.55, 192.0, 0.0, 0.0, 0.0, 0.0, 0.0, 0.0, 0.0, 0.0, 0.0, 1.6521697872484052E9, 0.0, 2022-05-10 10:03:07.248
82.0, 29281.813416697198, 17972.233053712018, -43382.56786853884, -30303.936338893935, -30387.19658698995, -20980.10730506269, -13969.259139211075, -37365.38885419236, 0.016, 0.856, 0.55, 192.0, 0.0, 0.0, 0.0, 0.0, 0.0, 0.0, 0.0, 0.0, 0.0, 1.6521697872484093E9, 0.0, 2022-05-10 10:03:07.248
83.0, 29290.4635418014, 17961.057181484364, -43380.39974932668, -30299.22012081386, -30380.0216770198, -20969.601985168694, -13967.314537443464, -37366.95347630423, 0.016, 0.856, 0.55, 192.0, 0.0, 0.0, 0.0, 0.0, 0.0, 0.0, 0.0, 0.0, 0.0, 1.6521697872484136E9, 0.0, 2022-05-10 10:03:07.248
84.0, 29288.675402244975, 17940.560631818847, -43399.085807691314, -30316.363908811083, -30396.04787779425, -20984.73411616494, -13975.00353753609, -37392.61327893892, 0.016, 0.856, 0.55, 192.0, 0.0, 0.0, 0.0, 0.0, 0.0, 0.0, 0.0, 0.0, 0.0, 1.6521697872484176E9, 0.0, 2022-05-10 10:03:07.248
85.0, 29281.701657974918, 17913.53737277238, -43411.133397952726, -30329.730251995356, -30408.698965155956, -21000.000357627912, -13990.33683423243, -37411.433447770294, 0.016, 0.856, 0.55, 192.0, 0.0, 0.0, 0.0, 0.0, 0.0, 0.0, 0.0, 0.0, 0.0, 1.6521697872484217E9, 0.0, 2022-05-10 10:03:07.248
86.0, 29258.433491996944, 17889.911578883122, -43424.03035450344, -30344.705920780412, -30425.529828730803, -21018.149974125623, -14000.350415748408, -37421.67054673083, 0.016, 0.856, 0.55, 192.0, 0.0, 0.0, 0.0, 0.0, 0.0, 0.0, 0.0, 0.0, 0.0, 1.652169787248427E9, 0.0, 2022-05-10 10:03:07.248
87.0, 29254.141957061525, 17896.01360511942, -43415.22376718805, -30340.39203410054, -30418.86900888312, -21020.29574159333, -13986.537037675029, -37408.03598261309, 0.018000000000000002, 0.864, 0.552, 192.0, 0.0, 144.0, 27.0, 0.0, 17.0, 64.0, 0.0, 0.0, 0.0, 1.6521697872484307E9, 0.0, 2022-05-10 10:03:07.248
88.0, 29271.665724714487, 17926.188460134086, -43390.90506922067, -30313.368775054074, -30398.998308062353, -20984.175322553554, -13974.891778813813, -37369.568630405505, 0.018000000000000002, 0.864, 0.552, 192.0, 0.0, 0.0, 0.0, 0.0, 0.0, 0.0, 0.0, 0.0, 0.0, 1.6521697872484348E9, 0.0, 2022-05-10 10:03:07.248
89.0, 29277.991268395337, 17931.083492169797, -43391.262697131955, -30311.67004247547, -30401.412296463528, -20977.559206194783, -13987.811087108981, -37381.70562764473, 0.018000000000000002, 0.864, 0.552, 192.0, 0.0, 0.0, 0.0, 0.0, 0.0, 0.0, 0.0, 0.0, 0.0, 1.6521697872484388E9, 0.0, 2022-05-10 10:03:07.248
90.0, 29275.331410805156, 17927.820137479324, -43396.8953367347, -30320.0072431573, -30412.185837290985, -20986.991642354926, -13998.450517469708, -37393.68616267278, 0.018000000000000002, 0.864, 0.552, 192.0, 0.0, 0.0, 0.0, 0.0, 0.0, 0.0, 0.0, 0.0, 0.0, 1.652169787248443E9, 0.0, 2022-05-10 10:03:07.248
91.0, 29274.54909974922, 17938.146643417676, -43385.92063020714, -30315.581597755147, -30408.117819800118, -20992.020784857366, -13988.772212120559, -37381.504461944634, 0.018000000000000002, 0.864, 0.552, 192.0, 0.0, 0.0, 0.0, 0.0, 0.0, 0.0, 0.0, 0.0, 0.0, 1.6521697872484467E9, 0.0, 2022-05-10 10:03:07.248
92.0, 29289.70358248992, 17950.998896479476, -43362.09367061778, -30296.38144926804, -30390.30347946924, -20982.789514397326, -13987.565217919973, -37380.63274391088, 0.018000000000000002, 0.864, 0.552, 192.0, 0.0, 0.0, 0.0, 0.0, 0.0, 0.0, 0.0, 0.0, 0.0, 1.6521697872484508E9, 0.0, 2022-05-10 10:03:07.248
93.0, 29301.393544840044, 17969.304975188374, -43351.65540595716, -30290.56999570966, -30381.63100262058, -20965.91394733357, -13968.76740083306, -37368.071063527, 0.018000000000000002, 0.864, 0.552, 192.0, 0.0, 0.0, 0.0, 0.0, 0.0, 0.0, 0.0, 0.0, 0.0, 1.6521697872484553E9, 0.0, 2022-05-10 10:03:07.248
94.0, 29289.524768534277, 17947.579079577816, -43379.30451384837, -30314.307548321194, -30402.7757528753, -20975.458142215986, -13980.613825394372, -37372.139081017864, 0.018000000000000002, 0.864, 0.552, 192.0, 0.0, 0.0, 0.0, 0.0, 0.0, 0.0, 0.0, 0.0, 0.0, 1.6521697872484612E9, 0.0, 2022-05-10 10:03:07.248
95.0, 29282.998059153328, 17925.853183967254, -43397.67764779063, -30332.52422005227, -30418.198456549464, -20995.127677336655, -14006.988883851634, -37389.349924248454, 0.018000000000000002, 0.864, 0.552, 192.0, 0.0, 0.0, 0.0, 0.0, 0.0, 0.0, 0.0, 0.0, 0.0, 1.6521697872484677E9, 0.0, 2022-05-10 10:03:07.248
96.0, 29275.309059060703, 17928.02130317942, -43392.82731924383, -30333.597103786124, -30415.53859895928, -20999.57567448326, -13975.2494067251, -37389.05935157053, 0.018000000000000002, 0.864, 0.552, 192.0, 0.0, 0.0, 0.0, 0.0, 0.0, 0.0, 0.0, 0.0, 0.0, 1.6521697872484715E9, 0.0, 2022-05-10 10:03:07.248
97.0, 29283.065114386693, 17955.133969203707, -43371.280237588915, -30315.53689426624, -30400.92055808551, -20981.783685896837, -13962.732429830126, -37374.28484848557, 0.014, 0.854, 0.55, 192.0, 0.0, 112.0, 26.0, 176.0, 17.0, 48.0, 0.0, 0.0, 0.0, 1.652169787248477E9, 0.0, 2022-05-10 10:03:07.248
98.0, 29290.754114479318, 17966.30984143136, -43372.0849003893, -30315.067507632677, -30396.718430127912, -20976.19574978301, -13971.874293312347, -37365.54531640355, 0.014, 0.854, 0.55, 192.0, 0.0, 0.0, 0.0, 0.0, 0.0, 0.0, 0.0, 0.0, 0.0, 1.6521697872484865E9, 0.0, 2022-05-10 10:03:07.248
99.0, 29297.951376193927, 17972.791847323402, -43381.47263306053, -30318.554379767702, -30393.991517304366, -20981.604871941196, -13969.9967467781, -37371.13325251738, 0.014, 0.854, 0.55, 192.0, 0.0, 0.0, 0.0, 0.0, 0.0, 0.0, 0.0, 0.0, 0.0, 1.6521697872484953E9, 0.0, 2022-05-10 10:03:07.248
100.0, 29296.5655680377, 17956.631536082215, -43395.330714622825, -30332.703034007915, -30401.054668552242, -21000.223875072465, -13971.874293312347, -37400.99518310966, 0.014, 0.854, 0.55, 192.0, 0.0, 0.0, 0.0, 0.0, 0.0, 0.0, 0.0, 0.0, 0.0, 1.6521697872485003E9, 0.0, 2022-05-10 10:03:07.248
101.0, 29284.383867309556, 17957.50325411597, -43397.431778601625, -30337.799231743724, -30404.988575576375, -21013.210238600997, -13991.186200521732, -37415.52381700562, 0.014, 0.854, 0.55, 192.0, 0.0, 0.0, 0.0, 0.0, 0.0, 0.0, 0.0, 0.0, 0.0, 1.6521697872485046E9, 0.0, 2022-05-10 10:03:07.248
102.0, 29274.705561960407, 17959.537262861402, -43383.26077261696, -30322.46593504738, -30390.9740318029, -21002.749622195915, -13979.38447944933, -37390.467511471215, 0.014, 0.854, 0.55, 192.0, 0.0, 0.0, 0.0, 0.0, 0.0, 0.0, 0.0, 0.0, 0.0, 1.6521697872485087E9, 0.0, 2022-05-10 10:03:07.248
103.0, 29288.585995267153, 17960.587794850802, -43375.99645566898, -30309.881902919045, -30386.146055000554, -20988.48920923343, -13963.559444374972, -37372.94374381826, 0.014, 0.854, 0.55, 192.0, 0.0, 0.0, 0.0, 0.0, 0.0, 0.0, 0.0, 0.0, 0.0, 1.6521697872485125E9, 0.0, 2022-05-10 10:03:07.248
104.0, 29300.119495406092, 17939.01836145143, -43388.02169418594, -30315.648652988515, -30393.76799985981, -20990.880845890148, -13972.164865990266, -37379.09047354347, 0.014, 0.854, 0.55, 192.0, 0.0, 0.0, 0.0, 0.0, 0.0, 0.0, 0.0, 0.0, 0.0, 1.6521697872485166E9, 0.0, 2022-05-10 10:03:07.248
105.0, 29293.74924823633, 17933.02809393741, -43396.716522779054, -30322.175362369464, -30402.954566830944, -20997.54166573783, -13991.655587155294, -37392.568575450015, 0.014, 0.854, 0.55, 192.0, 0.0, 0.0, 0.0, 0.0, 0.0, 0.0, 0.0, 0.0, 0.0, 1.6521697872485209E9, 0.0, 2022-05-10 10:03:07.248
106.0, 29296.051477915225, 17944.896870243178, -43390.5921447983, -30315.46983903287, -30402.753401130845, -20992.065488346278, -13986.96172081968, -37374.41895895231, 0.014, 0.854, 0.55, 192.0, 0.0, 0.0, 0.0, 0.0, 0.0, 0.0, 0.0, 0.0, 0.0, 1.6521697872485254E9, 0.0, 2022-05-10 10:03:07.248
107.0, 29294.062172658705, 17952.809387780355, -43377.292856847394, -30306.05975461719, -30390.52699691379, -20987.23751154393, -13965.347583931398, -37362.639589624356, 0.018000000000000002, 0.87, 0.552, 192.0, 0.0, 144.0, 27.0, 48.0, 17.0, 64.0, 0.0, 0.0, 0.0, 1.6521697872485318E9, 0.0, 2022-05-10 10:03:07.248
108.0, 29296.967899437896, 17971.9424810341, -43364.418252041134, -30301.298833048208, -30376.512453140316, -20977.268633516866, -13963.246519952598, -37370.820328095004, 0.018000000000000002, 0.87, 0.552, 192.0, 0.0, 0.0, 0.0, 0.0, 0.0, 0.0, 0.0, 0.0, 0.0, 1.6521697872485359E9, 0.0, 2022-05-10 10:03:07.248
109.0, 29310.714222277908, 17992.03669929942, -43363.792403196385, -30302.505827248795, -30381.474540409392, -20969.691392146517, -13972.500142157096, -37369.076892027486, 0.018000000000000002, 0.87, 0.552, 192.0, 0.0, 0.0, 0.0, 0.0, 0.0, 0.0, 0.0, 0.0, 0.0, 1.6521697872485397E9, 0.0, 2022-05-10 10:03:07.248
110.0, 29312.435306600968, 17976.54694039189, -43368.888600932194, -30307.33380405114, -30391.197549247452, -20973.222967770456, -13990.046261554511, -37371.13325251738, 0.018000000000000002, 0.87, 0.552, 192.0, 0.0, 0.0, 0.0, 0.0, 0.0, 0.0, 0.0, 0.0, 0.0, 1.6521697872485435E9, 0.0, 2022-05-10 10:03:07.248
111.0, 29297.549044793734, 17945.723884788025, -43367.59219975379, -30307.266748817772, -30391.421066692004, -20979.883787618135, -13998.67403491426, -37382.51029044513, 0.018000000000000002, 0.87, 0.552, 192.0, 0.0, 0.0, 0.0, 0.0, 0.0, 0.0, 0.0, 0.0, 0.0, 1.6521697872485476E9, 0.0, 2022-05-10 10:03:07.248
112.0, 29283.668611486988, 17940.02418995192, -43363.74769970748, -30303.19873132691, -30386.7719038453, -20979.727325406948, -13981.418488194764, -37380.36452297742, 0.018000000000000002, 0.87, 0.552, 192.0, 0.0, 0.0, 0.0, 0.0, 0.0, 0.0, 0.0, 0.0, 0.0, 1.6521697872485516E9, 0.0, 2022-05-10 10:03:07.248
113.0, 29295.626794770575, 17961.03482973991, -43346.313339032335, -30284.51267296227, -30369.15872921452, -20954.648668128095, -13957.435066394219, -37351.97780751918, 0.018000000000000002, 0.87, 0.552, 192.0, 0.0, 0.0, 0.0, 0.0, 0.0, 0.0, 0.0, 0.0, 0.0, 1.652169787248556E9, 0.0, 2022-05-10 10:03:07.248
114.0, 29299.292480861248, 17958.598489594282, -43355.70107170357, -30294.19097831142, -30376.221880462395, -20956.86149082917, -13952.718848314149, -37351.039034252055, 0.018000000000000002, 0.87, 0.552, 192.0, 0.0, 0.0, 0.0, 0.0, 0.0, 0.0, 0.0, 0.0, 0.0, 1.65216978724856E9, 0.0, 2022-05-10 10:03:07.248
115.0, 29308.456696087924, 17952.004724979965, -43365.49113577499, -30307.89259766252, -30390.48229342488, -20968.394990968107, -13983.631310895838, -37368.00400829363, 0.018000000000000002, 0.87, 0.552, 192.0, 0.0, 0.0, 0.0, 0.0, 0.0, 0.0, 0.0, 0.0, 0.0, 1.652169787248564E9, 0.0, 2022-05-10 10:03:07.248
116.0, 29299.828922728175, 17947.42261736663, -43385.09361566229, -30324.991682170832, -30413.996328591864, -20992.311357535287, -14005.692482673227, -37389.148758548356, 0.016, 0.868, 0.55, 192.0, 0.0, 128.0, 27.0, 32.0, 17.0, 48.0, 0.0, 0.0, 0.0, 1.6521697872485683E9, 0.0, 2022-05-10 10:03:07.248
117.0, 29284.674439987477, 17956.676239571123, -43387.79817674139, -30326.466897304883, -30411.761154146334, -21002.839029173738, -13981.262025983577, -37383.20319452324, 0.016, 0.868, 0.55, 192.0, 0.0, 0.0, 0.0, 0.0, 0.0, 0.0, 0.0, 0.0, 0.0, 1.652169787248572E9, 0.0, 2022-05-10 10:03:07.248
118.0, 29286.775503966273, 17961.258347184463, -43359.56792349433, -30310.775972697258, -30386.615441634112, -20984.622357442662, -13962.598319363395, -37372.720226373705, 0.016, 0.868, 0.55, 192.0, 0.0, 0.0, 0.0, 0.0, 0.0, 0.0, 0.0, 0.0, 0.0, 1.6521697872485764E9, 0.0, 2022-05-10 10:03:07.248
119.0, 29280.159387607502, 17939.30893412935, -43362.65246422916, -30315.782763455245, -30395.73495337188, -20982.92362486406, -13987.095831286411, -37377.950534576245, 0.016, 0.868, 0.55, 192.0, 0.0, 0.0, 0.0, 0.0, 0.0, 0.0, 0.0, 0.0, 0.0, 1.6521697872485807E9, 0.0, 2022-05-10 10:03:07.248
120.0, 29294.33039359217, 17941.521756830425, -43361.266656072934, -30315.492190777328, -30398.439514450973, -20984.041212086824, -13988.928674331746, -37372.094377528956, 0.016, 0.868, 0.55, 192.0, 0.0, 0.0, 0.0, 0.0, 0.0, 0.0, 0.0, 0.0, 0.0, 1.6521697872485847E9, 0.0, 2022-05-10 10:03:07.248
121.0, 29296.61027152661, 17952.18353893561, -43357.89154266018, -30310.61951048607, -30395.042049293763, -20988.86918888917, -13974.511799158074, -37368.786319349565, 0.016, 0.868, 0.55, 192.0, 0.0, 0.0, 0.0, 0.0, 0.0, 0.0, 0.0, 0.0, 0.0, 1.6521697877274337E9, 0.0, 2022-05-10 10:03:07.727
122.0, 29294.97859418137, 17967.36037342076, -43356.21516182604, -30302.70699294889, -30394.706773126934, -20989.338575522732, -13968.901511299791, -37353.765947075604, 0.016, 0.868, 0.55, 192.0, 0.0, 0.0, 0.0, 0.0, 0.0, 0.0, 0.0, 0.0, 0.0, 1.6521697877275286E9, 0.0, 2022-05-10 10:03:07.727
123.0, 29306.020355942295, 17969.573196121837, -43348.88378964469, -30291.32995502114, -30386.72720035639, -20975.659307916085, -13970.108505500379, -37350.614351107404, 0.016, 0.868, 0.55, 192.0, 0.0, 0.0, 0.0, 0.0, 0.0, 0.0, 0.0, 0.0, 0.0, 1.6521697877275388E9, 0.0, 2022-05-10 10:03:07.727
124.0, 29312.83763800116, 17958.26321342745, -43356.0810513593, -30292.33578352163, -30387.844787579157, -20971.524235191853, -13977.059898025978, -37363.48895591366, 0.016, 0.868, 0.55, 192.0, 0.0, 0.0, 0.0, 0.0, 0.0, 0.0, 0.0, 0.0, 0.0, 1.6521697877275476E9, 0.0, 2022-05-10 10:03:07.727
125.0, 29305.685079775463, 17949.523681345425, -43371.92843817812, -30304.18220808294, -30395.31027022723, -20984.130619064646, -13990.493296443618, -37372.60846765142, 0.016, 0.868, 0.55, 192.0, 0.0, 0.0, 0.0, 0.0, 0.0, 0.0, 0.0, 0.0, 0.0, 1.6521697877275584E9, 0.0, 2022-05-10 10:03:07.727
126.0, 29288.40718131151, 17939.733617274003, -43381.45028131608, -30316.028632644255, -30409.324814000705, -21010.125697866166, -14009.469927486174, -37386.39949398035, 0.016, 0.864, 0.548, 192.0, 0.0, 128.0, 27.0, 0.0, 17.0, 32.0, 0.0, 0.0, 0.0, 1.652169787727564E9, 0.0, 2022-05-10 10:03:07.727
127.0, 29281.880471930563, 17945.053332454365, -43371.79432771139, -30309.18899884093, -30404.16156103153, -21014.126660123668, -14007.72649141866, -37387.62883992539, 0.016, 0.864, 0.548, 192.0, 0.0, 0.0, 0.0, 0.0, 0.0, 0.0, 0.0, 0.0, 0.0, 1.6521697877275703E9, 0.0, 2022-05-10 10:03:07.727
128.0, 29295.582091281667, 17953.54699534738, -43355.56696123684, -30291.84404514361, -30388.001249790344, -20996.312319792785, -13982.848999839904, -37369.74744436114, 0.016, 0.864, 0.548, 192.0, 0.0, 0.0, 0.0, 0.0, 0.0, 0.0, 0.0, 0.0, 0.0, 1.6521697877276144E9, 0.0, 2022-05-10 10:03:07.727
129.0, 29299.337184350155, 17952.004724979965, -43363.524182262925, -30295.465027745373, -30394.952642315944, -20994.747697680916, -13998.070537813966, -37389.30522075954, 0.016, 0.864, 0.548, 192.0, 0.0, 0.0, 0.0, 0.0, 0.0, 0.0, 0.0, 0.0, 0.0, 1.6521697877276208E9, 0.0, 2022-05-10 10:03:07.727
130.0, 29277.4101230395, 17938.325457373317, -43383.10431040577, -30309.501923263306, -30411.582340190693, -21008.985758898947, -14030.502919018618, -37402.3809912659, 0.016, 0.864, 0.548, 192.0, 0.0, 0.0, 0.0, 0.0, 0.0, 0.0, 0.0, 0.0, 0.0, 1.652169787727626E9, 0.0, 2022-05-10 10:03:07.727
131.0, 29279.80175969622, 17940.739445774492, -43369.13447012121, -30295.822655656655, -30401.300537741252, -21001.095593106224, -13995.00834882359, -37354.99529302064, 0.016, 0.864, 0.548, 192.0, 0.0, 0.0, 0.0, 0.0, 0.0, 0.0, 0.0, 0.0, 0.0, 1.652169787727631E9, 0.0, 2022-05-10 10:03:07.727
132.0, 29285.52380627678, 17950.864786012746, -43348.86143790024, -30278.544757192703, -30384.067342766208, -20994.278311047354, -13951.422447135741, -37335.035185222056, 0.016, 0.864, 0.548, 192.0, 0.0, 0.0, 0.0, 0.0, 0.0, 0.0, 0.0, 0.0, 0.0, 1.6521697877276368E9, 0.0, 2022-05-10 10:03:07.727
133.0, 29293.235158113857, 17977.329251447827, -43338.266711028424, -30266.675980886936, -30381.586299131668, -20985.53877896533, -13953.165883203255, -37344.62408359338, 0.016, 0.864, 0.548, 192.0, 0.0, 0.0, 0.0, 0.0, 0.0, 0.0, 0.0, 0.0, 0.0, 1.6521697877276428E9, 0.0, 2022-05-10 10:03:07.727
134.0, 29292.98928892485, 17971.495446144992, -43356.14810659267, -30284.780893895735, -30405.793238376766, -20996.49113374843, -13983.00546205109, -37370.30623797253, 0.016, 0.864, 0.548, 192.0, 0.0, 0.0, 0.0, 0.0, 0.0, 0.0, 0.0, 0.0, 0.0, 1.652169787727648E9, 0.0, 2022-05-10 10:03:07.727
135.0, 29287.13313187756, 17939.577155062816, -43373.49306028999, -30303.42224877146, -30421.484162984394, -21013.34434906773, -14010.229886797653, -37389.72990390419, 0.016, 0.864, 0.548, 192.0, 0.0, 0.0, 0.0, 0.0, 0.0, 0.0, 0.0, 0.0, 0.0, 1.6521697877276556E9, 0.0, 2022-05-10 10:03:07.727
136.0, 29289.301251089724, 17931.485823569994, -43363.18890609609, -30296.80613241269, -30406.7767151328, -21011.980892655956, -13999.255180270098, -37382.3761799784, 0.02, 0.86, 0.546, 192.0, 0.0, 160.0, 26.0, 224.0, 17.0, 16.0, 0.0, 0.0, 0.0, 1.6521697877276645E9, 0.0, 2022-05-10 10:03:07.727
137.0, 29293.413972069502, 17933.989218948987, -43354.80700192535, -30286.636088685525, -30393.924462070998, -21003.39782278512, -13994.829534867948, -37377.458796198225, 0.02, 0.86, 0.546, 192.0, 0.0, 0.0, 0.0, 0.0, 0.0, 0.0, 0.0, 0.0, 0.0, 1.6521697877276716E9, 0.0, 2022-05-10 10:03:07.727
138.0, 29285.210881854404, 17931.77639624791, -43366.54166776439, -30295.57678646765, -30400.8758545966, -20998.77101168287, -14000.596284937417, -37377.70466538724, 0.02, 0.86, 0.546, 192.0, 0.0, 0.0, 0.0, 0.0, 0.0, 0.0, 0.0, 0.0, 0.0, 1.6521697877276764E9, 0.0, 2022-05-10 10:03:07.727
139.0, 29291.782294724264, 17939.823024251822, -43371.123775377724, -30299.71185919188, -30402.172255775007, -20993.607758713693, -14001.1550785488, -37382.64440091186, 0.02, 0.86, 0.546, 192.0, 0.0, 0.0, 0.0, 0.0, 0.0, 0.0, 0.0, 0.0, 0.0, 1.6521697877276816E9, 0.0, 2022-05-10 10:03:07.727
140.0, 29297.392582582546, 17932.424596837118, -43385.16067089566, -30313.52523726526, -30419.383099005594, -21006.862343175693, -14022.67980845926, -37397.84358714147, 0.02, 0.86, 0.546, 192.0, 0.0, 0.0, 0.0, 0.0, 0.0, 0.0, 0.0, 0.0, 0.0, 1.6521697877276871E9, 0.0, 2022-05-10 10:03:07.727
141.0, 29295.112704648105, 17939.17482366262, -43384.44541507309, -30307.71378370688, -30415.65035768156, -21009.186924599046, -14026.144328849832, -37395.720171418216, 0.02, 0.86, 0.546, 192.0, 0.0, 0.0, 0.0, 0.0, 0.0, 0.0, 0.0, 0.0, 0.0, 1.652169787727693E9, 0.0, 2022-05-10 10:03:07.727
142.0, 29283.93683242045, 17949.367219134238, -43374.1859643681, -30289.675925931446, -30396.383153961084, -20990.076183089757, -13968.186255477221, -37357.58809537746, 0.02, 0.86, 0.546, 192.0, 0.0, 0.0, 0.0, 0.0, 0.0, 0.0, 0.0, 0.0, 0.0, 1.6521697877277002E9, 0.0, 2022-05-10 10:03:07.727
143.0, 29279.399428296023, 17951.89296625769, -43376.35408358027, -30285.607908440583, -30396.15963651653, -20982.565996952773, -13968.298014199498, -37363.33249370247, 0.02, 0.86, 0.546, 192.0, 0.0, 0.0, 0.0, 0.0, 0.0, 0.0, 0.0, 0.0, 0.0, 1.6521697877277076E9, 0.0, 2022-05-10 10:03:07.727
144.0, 29279.73470446285, 17947.690838300092, -43393.60963029977, -30302.036440615233, -30414.264549525327, -20993.317186035776, -14011.950971120712, -37400.86107264293, 0.02, 0.86, 0.546, 192.0, 0.0, 0.0, 0.0, 0.0, 0.0, 0.0, 0.0, 0.0, 0.0, 1.6521697877277195E9, 0.0, 2022-05-10 10:03:07.727
145.0, 29279.622945740575, 17939.577155062816, -43406.104255450286, -30316.922702422467, -30427.899113643067, -21001.87790416216, -14024.177375337766, -37404.05737210004, 0.02, 0.86, 0.546, 192.0, 0.0, 0.0, 0.0, 0.0, 0.0, 0.0, 0.0, 0.0, 0.0, 1.652169787727728E9, 0.0, 2022-05-10 10:03:07.727
146.0, 29273.587974737642, 17937.900774228667, -43408.45118861809, -30319.470801290372, -30430.82719216671, -21009.58925599924, -14010.945142620223, -37389.618145181914, 0.016, 0.866, 0.544, 192.0, 0.0, 128.0, 27.0, 16.0, 17.0, 0.0, 0.0, 0.0, 0.0, 1.6521697877277389E9, 0.0, 2022-05-10 10:03:07.727
147.0, 29270.12345434707, 17943.55576557586, -43397.565889068355, -30310.351289552607, -30416.45502048195, -21005.29772106382, -13988.883970842835, -37376.25180199764, 0.016, 0.866, 0.544, 192.0, 0.0, 0.0, 0.0, 0.0, 0.0, 0.0, 0.0, 0.0, 0.0, 1.6521697877277486E9, 0.0, 2022-05-10 10:03:07.727
148.0, 29273.431512526455, 17925.8308322228, -43393.31905762185, -30312.76527795378, -30411.135305301585, -21004.761279196893, -13996.237694768632, -37383.8737468569, 0.016, 0.866, 0.544, 192.0, 0.0, 0.0, 0.0, 0.0, 0.0, 0.0, 0.0, 0.0, 0.0, 1.6521697877277584E9, 0.0, 2022-05-10 10:03:07.727
149.0, 29268.491777001833, 17902.808535433833, -43411.245156675, -30334.58058054216, -30428.8825903991, -21026.86715446319, -14028.088930617445, -37421.424677541814, 0.016, 0.866, 0.544, 192.0, 0.0, 0.0, 0.0, 0.0, 0.0, 0.0, 0.0, 0.0, 0.0, 1.652169787727766E9, 0.0, 2022-05-10 10:03:07.727
150.0, 29263.999076366315, 17901.847410422255, -43417.30247942239, -30345.443528347438, -30438.27032307033, -21039.898221480635, -14046.015029670602, -37437.36147133845, 0.016, 0.866, 0.544, 192.0, 0.0, 0.0, 0.0, 0.0, 0.0, 0.0, 0.0, 0.0, 0.0, 1.652169787727782E9, 0.0, 2022-05-10 10:03:07.727
151.0, 29256.868869885075, 17903.344977300763, -43412.63096483123, -30343.565981813194, -30439.20909633745, -21042.73689302646, -14044.53981453655, -37431.639424757894, 0.016, 0.866, 0.544, 192.0, 0.0, 0.0, 0.0, 0.0, 0.0, 0.0, 0.0, 0.0, 0.0, 1.6521697877277915E9, 0.0, 2022-05-10 10:03:07.727
152.0, 29252.331465760646, 17907.033015135887, -43408.0935607068, -30336.145202654032, -30434.247009068375, -21038.668875535594, -14022.411587525796, -37411.299337303564, 0.016, 0.866, 0.544, 192.0, 0.0, 0.0, 0.0, 0.0, 0.0, 0.0, 0.0, 0.0, 0.0, 1.6521697877278037E9, 0.0, 2022-05-10 10:03:07.727
153.0, 29253.69492217242, 17916.800727462858, -43404.561985082866, -30322.66710074748, -30435.565761991234, -21021.30157009382, -14027.261916072597, -37395.07197082901, 0.016, 0.866, 0.544, 192.0, 0.0, 0.0, 0.0, 0.0, 0.0, 0.0, 0.0, 0.0, 0.0, 1.65216978772781E9, 0.0, 2022-05-10 10:03:07.727
154.0, 29264.624925211065, 17928.043654923877, -43407.93709849562, -30320.722498979867, -30438.60559923716, -21017.121793880677, -14027.910116661802, -37404.61616571143, 0.016, 0.866, 0.544, 192.0, 0.0, 0.0, 0.0, 0.0, 0.0, 0.0, 0.0, 0.0, 0.0, 1.6521697877278156E9, 0.0, 2022-05-10 10:03:07.727
155.0, 29262.83678565464, 17915.97371291801, -43418.755342811986, -30329.216161872886, -30448.038035397298, -21027.045968418835, -14034.97326790968, -37422.341099064484, 0.016, 0.866, 0.544, 192.0, 0.0, 0.0, 0.0, 0.0, 0.0, 0.0, 0.0, 0.0, 0.0, 1.6521697877278206E9, 0.0, 2022-05-10 10:03:07.727
156.0, 29258.187622807938, 17913.31385532783, -43410.37343864125, -30322.48828679184, -30442.11482311664, -21029.77288124238, -14036.359076065908, -37425.9844334107, 0.018000000000000002, 0.86, 0.544, 192.0, 0.0, 144.0, 26.0, 224.0, 17.0, 0.0, 0.0, 0.0, 0.0, 1.6521697877278264E9, 0.0, 2022-05-10 10:03:07.727
157.0, 29254.11960531707, 17921.136965887184, -43399.10815943577, -30315.04515588822, -30436.616293980635, -21025.30253235132, -14036.180262110265, -37422.85518918696, 0.018000000000000002, 0.86, 0.544, 192.0, 0.0, 0.0, 0.0, 0.0, 0.0, 0.0, 0.0, 0.0, 0.0, 1.6521697877278335E9, 0.0, 2022-05-10 10:03:07.727
158.0, 29254.566640206176, 17915.839602451277, -43396.31419137886, -30316.38626055554, -30425.283959541794, -21017.859401447702, -14015.191974066733, -37400.43638949828, 0.018000000000000002, 0.86, 0.544, 192.0, 0.0, 0.0, 0.0, 0.0, 0.0, 0.0, 0.0, 0.0, 0.0, 1.652169787727841E9, 0.0, 2022-05-10 10:03:07.727
159.0, 29266.502471745313, 17919.393529819674, -43391.66502853215, -30322.756507725302, -30419.204285049953, -21013.813735701293, -14004.574895450462, -37394.177901050796, 0.018000000000000002, 0.86, 0.544, 192.0, 0.0, 0.0, 0.0, 0.0, 0.0, 0.0, 0.0, 0.0, 0.0, 1.6521697877278483E9, 0.0, 2022-05-10 10:03:07.727
160.0, 29259.93105887545, 17907.636512236182, -43402.63973505971, -30344.68356903596, -30430.849543911165, -21028.074148663778, -14013.24737229912, -37417.15549435085, 0.018000000000000002, 0.86, 0.544, 192.0, 0.0, 0.0, 0.0, 0.0, 0.0, 0.0, 0.0, 0.0, 0.0, 1.6521697877278533E9, 0.0, 2022-05-10 10:03:07.727
161.0, 29244.441299967923, 17891.319738783808, -43405.187833927615, -30354.38422612956, -30433.934084646, -21042.13339592617, -14025.071445115978, -37434.232227114706, 0.018000000000000002, 0.86, 0.544, 192.0, 0.0, 0.0, 0.0, 0.0, 0.0, 0.0, 0.0, 0.0, 0.0, 1.6521697877278583E9, 0.0, 2022-05-10 10:03:07.727
162.0, 29247.950523847405, 17901.288616810874, -43391.0391796874, -30343.521278324282, -30416.119744315118, -21030.555192298318, -14011.43688099824, -37409.5782529805, 0.018000000000000002, 0.86, 0.544, 192.0, 0.0, 0.0, 0.0, 0.0, 0.0, 0.0, 0.0, 0.0, 0.0, 1.6521697877278688E9, 0.0, 2022-05-10 10:03:07.727
163.0, 29236.439375452923, 17895.790087674868, -43402.662086804165, -30354.16070868501, -30425.68629094199, -21036.098424923235, -14014.543773477528, -37411.366392536926, 0.018000000000000002, 0.86, 0.544, 192.0, 0.0, 0.0, 0.0, 0.0, 0.0, 0.0, 0.0, 0.0, 0.0, 1.6521697877278748E9, 0.0, 2022-05-10 10:03:07.727
164.0, 29232.907799828983, 17893.890189396167, -43423.426857403145, -30368.689342580958, -30445.489936529393, -21049.576526829784, -14039.48832028965, -37441.11656440694, 0.018000000000000002, 0.86, 0.544, 192.0, 0.0, 0.0, 0.0, 0.0, 0.0, 0.0, 0.0, 0.0, 0.0, 1.6521697877278793E9, 0.0, 2022-05-10 10:03:07.727
165.0, 29244.97774183485, 17904.708433712534, -43424.63385160373, -30363.10140646713, -30441.466622527438, -21041.798119759336, -14029.608849240405, -37433.27110210313, 0.018000000000000002, 0.86, 0.544, 192.0, 0.0, 0.0, 0.0, 0.0, 0.0, 0.0, 0.0, 0.0, 0.0, 1.6521697877278852E9, 0.0, 2022-05-10 10:03:07.727
166.0, 29251.236230282335, 17906.809497691334, -43422.1975114581, -30355.09948195213, -30436.571590491723, -21033.818546988794, -14018.589439223939, -37414.36152629394, 0.026000000000000002, 0.856, 0.546, 192.0, 0.0, 208.0, 26.0, 192.0, 17.0, 16.0, 0.0, 0.0, 0.0, 1.6521697877278905E9, 0.0, 2022-05-10 10:03:07.727
167.0, 29239.03217780974, 17906.407166291137, -43428.54540688341, -30353.981894729364, -30442.53950626129, -21038.288895879854, -14030.0111806406, -37419.345965307475, 0.026000000000000002, 0.856, 0.546, 192.0, 0.0, 0.0, 0.0, 0.0, 0.0, 0.0, 0.0, 0.0, 0.0, 1.6521697877278955E9, 0.0, 2022-05-10 10:03:07.727
168.0, 29249.761015148288, 17920.242896108975, -43422.46573239157, -30337.262789876797, -30431.49774450037, -21022.30739859431, -14025.071445115978, -37407.56659597952, 0.026000000000000002, 0.856, 0.546, 192.0, 0.0, 0.0, 0.0, 0.0, 0.0, 0.0, 0.0, 0.0, 0.0, 1.6521697877279007E9, 0.0, 2022-05-10 10:03:07.727
169.0, 29254.588991950633, 17920.73463448699, -43419.18002595664, -30332.121888652076, -30431.855372411654, -21007.711709464995, -14024.020913126578, -37405.10790408944, 0.026000000000000002, 0.856, 0.546, 192.0, 0.0, 0.0, 0.0, 0.0, 0.0, 0.0, 0.0, 0.0, 0.0, 1.652169787727906E9, 0.0, 2022-05-10 10:03:07.727
170.0, 29263.7085036884, 17914.006759405944, -43415.8496160328, -30329.350272339616, -30433.06236661224, -21003.219008829477, -14021.159889836299, -37409.42179076932, 0.026000000000000002, 0.856, 0.546, 192.0, 0.0, 0.0, 0.0, 0.0, 0.0, 0.0, 0.0, 0.0, 0.0, 1.6521697877279136E9, 0.0, 2022-05-10 10:03:07.727
171.0, 29263.395579266024, 17921.584000776293, -43414.26264217647, -30322.71180423639, -30426.02156710882, -21006.52706700886, -14006.63125594035, -37409.15356983585, 0.026000000000000002, 0.856, 0.546, 192.0, 0.0, 0.0, 0.0, 0.0, 0.0, 0.0, 0.0, 0.0, 0.0, 1.6521697877279296E9, 0.0, 2022-05-10 10:03:07.727
172.0, 29264.781387422252, 17935.9338207166, -43407.95945024007, -30310.99949014181, -30416.477372226404, -20999.419212272074, -14009.782851908549, -37394.58023245099, 0.026000000000000002, 0.856, 0.546, 192.0, 0.0, 0.0, 0.0, 0.0, 0.0, 0.0, 0.0, 0.0, 0.0, 1.6521697877279365E9, 0.0, 2022-05-10 10:03:07.727
173.0, 29270.436378769446, 17938.16899516213, -43392.492043077, -30294.816827156166, -30409.81655237872, -20980.733153907437, -14005.804241395503, -37384.052560812546, 0.026000000000000002, 0.856, 0.546, 192.0, 0.0, 0.0, 0.0, 0.0, 0.0, 0.0, 0.0, 0.0, 0.0, 1.6521697877279434E9, 0.0, 2022-05-10 10:03:07.727
174.0, 29269.631715969055, 17928.088358412788, -43394.995438456, -30298.504864991293, -30422.422936251514, -20980.599043440707, -14002.67499717176, -37389.126406803894, 0.026000000000000002, 0.856, 0.546, 192.0, 0.0, 0.0, 0.0, 0.0, 0.0, 0.0, 0.0, 0.0, 0.0, 1.6521697877279487E9, 0.0, 2022-05-10 10:03:07.727
175.0, 29270.12345434707, 17924.64618976667, -43398.01292395746, -30304.405725527493, -30431.87772415611, -20987.103401077202, -14015.527250233561, -37393.954383606244, 0.026000000000000002, 0.856, 0.546, 192.0, 0.0, 0.0, 0.0, 0.0, 0.0, 0.0, 0.0, 0.0, 0.0, 1.6521697877279534E9, 0.0, 2022-05-10 10:03:07.727
176.0, 29270.88341365855, 17929.49651831347, -43382.25494411647, -30297.342574279617, -30422.9817298629, -20988.891540633624, -14014.543773477528, -37395.720171418216, 0.016, 0.86, 0.546, 192.0, 0.0, 128.0, 26.0, 224.0, 17.0, 16.0, 0.0, 0.0, 0.0, 1.6521697877279584E9, 0.0, 2022-05-10 10:03:07.727
177.0, 29264.535518233242, 17937.520794572927, -43374.5882957683, -30300.494170247817, -30418.26551178283, -20997.787534926836, -14011.615694953884, -37406.605470967945, 0.016, 0.86, 0.546, 192.0, 0.0, 0.0, 0.0, 0.0, 0.0, 0.0, 0.0, 0.0, 0.0, 1.6521697877279637E9, 0.0, 2022-05-10 10:03:07.727
178.0, 29276.046666627728, 17947.109692944254, -43363.27831307391, -30297.119056835065, -30403.155732531042, -20998.0557558603, -13992.661415655783, -37398.6258981974, 0.016, 0.86, 0.546, 192.0, 0.0, 0.0, 0.0, 0.0, 0.0, 0.0, 0.0, 0.0, 0.0, 1.6521697877279713E9, 0.0, 2022-05-10 10:03:07.727
179.0, 29283.981535909363, 17947.17674817762, -43368.39686255418, -30305.545664494715, -30400.227654007394, -21000.559151239297, -13988.928674331746, -37398.31297377503, 0.016, 0.86, 0.546, 192.0, 0.0, 0.0, 0.0, 0.0, 0.0, 0.0, 0.0, 0.0, 0.0, 1.652169787727983E9, 0.0, 2022-05-10 10:03:07.727
180.0, 29278.84063468464, 17929.965904947032, -43380.53385979341, -30322.220065858375, -30408.676613411502, -21015.490116535442, -14007.771194907571, -37417.91545366233, 0.016, 0.86, 0.546, 192.0, 0.0, 0.0, 0.0, 0.0, 0.0, 0.0, 0.0, 0.0, 0.0, 1.6521697877279973E9, 0.0, 2022-05-10 10:03:07.727
181.0, 29253.091425072125, 17903.613198234227, -43400.24809840299, -30346.67287429248, -30432.615331723136, -21044.100349438235, -14034.0121428981, -37439.64134927289, 0.016, 0.86, 0.546, 192.0, 0.0, 0.0, 0.0, 0.0, 0.0, 0.0, 0.0, 0.0, 0.0, 1.6521697877280104E9, 0.0, 2022-05-10 10:03:07.728
182.0, 29249.13516630354, 17913.760890216934, -43385.20537438457, -30338.15685965501, -30423.87579964111, -21037.439529590552, -14012.018026354079, -37410.382915780894, 0.016, 0.86, 0.546, 192.0, 0.0, 0.0, 0.0, 0.0, 0.0, 0.0, 0.0, 0.0, 0.0, 1.652169787728026E9, 0.0, 2022-05-10 10:03:07.728
183.0, 29271.33044854766, 17939.84537599628, -43362.92068516263, -30317.034461144744, -30397.97012781741, -21007.53289550935, -13993.466078456173, -37386.71241840273, 0.016, 0.86, 0.546, 192.0, 0.0, 0.0, 0.0, 0.0, 0.0, 0.0, 0.0, 0.0, 0.0, 1.6521697877280324E9, 0.0, 2022-05-10 10:03:07.728
184.0, 29290.41883831249, 17943.60046906477, -43365.37937705271, -30312.117077364575, -30395.91376732752, -20993.25013080241, -13991.163848777278, -37389.17111029281, 0.016, 0.86, 0.546, 192.0, 0.0, 0.0, 0.0, 0.0, 0.0, 0.0, 0.0, 0.0, 0.0, 1.6521697877280393E9, 0.0, 2022-05-10 10:03:07.728
185.0, 29277.097198617128, 17926.12140490072, -43384.51247030646, -30329.506734550803, -30404.832113365188, -21004.53776175234, -13996.505915702095, -37399.36350576443, 0.016, 0.86, 0.546, 192.0, 0.0, 0.0, 0.0, 0.0, 0.0, 0.0, 0.0, 0.0, 0.0, 1.6521697877280447E9, 0.0, 2022-05-10 10:03:07.728
186.0, 29260.489852486833, 17934.369198604727, -43385.5406505514, -30331.96542644089, -30401.03231680779, -21009.67866297706, -13992.90728484479, -37389.64049692637, 0.016, 0.858, 0.548, 192.0, 0.0, 128.0, 26.0, 208.0, 17.0, 32.0, 0.0, 0.0, 0.0, 1.6521697877280567E9, 0.0, 2022-05-10 10:03:07.728
187.0, 29263.149710077014, 17924.065044410832, -43371.48140328901, -30321.169533868975, -30390.862273080624, -20999.374508783163, -13981.373784705853, -37375.69300838626, 0.016, 0.858, 0.548, 192.0, 0.0, 0.0, 0.0, 0.0, 0.0, 0.0, 0.0, 0.0, 0.0, 1.6521697877280664E9, 0.0, 2022-05-10 10:03:07.728
188.0, 29263.88731764404, 17929.608277035746, -43365.42408054163, -30315.84981868861, -30391.15284575854, -20994.34536628072, -13995.924770346257, -37385.3266102465, 0.016, 0.858, 0.548, 192.0, 0.0, 0.0, 0.0, 0.0, 0.0, 0.0, 0.0, 0.0, 0.0, 1.652169787728078E9, 0.0, 2022-05-10 10:03:07.728
189.0, 29262.903840888008, 17926.21081187854, -43384.46776681754, -30332.121888652076, -30410.86708436812, -21010.505677521905, -14002.920866360768, -37407.14191283487, 0.016, 0.858, 0.548, 192.0, 0.0, 0.0, 0.0, 0.0, 0.0, 0.0, 0.0, 0.0, 0.0, 1.6521697877280872E9, 0.0, 2022-05-10 10:03:07.728
190.0, 29279.37707655157, 17925.093224655775, -43381.96437143855, -30328.746775239324, -30415.8291716372, -21012.07029963378, -14004.418433239274, -37408.48301750219, 0.016, 0.858, 0.548, 192.0, 0.0, 0.0, 0.0, 0.0, 0.0, 0.0, 0.0, 0.0, 0.0, 1.6521697877280965E9, 0.0, 2022-05-10 10:03:07.728
191.0, 29280.248794585325, 17924.26621011093, -43384.691284262095, -30329.23851361734, -30429.30727354375, -21016.02655840237, -14039.465968545195, -37418.27308157362, 0.016, 0.858, 0.548, 192.0, 0.0, 0.0, 0.0, 0.0, 0.0, 0.0, 0.0, 0.0, 0.0, 1.6521697877281065E9, 0.0, 2022-05-10 10:03:07.728
192.0, 29271.88924215904, 17918.65592225265, -43374.67770274612, -30315.00045239931, -30417.237331537883, -21005.16361059709, -14011.660398442793, -37394.35671500644, 0.016, 0.858, 0.548, 192.0, 0.0, 0.0, 0.0, 0.0, 0.0, 0.0, 0.0, 0.0, 0.0, 1.6521697877281272E9, 0.0, 2022-05-10 10:03:07.728
193.0, 29279.645297485033, 17930.59175379178, -43364.86528693024, -30298.37075452456, -30399.132418529087, -20990.411459256586, -13984.659491140783, -37380.811557866524, 0.016, 0.858, 0.548, 192.0, 0.0, 0.0, 0.0, 0.0, 0.0, 0.0, 0.0, 0.0, 0.0, 1.6521697877281325E9, 0.0, 2022-05-10 10:03:07.728
194.0, 29290.84352145714, 17942.371123119727, -43375.57177252433, -30303.265786560274, -30405.793238376766, -20992.847799402214, -14011.123956575866, -37399.51996797562, 0.016, 0.858, 0.548, 192.0, 0.0, 0.0, 0.0, 0.0, 0.0, 0.0, 0.0, 0.0, 0.0, 1.6521697877281373E9, 0.0, 2022-05-10 10:03:07.728
195.0, 29278.684172473455, 17936.291448627886, -43387.976990697025, -30313.56994075417, -30419.427802494505, -21004.336596052242, -14018.164756079288, -37417.803694940056, 0.016, 0.858, 0.548, 192.0, 0.0, 0.0, 0.0, 0.0, 0.0, 0.0, 0.0, 0.0, 0.0, 1.6521697877281432E9, 0.0, 2022-05-10 10:03:07.728
196.0, 29272.917422403985, 17925.182631633597, -43390.16746165365, -30311.13360060854, -30422.489991484883, -21007.91287516509, -14013.068558343479, -37409.064162858034, 0.012, 0.858, 0.544, 192.0, 0.0, 96.0, 26.0, 208.0, 17.0, 0.0, 0.0, 0.0, 0.0, 1.6521697877281475E9, 0.0, 2022-05-10 10:03:07.728
197.0, 29274.258527071303, 17932.670466026124, -43374.5882957683, -30290.122960820554, -30401.81462786372, -20985.24820628741, -13977.350470703897, -37363.8689355694, 0.012, 0.858, 0.544, 192.0, 0.0, 0.0, 0.0, 0.0, 0.0, 0.0, 0.0, 0.0, 0.0, 1.6521697877281523E9, 0.0, 2022-05-10 10:03:07.728
198.0, 29276.51605326129, 17953.524643602927, -43365.51348751944, -30282.836292128122, -30391.421066692004, -20971.725400891948, -13982.446668439707, -37355.46467965421, 0.012, 0.858, 0.544, 192.0, 0.0, 0.0, 0.0, 0.0, 0.0, 0.0, 0.0, 0.0, 0.0, 1.652169787728157E9, 0.0, 2022-05-10 10:03:07.728
199.0, 29279.846463185128, 17964.968736764044, -43371.48140328901, -30289.206539297884, -30396.53961617227, -20972.887691603624, -13999.366938992374, -37372.139081017864, 0.012, 0.858, 0.544, 192.0, 0.0, 0.0, 0.0, 0.0, 0.0, 0.0, 0.0, 0.0, 0.0, 1.6521697877281623E9, 0.0, 2022-05-10 10:03:07.728
200.0, 29266.703637445407, 17927.194288634575, -43390.72625526503, -30312.273539575763, -30411.87291286861, -20996.960520381992, -14001.602113437906, -37392.30035451655, 0.012, 0.858, 0.544, 192.0, 0.0, 0.0, 0.0, 0.0, 0.0, 0.0, 0.0, 0.0, 0.0, 1.6521697877281675E9, 0.0, 2022-05-10 10:03:07.728
201.0, 29273.16329159299, 17923.282733354896, -43378.56690628135, -30308.607853485093, -30409.43657272298, -21005.141258852633, -14000.640988426327, -37395.720171418216, 0.012, 0.858, 0.544, 192.0, 0.0, 0.0, 0.0, 0.0, 0.0, 0.0, 0.0, 0.0, 0.0, 1.652169787728172E9, 0.0, 2022-05-10 10:03:07.728
202.0, 29275.46552127189, 17926.903715956654, -43357.3327490488, -30294.14627482251, -30395.757305116334, -21001.699090206515, -13976.05406952549, -37384.9242788463, 0.012, 0.858, 0.544, 192.0, 0.0, 0.0, 0.0, 0.0, 0.0, 0.0, 0.0, 0.0, 0.0, 1.6521697877281768E9, 0.0, 2022-05-10 10:03:07.728
203.0, 29286.775503966273, 17945.12038768773, -43332.902292359155, -30276.019010069253, -30378.278240952284, -20979.704973662494, -13965.19112172021, -37377.30233398704, 0.012, 0.858, 0.544, 192.0, 0.0, 0.0, 0.0, 0.0, 0.0, 0.0, 0.0, 0.0, 0.0, 1.6521697877281816E9, 0.0, 2022-05-10 10:03:07.728
204.0, 29301.57235879569, 17953.12231220273, -43333.99752783746, -30280.735228149326, -30377.78650257427, -20972.932395092535, -13978.982148049136, -37377.23527875367, 0.012, 0.858, 0.544, 192.0, 0.0, 0.0, 0.0, 0.0, 0.0, 0.0, 0.0, 0.0, 0.0, 1.6521697877281864E9, 0.0, 2022-05-10 10:03:07.728
205.0, 29305.528617564276, 17944.11455918724, -43347.40857451064, -30300.33770803663, -30387.01777303431, -20984.756467909392, -13971.069630511956, -37385.7736451356, 0.01, 0.856, 0.552, 192.0, 0.0, 80.0, 26.0, 192.0, 17.0, 64.0, 0.0, 0.0, 0.0, 1.652169787728191E9, 0.0, 2022-05-10 10:03:07.728
206.0, 29295.068001159194, 17940.20300390756, -43356.01399612594, -30316.319205322172, -30395.332621971684, -20998.68160470505, -13987.67697664225, -37401.9786598657, 0.01, 0.856, 0.552, 192.0, 0.0, 0.0, 0.0, 0.0, 0.0, 0.0, 0.0, 0.0, 0.0, 1.6521697877281957E9, 0.0, 2022-05-10 10:03:07.728
207.0, 29284.160349865004, 17969.03675425491, -43343.876998886706, -30303.981042382842, -30382.50272065434, -20989.517389478373, -13972.790714835015, -37371.58028740648, 0.01, 0.856, 0.552, 192.0, 0.0, 0.0, 0.0, 0.0, 0.0, 0.0, 0.0, 0.0, 0.0, 1.6521697877282002E9, 0.0, 2022-05-10 10:03:07.728
208.0, 29286.50728303281, 17967.293318187396, -43335.78566739389, -30290.212367798373, -30370.38807515956, -20970.33959273572, -13953.836435536914, -37355.30821744302, 0.01, 0.856, 0.552, 192.0, 0.0, 0.0, 0.0, 0.0, 0.0, 0.0, 0.0, 0.0, 0.0, 1.6521697877282047E9, 0.0, 2022-05-10 10:03:07.728
209.0, 29290.79881796823, 17957.950289005075, -43345.7321936765, -30294.61566145607, -30372.24326994935, -20968.663211901574, -13971.091982256412, -37370.52975541708, 0.01, 0.856, 0.552, 192.0, 0.0, 0.0, 0.0, 0.0, 0.0, 0.0, 0.0, 0.0, 0.0, 1.6521697877282095E9, 0.0, 2022-05-10 10:03:07.728
210.0, 29294.039820914248, 17952.31764940234, -43361.17724909511, -30303.57871098265, -30384.559081144227, -20978.475627717453, -13988.369880720364, -37384.20902302373, 0.01, 0.856, 0.552, 192.0, 0.0, 0.0, 0.0, 0.0, 0.0, 0.0, 0.0, 0.0, 0.0, 1.6521697877282157E9, 0.0, 2022-05-10 10:03:07.728
211.0, 29301.527655306778, 17951.26711741294, -43358.405632782655, -30293.989812611322, -30380.69222935346, -20974.809941626783, -13971.315499700964, -37373.81546185201, 0.01, 0.856, 0.552, 192.0, 0.0, 0.0, 0.0, 0.0, 0.0, 0.0, 0.0, 0.0, 0.0, 1.65216978772822E9, 0.0, 2022-05-10 10:03:07.728
212.0, 29308.233178643368, 17957.011515737955, -43355.879885659204, -30288.491283475316, -30381.42983692048, -20974.34055499322, -13965.794618820504, -37372.228487995686, 0.01, 0.856, 0.552, 192.0, 0.0, 0.0, 0.0, 0.0, 0.0, 0.0, 0.0, 0.0, 0.0, 1.6521697877282248E9, 0.0, 2022-05-10 10:03:07.728
213.0, 29312.65882404552, 17967.31566993185, -43350.18019082311, -30278.70121940389, -30379.954621786434, -20964.081104288234, -13975.696441614205, -37370.30623797253, 0.01, 0.856, 0.552, 192.0, 0.0, 0.0, 0.0, 0.0, 0.0, 0.0, 0.0, 0.0, 0.0, 1.6521697877282293E9, 0.0, 2022-05-10 10:03:07.728
214.0, 29303.56166405221, 17973.775324079434, -43359.254999071956, -30283.305678761684, -30388.560043401725, -20964.81871185526, -13990.716813888172, -37385.997162580155, 0.01, 0.856, 0.552, 192.0, 0.0, 0.0, 0.0, 0.0, 0.0, 0.0, 0.0, 0.0, 0.0, 1.6521697877282367E9, 0.0, 2022-05-10 10:03:07.728
215.0, 29289.725934234375, 17971.786018822913, -43375.10238589077, -30296.292042290217, -30401.859331352633, -20973.155912537088, -13974.467095669163, -37379.135177032374, 0.012, 0.858, 0.554, 192.0, 0.0, 96.0, 26.0, 208.0, 17.0, 80.0, 0.0, 0.0, 0.0, 1.6521697877282412E9, 0.0, 2022-05-10 10:03:07.728
216.0, 29290.128265634572, 17960.811312295355, -43369.11211837675, -30289.877091631544, -30396.62902315009, -20976.82159862776, -13971.807238078982, -37375.96122931972, 0.012, 0.858, 0.554, 192.0, 0.0, 0.0, 0.0, 0.0, 0.0, 0.0, 0.0, 0.0, 0.0, 1.6521697877282455E9, 0.0, 2022-05-10 10:03:07.728
217.0, 29299.985384939362, 17967.248614698485, -43348.39205126668, -30268.575879165637, -30378.501758396837, -20967.545624678805, -13969.19208397771, -37373.03315079607, 0.012, 0.858, 0.554, 192.0, 0.0, 0.0, 0.0, 0.0, 0.0, 0.0, 0.0, 0.0, 0.0, 1.6521697877282503E9, 0.0, 2022-05-10 10:03:07.728
218.0, 29309.93191122197, 17967.338021676307, -43342.9829291085, -30263.993771552297, -30371.8185868047, -20962.15885426508, -13960.47490364014, -37363.91363905831, 0.012, 0.858, 0.554, 192.0, 0.0, 0.0, 0.0, 0.0, 0.0, 0.0, 0.0, 0.0, 0.0, 1.6521697877282548E9, 0.0, 2022-05-10 10:03:07.728
219.0, 29313.79876301274, 17968.097980987786, -43350.18019082311, -30274.43203621293, -30376.95948802942, -20964.550490921796, -13962.419505407752, -37362.48312741317, 0.012, 0.858, 0.554, 192.0, 0.0, 0.0, 0.0, 0.0, 0.0, 0.0, 0.0, 0.0, 0.0, 1.6521697877282596E9, 0.0, 2022-05-10 10:03:07.728
220.0, 29306.42268734249, 17961.951251262577, -43362.29483631788, -30287.28428927473, -30386.280165467284, -20971.457179958485, -13973.438915424218, -37368.24987748264, 0.012, 0.858, 0.554, 192.0, 0.0, 0.0, 0.0, 0.0, 0.0, 0.0, 0.0, 0.0, 0.0, 1.6521697877282643E9, 0.0, 2022-05-10 10:03:07.728
221.0, 29308.791972254752, 17952.69762905808, -43354.31526354734, -30282.053981072186, -30378.367647930107, -20970.071371802256, -13971.270796212053, -37359.06331051151, 0.012, 0.858, 0.554, 192.0, 0.0, 0.0, 0.0, 0.0, 0.0, 0.0, 0.0, 0.0, 0.0, 1.652169787728269E9, 0.0, 2022-05-10 10:03:07.728
222.0, 29312.077678689682, 17955.60335583727, -43338.19965579506, -30273.962649579367, -30368.15290071403, -20965.310450233275, -13958.127970472333, -37349.78733656256, 0.012, 0.858, 0.554, 192.0, 0.0, 0.0, 0.0, 0.0, 0.0, 0.0, 0.0, 0.0, 0.0, 1.652169787728276E9, 0.0, 2022-05-10 10:03:07.728
223.0, 29309.93191122197, 17965.68399258661, -43330.82358012481, -30266.474815186837, -30358.899278509532, -20960.460121686476, -13934.301010882977, -37340.95839750271, 0.012, 0.858, 0.554, 192.0, 0.0, 0.0, 0.0, 0.0, 0.0, 0.0, 0.0, 0.0, 0.0, 1.6521697877282803E9, 0.0, 2022-05-10 10:03:07.728
224.0, 29320.683100304974, 17977.753934592478, -43334.86924587122, -30269.335838477116, -30356.753511041825, -20958.38140945213, -13933.89867948278, -37349.02737725108, 0.012, 0.858, 0.554, 192.0, 0.0, 0.0, 0.0, 0.0, 0.0, 0.0, 0.0, 0.0, 0.0, 1.6521697877282858E9, 0.0, 2022-05-10 10:03:07.728
225.0, 29308.434344343466, 17967.539187376402, -43351.87892340171, -30288.290117775217, -30379.39582817505, -20970.093723546714, -13962.441857152207, -37371.96026706222, 0.014, 0.864, 0.554, 192.0, 0.0, 112.0, 27.0, 0.0, 17.0, 80.0, 0.0, 0.0, 0.0, 1.6521697877282925E9, 0.0, 2022-05-10 10:03:07.728
226.0, 29299.56070179471, 17967.807408309865, -43355.18698158109, -30290.324126520652, -30390.9740318029, -20969.669040402063, -13991.700290644205, -37380.87861309989, 0.014, 0.864, 0.554, 192.0, 0.0, 0.0, 0.0, 0.0, 0.0, 0.0, 0.0, 0.0, 0.0, 1.6521697877282977E9, 0.0, 2022-05-10 10:03:07.728
227.0, 29301.70646926242, 17972.65773685667, -43351.633054212696, -30286.189053796417, -30382.25685146533, -20969.33376423523, -13976.85873232588, -37369.076892027486, 0.014, 0.864, 0.554, 192.0, 0.0, 0.0, 0.0, 0.0, 0.0, 0.0, 0.0, 0.0, 0.0, 1.6521697877283025E9, 0.0, 2022-05-10 10:03:07.728
228.0, 29310.021318199793, 17979.40796368217, -43338.04319358387, -30271.392198967005, -30362.922592511488, -20952.86052857167, -13944.918089499246, -37346.72514757218, 0.014, 0.864, 0.554, 192.0, 0.0, 0.0, 0.0, 0.0, 0.0, 0.0, 0.0, 0.0, 0.0, 1.6521697877283072E9, 0.0, 2022-05-10 10:03:07.728
229.0, 29322.448888116945, 17979.60912938227, -43340.0772023293, -30272.062751300666, -30372.980877516376, -20946.803205824282, -13959.513778628563, -37361.07496751249, 0.014, 0.864, 0.554, 192.0, 0.0, 0.0, 0.0, 0.0, 0.0, 0.0, 0.0, 0.0, 0.0, 1.652169787728312E9, 0.0, 2022-05-10 10:03:07.728
230.0, 29325.779298040787, 17974.065896757354, -43351.96833037953, -30285.317335762662, -30378.457054907925, -20953.441673927508, -13961.994822263101, -37370.93208681728, 0.014, 0.864, 0.554, 192.0, 0.0, 0.0, 0.0, 0.0, 0.0, 0.0, 0.0, 0.0, 0.0, 1.6521697877283168E9, 0.0, 2022-05-10 10:03:07.728
231.0, 29315.452792102435, 17968.947347277088, -43358.3832810382, -30295.75560042329, -30378.613517119113, -20968.506749690387, -13959.759647817571, -37371.870860084404, 0.014, 0.864, 0.554, 192.0, 0.0, 0.0, 0.0, 0.0, 0.0, 0.0, 0.0, 0.0, 0.0, 1.652169787728322E9, 0.0, 2022-05-10 10:03:07.728
232.0, 29296.677326759975, 17972.65773685667, -43350.448411756566, -30289.832388142633, -30373.718485083402, -20967.031534556336, -13948.784941290014, -37356.269342454594, 0.014, 0.864, 0.554, 192.0, 0.0, 0.0, 0.0, 0.0, 0.0, 0.0, 0.0, 0.0, 0.0, 1.6521697877283268E9, 0.0, 2022-05-10 10:03:07.728
233.0, 29289.524768534277, 17953.54699534738, -43346.76037392144, -30282.18809153892, -30369.181080958973, -20960.013086797368, -13942.973487731635, -37352.73776683066, 0.014, 0.864, 0.554, 192.0, 0.0, 0.0, 0.0, 0.0, 0.0, 0.0, 0.0, 0.0, 0.0, 1.6521697877283323E9, 0.0, 2022-05-10 10:03:07.728
234.0, 29288.518940033788, 17942.058198697352, -43359.254999071956, -30292.13461782153, -30380.20049097544, -20967.076238045247, -13966.152246731788, -37384.320781746006, 0.014, 0.864, 0.554, 192.0, 0.0, 0.0, 0.0, 0.0, 0.0, 0.0, 0.0, 0.0, 0.0, 1.6521697877283397E9, 0.0, 2022-05-10 10:03:07.728
235.0, 29292.162274380004, 17936.582021305803, -43376.82347021383, -30310.395993041515, -30396.271395238808, -20985.58348245424, -13998.919904103268, -37418.47424727371, 0.014, 0.864, 0.55, 192.0, 0.0, 112.0, 27.0, 0.0, 17.0, 48.0, 0.0, 0.0, 0.0, 1.6521697877283487E9, 0.0, 2022-05-10 10:03:07.728
236.0, 29297.638451771552, 17932.111672414743, -43377.851650458775, -30312.362946553585, -30391.890453325566, -20988.042174344322, -13981.440839939218, -37394.40141849535, 0.014, 0.864, 0.55, 192.0, 0.0, 0.0, 0.0, 0.0, 0.0, 0.0, 0.0, 0.0, 0.0, 1.652169787728354E9, 0.0, 2022-05-10 10:03:07.728
237.0, 29295.045649414737, 17947.064989455343, -43368.84389744329, -30298.393106269017, -30387.353049201138, -20973.111209048177, -13959.245557695098, -37353.31891218649, 0.014, 0.864, 0.55, 192.0, 0.0, 0.0, 0.0, 0.0, 0.0, 0.0, 0.0, 0.0, 0.0, 1.652169787728359E9, 0.0, 2022-05-10 10:03:07.728
238.0, 29296.073829659683, 17957.145626204685, -43356.952769393065, -30286.770199152255, -30383.44149392146, -20962.270612987355, -13976.076421269945, -37359.44329016725, 0.014, 0.864, 0.55, 192.0, 0.0, 0.0, 0.0, 0.0, 0.0, 0.0, 0.0, 0.0, 0.0, 1.652169787728364E9, 0.0, 2022-05-10 10:03:07.728
239.0, 29297.683155260464, 17949.32251564533, -43360.305531061356, -30289.273594531252, -30381.809816576224, -20964.796360110806, -13995.902418601801, -37385.66188641333, 0.014, 0.864, 0.55, 192.0, 0.0, 0.0, 0.0, 0.0, 0.0, 0.0, 0.0, 0.0, 0.0, 1.6521697877283692E9, 0.0, 2022-05-10 10:03:07.728
240.0, 29301.4158965845, 17946.394437121682, -43373.58246726781, -30300.740039436823, -30392.426895192493, -20973.222967770456, -13987.922845831257, -37388.724075403705, 0.014, 0.864, 0.55, 192.0, 0.0, 0.0, 0.0, 0.0, 0.0, 0.0, 0.0, 0.0, 0.0, 1.652169787728374E9, 0.0, 2022-05-10 10:03:07.728
241.0, 29290.575300523677, 17943.06402719784, -43379.68449350411, -30307.378507540052, -30394.930290571487, -20980.57669169625, -13953.188234947711, -37375.33538047497, 0.014, 0.864, 0.55, 192.0, 0.0, 0.0, 0.0, 0.0, 0.0, 0.0, 0.0, 0.0, 0.0, 1.6521697879840336E9, 0.0, 2022-05-10 10:03:07.984
242.0, 29279.98057365186, 17951.021248223933, -43376.39878706918, -30306.082106361642, -30390.25877598033, -20982.789514397326, -13952.070647724946, -37375.17891826379, 0.014, 0.864, 0.55, 192.0, 0.0, 0.0, 0.0, 0.0, 0.0, 0.0, 0.0, 0.0, 0.0, 1.6521697879840589E9, 0.0, 2022-05-10 10:03:07.984
243.0, 29282.439265541943, 17960.878367528723, -43364.26178982995, -30294.52625447825, -30378.38999967456, -20972.284194503332, -13948.740237801105, -37362.080796012975, 0.014, 0.864, 0.55, 192.0, 0.0, 0.0, 0.0, 0.0, 0.0, 0.0, 0.0, 0.0, 0.0, 1.6521697879840636E9, 0.0, 2022-05-10 10:03:07.984
244.0, 29297.571396538187, 17959.69372507259, -43364.44060378559, -30293.788646911224, -30380.044028764252, -20966.539796178316, -13947.823816278436, -37359.44329016725, 0.014, 0.864, 0.55, 192.0, 0.0, 0.0, 0.0, 0.0, 0.0, 0.0, 0.0, 0.0, 0.0, 1.6521697879840689E9, 0.0, 2022-05-10 10:03:07.984
245.0, 29288.675402244975, 17941.812329508346, -43391.195641898594, -30321.370699569074, -30413.25872102484, -20990.746735423414, -13998.741090147627, -37396.63659294088, 0.022, 0.866, 0.546, 192.0, 0.0, 176.0, 27.0, 16.0, 17.0, 16.0, 0.0, 0.0, 0.0, 1.6521697879840739E9, 0.0, 2022-05-10 10:03:07.984
246.0, 29277.611288739598, 17933.117500915232, -43400.717485036555, -30330.736080495844, -30429.843715410676, -21009.186924599046, -14053.435808829763, -37431.0359276576, 0.022, 0.866, 0.546, 192.0, 0.0, 0.0, 0.0, 0.0, 0.0, 0.0, 0.0, 0.0, 0.0, 1.6521697879840791E9, 0.0, 2022-05-10 10:03:07.984
247.0, 29283.825073698175, 17953.055256969365, -43381.87496446073, -30310.016013385775, -30404.943872087464, -20995.999395370414, -14000.082194814944, -37399.408209253335, 0.022, 0.866, 0.546, 192.0, 0.0, 0.0, 0.0, 0.0, 0.0, 0.0, 0.0, 0.0, 0.0, 1.6521697879840844E9, 0.0, 2022-05-10 10:03:07.984
248.0, 29296.677326759975, 17961.146588462187, -43363.68064447411, -30292.13461782153, -30377.428874662983, -20974.96640383797, -13934.390417860797, -37355.48703139866, 0.022, 0.866, 0.546, 192.0, 0.0, 0.0, 0.0, 0.0, 0.0, 0.0, 0.0, 0.0, 0.0, 1.6521697879840891E9, 0.0, 2022-05-10 10:03:07.984
249.0, 29296.878492460073, 17948.495501100482, -43373.87303994573, -30298.080181846643, -30380.558118886725, -20974.899348604602, -13945.342772643897, -37364.15950824732, 0.022, 0.866, 0.546, 192.0, 0.0, 0.0, 0.0, 0.0, 0.0, 0.0, 0.0, 0.0, 0.0, 1.6521697879840944E9, 0.0, 2022-05-10 10:03:07.984
250.0, 29295.38092558157, 17939.130120173708, -43387.59701104129, -30310.686565719436, -30395.73495337188, -20987.505732477395, -13976.903435814791, -37396.63659294088, 0.022, 0.866, 0.546, 192.0, 0.0, 0.0, 0.0, 0.0, 0.0, 0.0, 0.0, 0.0, 0.0, 1.6521697879840991E9, 0.0, 2022-05-10 10:03:07.984
251.0, 29280.896995174528, 17926.389625834185, -43397.05179894588, -30324.76816472628, -30407.514322699826, -21004.984796641445, -13994.136630789833, -37413.22158732672, 0.022, 0.866, 0.546, 192.0, 0.0, 0.0, 0.0, 0.0, 0.0, 0.0, 0.0, 0.0, 0.0, 1.6521697879841044E9, 0.0, 2022-05-10 10:03:07.984
252.0, 29279.5111870183, 17933.78805324889, -43390.502737820476, -30319.984891412845, -30403.87098835361, -21000.58150298375, -13988.325177231452, -37400.41403775383, 0.022, 0.866, 0.546, 192.0, 0.0, 0.0, 0.0, 0.0, 0.0, 0.0, 0.0, 0.0, 0.0, 1.6521697879841104E9, 0.0, 2022-05-10 10:03:07.984
253.0, 29285.099123132128, 17954.77634129242, -43378.96923768154, -30307.33380405114, -30397.321927228204, -20983.169494053065, -13991.700290644205, -37389.26051727063, 0.022, 0.866, 0.546, 192.0, 0.0, 0.0, 0.0, 0.0, 0.0, 0.0, 0.0, 0.0, 0.0, 1.652169787984115E9, 0.0, 2022-05-10 10:03:07.984
254.0, 29288.250719100324, 17951.043599968387, -43387.61936278574, -30314.396955299017, -30407.626081422102, -20982.610700441684, -14004.977226850657, -37399.765837164625, 0.022, 0.866, 0.546, 192.0, 0.0, 0.0, 0.0, 0.0, 0.0, 0.0, 0.0, 0.0, 0.0, 1.65216978798412E9, 0.0, 2022-05-10 10:03:07.984
255.0, 29278.12537886207, 17924.042692666375, -43404.31611589386, -30328.05387116121, -30419.561912961235, -20993.808924413792, -14008.642912941326, -37408.013630868634, 0.02, 0.878, 0.538, 192.0, 0.0, 160.0, 27.0, 112.0, 16.0, 208.0, 0.0, 0.0, 0.0, 1.6521697879841251E9, 0.0, 2022-05-10 10:03:07.984
0.0, 29270.346971791623, 17919.393529819674, -43406.88656650622, -30332.90419970801, -30424.25577929685, -21003.353119296207, -14012.420357754274, -37410.33821229199, 0.02, 0.878, 0.538, 192.0, 0.0, 0.0, 0.0, 0.0, 0.0, 0.0, 0.0, 0.0, 0.0, 1.652169787984146E9, 0.0, 2022-05-10 10:03:07.984
1.0, 29271.79983518122, 17932.335189859295, -43392.35793261027, -30322.734155980845, -30410.330642501194, -21000.670909961573, -13985.575912663451, -37395.362543506926, 0.02, 0.878, 0.538, 192.0, 0.0, 0.0, 0.0, 0.0, 0.0, 0.0, 0.0, 0.0, 0.0, 1.6521697879841506E9, 0.0, 2022-05-10 10:03:07.984
2.0, 29266.569526978677, 17941.052370196863, -43383.05960691686, -30313.61464424308, -30403.69217439797, -20991.90902613509, -13989.24159875412, -37404.102075588955, 0.02, 0.878, 0.538, 192.0, 0.0, 0.0, 0.0, 0.0, 0.0, 0.0, 0.0, 0.0, 0.0, 1.6521697879841552E9, 0.0, 2022-05-10 10:03:07.984
3.0, 29282.88630043105, 17933.966867204534, -43385.87592671823, -30311.267711075274, -30400.96526157442, -20981.11313356318, -13997.53409594704, -37394.71434291772, 0.02, 0.878, 0.538, 192.0, 0.0, 0.0, 0.0, 0.0, 0.0, 0.0, 0.0, 0.0, 0.0, 1.6521697879841633E9, 0.0, 2022-05-10 10:03:07.984
4.0, 29286.79785571073, 17926.344922345274, -43404.04789496039, -30324.96933042638, -30408.96718608942, -20984.3541365092, -14010.565162964484, -37392.61327893892, 0.02, 0.878, 0.538, 192.0, 0.0, 0.0, 0.0, 0.0, 0.0, 0.0, 0.0, 0.0, 0.0, 1.652169787984168E9, 0.0, 2022-05-10 10:03:07.984
5.0, 29272.425684025966, 17921.02520716491, -43416.96720325556, -30342.493098079336, -30423.65228219656, -21008.225799587464, -14037.20844235521, -37415.769686194624, 0.02, 0.878, 0.538, 192.0, 0.0, 0.0, 0.0, 0.0, 0.0, 0.0, 0.0, 0.0, 0.0, 1.6521697879841728E9, 0.0, 2022-05-10 10:03:07.984
6.0, 29275.621983483077, 17945.142739432187, -43396.26948788995, -30323.225894358864, -30412.051726824255, -21002.72727045146, -14024.199727082221, -37413.22158732672, 0.02, 0.878, 0.538, 192.0, 0.0, 0.0, 0.0, 0.0, 0.0, 0.0, 0.0, 0.0, 0.0, 1.652169787984178E9, 0.0, 2022-05-10 10:03:07.984
7.0, 29280.919346918985, 17955.64805932618, -43388.401673841676, -30317.369737311572, -30404.027450564798, -20992.020784857366, -13997.645854669316, -37400.57049996501, 0.02, 0.878, 0.538, 192.0, 0.0, 0.0, 0.0, 0.0, 0.0, 0.0, 0.0, 0.0, 0.0, 1.6521697879841828E9, 0.0, 2022-05-10 10:03:07.984
8.0, 29270.79400668073, 17936.91729747263, -43400.96335422556, -30328.81383047269, -30412.856389624645, -20995.597063970217, -13987.475810942151, -37400.77166566511, 0.02, 0.878, 0.538, 192.0, 0.0, 0.0, 0.0, 0.0, 0.0, 0.0, 0.0, 0.0, 0.0, 1.6521697879841905E9, 0.0, 2022-05-10 10:03:07.984
9.0, 29264.088483344138, 17919.125308886207, -43416.18489219963, -30345.53293532526, -30428.25674155435, -21010.148049610623, -14022.366884036886, -37421.02234614162, 0.012, 0.87, 0.544, 192.0, 0.0, 96.0, 27.0, 48.0, 17.0, 0.0, 0.0, 0.0, 0.0, 1.6521697879841955E9, 0.0, 2022-05-10 10:03:07.984
10.0, 29265.6084019671, 17904.708433712534, -43415.26847067696, -30349.891525494044, -30428.144982832073, -21019.625189259674, -14009.91696237528, -37419.10009611846, 0.012, 0.87, 0.544, 192.0, 0.0, 0.0, 0.0, 0.0, 0.0, 0.0, 0.0, 0.0, 0.0, 1.6521697879841998E9, 0.0, 2022-05-10 10:03:07.984
11.0, 29262.993247865827, 17916.845430951766, -43393.60963029977, -30334.692339264435, -30411.001194834855, -21012.74085196744, -13974.668261369261, -37400.25757554264, 0.012, 0.87, 0.544, 192.0, 0.0, 0.0, 0.0, 0.0, 0.0, 0.0, 0.0, 0.0, 0.0, 1.6521697879842045E9, 0.0, 2022-05-10 10:03:07.984
12.0, 29271.576317736664, 17941.07472194132, -43376.39878706918, -30315.805115199702, -30397.05370629474, -20991.461991245986, -13969.9967467781, -37379.91748808831, 0.012, 0.87, 0.544, 192.0, 0.0, 0.0, 0.0, 0.0, 0.0, 0.0, 0.0, 0.0, 0.0, 1.6521697879842098E9, 0.0, 2022-05-10 10:03:07.984
13.0, 29277.164253850493, 17936.35850386125, -43388.73695000851, -30325.32695833766, -30410.934139601486, -20995.798229670316, -14009.447575741719, -37407.72305819071, 0.012, 0.87, 0.544, 192.0, 0.0, 0.0, 0.0, 0.0, 0.0, 0.0, 0.0, 0.0, 0.0, 1.6521697879842153E9, 0.0, 2022-05-10 10:03:07.984
14.0, 29280.69582947443, 17925.607314778248, -43403.82437751584, -30337.352196854616, -30421.97590136241, -21005.58829374174, -14007.882953629847, -37413.10982860444, 0.012, 0.87, 0.544, 192.0, 0.0, 0.0, 0.0, 0.0, 0.0, 0.0, 0.0, 0.0, 0.0, 1.65216978798422E9, 0.0, 2022-05-10 10:03:07.984
15.0, 29271.062227614195, 17923.148622888162, -43414.15088345419, -30343.655388791012, -30421.573569962213, -21014.841915946236, -14006.787718151536, -37405.577290723006, 0.012, 0.87, 0.544, 192.0, 0.0, 0.0, 0.0, 0.0, 0.0, 0.0, 0.0, 0.0, 0.0, 1.6521697879842265E9, 0.0, 2022-05-10 10:03:07.984
16.0, 29274.437341026944, 17946.059160954854, -43400.24809840299, -30329.03734791724, -30410.352994245648, -21004.69422396353, -14001.132726804344, -37387.49472945866, 0.012, 0.87, 0.544, 192.0, 0.0, 0.0, 0.0, 0.0, 0.0, 0.0, 0.0, 0.0, 0.0, 1.6521697879842312E9, 0.0, 2022-05-10 10:03:07.984
17.0, 29271.621021225576, 17948.763722033946, -43398.16938616865, -30327.20450487191, -30415.40448849255, -21005.185962341544, -14019.528212491061, -37400.97283136521, 0.012, 0.87, 0.544, 192.0, 0.0, 0.0, 0.0, 0.0, 0.0, 0.0, 0.0, 0.0, 0.0, 1.652169787984236E9, 0.0, 2022-05-10 10:03:07.984
18.0, 29274.12441660457, 17928.043654923877, -43404.67374380514, -30335.988740442845, -30425.105145586153, -21010.952712411014, -14042.282288346565, -37419.99416589668, 0.012, 0.87, 0.544, 192.0, 0.0, 0.0, 0.0, 0.0, 0.0, 0.0, 0.0, 0.0, 0.0, 1.6521697879842412E9, 0.0, 2022-05-10 10:03:07.984
19.0, 29268.44707351292, 17905.26722732392, -43419.582357356834, -30355.166537185498, -30439.745538204377, -21027.895334708137, -14039.935355178757, -37435.59568352648, 0.016, 0.872, 0.54, 192.0, 0.0, 128.0, 27.0, 64.0, 16.0, 224.0, 0.0, 0.0, 0.0, 1.6521697879842467E9, 0.0, 2022-05-10 10:03:07.984
20.0, 29255.84068964013, 17902.49561101146, -43422.06340099137, -30358.42989187597, -30440.55020100477, -21036.54545981234, -14028.424206784273, -37423.27987233161, 0.016, 0.872, 0.54, 192.0, 0.0, 0.0, 0.0, 0.0, 0.0, 0.0, 0.0, 0.0, 0.0, 1.6521697879842515E9, 0.0, 2022-05-10 10:03:07.984
21.0, 29276.94073640594, 17925.003817677953, -43389.83218548682, -30324.634054259546, -30409.548331445258, -21009.544552510328, -13995.67890115725, -37386.24303176916, 0.016, 0.872, 0.54, 192.0, 0.0, 0.0, 0.0, 0.0, 0.0, 0.0, 0.0, 0.0, 0.0, 1.6521697879842575E9, 0.0, 2022-05-10 10:03:07.984
22.0, 29277.611288739598, 17928.088358412788, -43378.410444070156, -30315.313376821683, -30392.605709148134, -20999.53097099435, -13960.564310617961, -37375.40243570834, 0.016, 0.872, 0.54, 192.0, 0.0, 0.0, 0.0, 0.0, 0.0, 0.0, 0.0, 0.0, 0.0, 1.6521697879842684E9, 0.0, 2022-05-10 10:03:07.984
23.0, 29282.327506819667, 17937.74431201748, -43377.18109812512, -30312.921740164966, -30391.890453325566, -20992.75839242439, -13958.306784427976, -37381.63857241137, 0.016, 0.872, 0.54, 192.0, 0.0, 0.0, 0.0, 0.0, 0.0, 0.0, 0.0, 0.0, 0.0, 1.6521697879842732E9, 0.0, 2022-05-10 10:03:07.984
24.0, 29271.822186925674, 17930.16707064713, -43404.65139206069, -30339.185039899952, -30420.053651339254, -21013.746680467928, -14005.133689061844, -37423.659851987344, 0.016, 0.872, 0.54, 192.0, 0.0, 0.0, 0.0, 0.0, 0.0, 0.0, 0.0, 0.0, 0.0, 1.6521697879842792E9, 0.0, 2022-05-10 10:03:07.984
25.0, 29271.26339331429, 17935.330323616305, -43406.41717987265, -30344.884734736057, -30426.289788042282, -21019.513430537394, -14022.67980845926, -37424.442163043284, 0.016, 0.872, 0.54, 192.0, 0.0, 0.0, 0.0, 0.0, 0.0, 0.0, 0.0, 0.0, 0.0, 1.6521697879842856E9, 0.0, 2022-05-10 10:03:07.984
26.0, 29265.6084019671, 17932.312838114838, -43393.989609955504, -30335.8099264872, -30414.10808731414, -21005.185962341544, -14003.747880905616, -37385.706589902235, 0.016, 0.872, 0.54, 192.0, 0.0, 0.0, 0.0, 0.0, 0.0, 0.0, 0.0, 0.0, 0.0, 1.6521697879842916E9, 0.0, 2022-05-10 10:03:07.984
27.0, 29267.105968845604, 17918.58886701928, -43382.63492377221, -30323.181190869953, -30406.866122110623, -20995.462953503484, -13980.39030794982, -37377.23527875367, 0.016, 0.872, 0.54, 192.0, 0.0, 0.0, 0.0, 0.0, 0.0, 0.0, 0.0, 0.0, 0.0, 1.652169787984298E9, 0.0, 2022-05-10 10:03:07.984
28.0, 29277.90186141752, 17916.800727462858, -43383.84191797279, -30323.203542614407, -30407.000232577353, -20989.807962156294, -13991.342662732919, -37387.941764347765, 0.014, 0.868, 0.54, 192.0, 0.0, 112.0, 27.0, 32.0, 16.0, 224.0, 0.0, 0.0, 0.0, 1.652169787984304E9, 0.0, 2022-05-10 10:03:07.984
29.0, 29283.02041089778, 17904.82019243481, -43396.82828150133, -30335.04996717572, -30416.946758859965, -20997.653424460106, -14010.051072842012, -37396.904813874346, 0.014, 0.868, 0.54, 192.0, 0.0, 0.0, 0.0, 0.0, 0.0, 0.0, 0.0, 0.0, 0.0, 1.6521697879843085E9, 0.0, 2022-05-10 10:03:07.984
30.0, 29276.22548058337, 17911.63747449368, -43389.027522686425, -30328.0091676723, -30415.65035768156, -20991.461991245986, -13994.985997079135, -37388.63466842588, 0.014, 0.868, 0.54, 192.0, 0.0, 0.0, 0.0, 0.0, 0.0, 0.0, 0.0, 0.0, 0.0, 1.6521697879843152E9, 0.0, 2022-05-10 10:03:07.984
31.0, 29269.721122946874, 17929.474166569016, -43376.2870283469, -30318.733193723347, -30408.475447711404, -20991.1043633347, -13991.655587155294, -37385.438368968775, 0.014, 0.868, 0.54, 192.0, 0.0, 0.0, 0.0, 0.0, 0.0, 0.0, 0.0, 0.0, 0.0, 1.6521697879843204E9, 0.0, 2022-05-10 10:03:07.984
32.0, 29280.293498074236, 17947.735541789003, -43355.902237403665, -30302.349365037608, -30389.945851557954, -20976.19574978301, -13987.744031875614, -37371.11090077292, 0.014, 0.868, 0.54, 192.0, 0.0, 0.0, 0.0, 0.0, 0.0, 0.0, 0.0, 0.0, 0.0, 1.652169787984326E9, 0.0, 2022-05-10 10:03:07.984
33.0, 29301.14767565104, 17960.453684384072, -43342.84881864176, -30288.446579986405, -30381.183967731475, -20955.118054761657, -13990.783869121537, -37359.24212446715, 0.014, 0.868, 0.54, 192.0, 0.0, 0.0, 0.0, 0.0, 0.0, 0.0, 0.0, 0.0, 0.0, 1.652169787984332E9, 0.0, 2022-05-10 10:03:07.984
34.0, 29302.55583555172, 17948.853129011768, -43359.65733047215, -30301.611757470582, -30395.511435927325, -20963.72347637695, -13992.080270299944, -37357.52104014409, 0.014, 0.868, 0.54, 192.0, 0.0, 0.0, 0.0, 0.0, 0.0, 0.0, 0.0, 0.0, 0.0, 1.6521697879843385E9, 0.0, 2022-05-10 10:03:07.984
35.0, 29289.323602834178, 17933.564535804337, -43364.06062412985, -30310.664213974982, -30399.288880740274, -20981.71663066347, -13971.539017145518, -37353.25185695313, 0.014, 0.868, 0.54, 192.0, 0.0, 0.0, 0.0, 0.0, 0.0, 0.0, 0.0, 0.0, 0.0, 1.6521697879843488E9, 0.0, 2022-05-10 10:03:07.984
36.0, 29288.697753989432, 17939.01836145143, -43351.25307455696, -30296.828484157144, -30388.090656768163, -20976.1510462941, -13985.262988241077, -37350.30142668503, 0.014, 0.868, 0.54, 192.0, 0.0, 0.0, 0.0, 0.0, 0.0, 0.0, 0.0, 0.0, 0.0, 1.652169787984355E9, 0.0, 2022-05-10 10:03:07.984
37.0, 29299.3148326057, 17956.22920468202, -43337.506751716945, -30280.57876593814, -30373.9196507835, -20961.53300542033, -13986.469982441662, -37342.18774344775, 0.014, 0.868, 0.54, 192.0, 0.0, 0.0, 0.0, 0.0, 0.0, 0.0, 0.0, 0.0, 0.0, 1.6521697879843657E9, 0.0, 2022-05-10 10:03:07.984
38.0, 29328.819135286707, 17981.8443038278, -43314.81973109481, -30256.08125401512, -30349.355083627117, -20937.884859786613, -13930.56826955894, -37308.123684897866, 0.016, 0.868, 0.542, 192.0, 0.0, 128.0, 27.0, 32.0, 16.0, 240.0, 0.0, 0.0, 0.0, 1.6521697879843705E9, 0.0, 2022-05-10 10:03:07.984
39.0, 29323.164143939513, 17975.22818746903, -43328.65546091264, -30269.335838477116, -30367.951735013932, -20951.452368670987, -13955.33400241542, -37331.77183053158, 0.016, 0.868, 0.542, 192.0, 0.0, 0.0, 0.0, 0.0, 0.0, 0.0, 0.0, 0.0, 0.0, 1.6521697879843755E9, 0.0, 2022-05-10 10:03:07.984
40.0, 29306.75796350932, 17969.46143739956, -43333.461085970535, -30273.448559456894, -30374.657258350526, -20957.129711762635, -13961.883063540825, -37332.084754953954, 0.016, 0.868, 0.542, 192.0, 0.0, 0.0, 0.0, 0.0, 0.0, 0.0, 0.0, 0.0, 0.0, 1.6521697879843805E9, 0.0, 2022-05-10 10:03:07.984
41.0, 29309.887207733063, 17976.36812643625, -43321.3240887313, -30259.054036027675, -30361.425025632983, -20950.84887157069, -13948.561423845462, -37325.49099033964, 0.016, 0.868, 0.542, 192.0, 0.0, 0.0, 0.0, 0.0, 0.0, 0.0, 0.0, 0.0, 0.0, 1.6521697879843862E9, 0.0, 2022-05-10 10:03:07.984
42.0, 29319.81138227122, 17994.204818511585, -43303.107417000225, -30239.540963118194, -30337.46395557689, -20937.66134234206, -13920.308818853953, -37324.753382772615, 0.016, 0.868, 0.542, 192.0, 0.0, 0.0, 0.0, 0.0, 0.0, 0.0, 0.0, 0.0, 0.0, 1.6521697879843907E9, 0.0, 2022-05-10 10:03:07.984
43.0, 29332.5742283552, 17996.57410342385, -43298.83823380926, -30235.472945627327, -30331.585446785146, -20926.351359647677, -13909.401167559763, -37311.07411516597, 0.016, 0.868, 0.542, 192.0, 0.0, 0.0, 0.0, 0.0, 0.0, 0.0, 0.0, 0.0, 0.0, 1.6521697879843986E9, 0.0, 2022-05-10 10:03:07.984
44.0, 29351.170879742014, 17995.411812712173, -43305.5214054014, -30237.775175306226, -30345.778804514266, -20919.57878107772, -13910.496403038074, -37286.75541719859, 0.016, 0.868, 0.542, 192.0, 0.0, 0.0, 0.0, 0.0, 0.0, 0.0, 0.0, 0.0, 0.0, 1.6521697879844036E9, 0.0, 2022-05-10 10:03:07.984
45.0, 29349.494498907865, 17993.46721094456, -43303.30858270032, -30239.07157648463, -30345.53293532526, -20926.060786969756, -13899.834620932892, -37289.9517166557, 0.016, 0.868, 0.542, 192.0, 0.0, 0.0, 0.0, 0.0, 0.0, 0.0, 0.0, 0.0, 0.0, 1.6521697879844081E9, 0.0, 2022-05-10 10:03:07.984
46.0, 29331.81426904372, 17988.862751586767, -43296.58070761928, -30232.857791526058, -30338.179211399463, -20925.054958469267, -13903.187382601189, -37284.16261484178, 0.016, 0.868, 0.542, 192.0, 0.0, 0.0, 0.0, 0.0, 0.0, 0.0, 0.0, 0.0, 0.0, 1.652169787984413E9, 0.0, 2022-05-10 10:03:07.984
47.0, 29335.636417345577, 17996.685862146125, -43292.624448850685, -30228.02981472371, -30331.071356662676, -20921.881010756613, -13916.37491182982, -37286.934231154235, 0.016, 0.868, 0.542, 192.0, 0.0, 0.0, 0.0, 0.0, 0.0, 0.0, 0.0, 0.0, 0.0, 1.652169788453786E9, 0.0, 2022-05-10 10:03:08.453
48.0, 29328.46150737542, 17995.680033645636, -43298.05592275333, -30232.053128725664, -30334.312359608695, -20920.539906089296, -13925.628534034317, -37299.786484216034, 0.014, 0.862, 0.542, 192.0, 0.0, 112.0, 26.0, 240.0, 16.0, 240.0, 0.0, 0.0, 0.0, 1.652169788453868E9, 0.0, 2022-05-10 10:03:08.453
49.0, 29337.424556902, 18001.782059881934, -43301.162815232616, -30234.109489215552, -30335.273484620273, -20915.04137695329, -13905.958998913646, -37292.2539463346, 0.014, 0.862, 0.542, 192.0, 0.0, 0.0, 0.0, 0.0, 0.0, 0.0, 0.0, 0.0, 0.0, 1.6521697884538748E9, 0.0, 2022-05-10 10:03:08.453
50.0, 29338.18451621348, 18001.558542437382, -43310.3717339482, -30243.720739331337, -30345.778804514266, -20927.088967214702, -13924.46624332264, -37305.664993007784, 0.014, 0.862, 0.542, 192.0, 0.0, 0.0, 0.0, 0.0, 0.0, 0.0, 0.0, 0.0, 0.0, 1.6521697884538805E9, 0.0, 2022-05-10 10:03:08.453
51.0, 29345.80646107274, 18002.98905408252, -43295.68663784106, -30229.281512413207, -30331.071356662676, -20924.294999157788, -13915.905525196258, -37294.75734171359, 0.014, 0.862, 0.542, 192.0, 0.0, 0.0, 0.0, 0.0, 0.0, 0.0, 0.0, 0.0, 0.0, 1.6521697884538877E9, 0.0, 2022-05-10 10:03:08.453
52.0, 29351.260286719837, 18017.160060067185, -43280.64391382264, -30211.355413360052, -30310.775972697258, -20910.906304229058, -13900.438118033186, -37292.81273994598, 0.014, 0.862, 0.542, 192.0, 0.0, 0.0, 0.0, 0.0, 0.0, 0.0, 0.0, 0.0, 0.0, 1.6521697884539144E9, 0.0, 2022-05-10 10:03:08.453
53.0, 29367.219432260925, 18039.444749289127, -43278.54284984384, -30208.136762158487, -30305.769181939268, -20903.99961519237, -13913.022150161523, -37302.53574878404, 0.014, 0.862, 0.542, 192.0, 0.0, 0.0, 0.0, 0.0, 0.0, 0.0, 0.0, 0.0, 0.0, 1.6521697884539278E9, 0.0, 2022-05-10 10:03:08.453
54.0, 29371.935650340994, 18023.396196770216, -43295.19489946305, -30221.883084998502, -30323.650577503515, -20909.162868161544, -13915.32437984042, -37290.39875154481, 0.014, 0.862, 0.542, 192.0, 0.0, 0.0, 0.0, 0.0, 0.0, 0.0, 0.0, 0.0, 0.0, 1.652169788453936E9, 0.0, 2022-05-10 10:03:08.453
55.0, 29367.264135749836, 18015.595437955315, -43294.23377445147, -30221.883084998502, -30337.66512127699, -20914.728452530915, -13915.32437984042, -37281.390998529314, 0.014, 0.862, 0.542, 192.0, 0.0, 0.0, 0.0, 0.0, 0.0, 0.0, 0.0, 0.0, 0.0, 1.6521697884539435E9, 0.0, 2022-05-10 10:03:08.453
56.0, 29351.819080331217, 18016.735376922534, -43285.60600109172, -30217.971529718823, -30329.19381012843, -20919.04233921079, -13915.279676351509, -37285.257850320086, 0.014, 0.862, 0.542, 192.0, 0.0, 0.0, 0.0, 0.0, 0.0, 0.0, 0.0, 0.0, 0.0, 1.6521697884539504E9, 0.0, 2022-05-10 10:03:08.453
57.0, 29359.5304321683, 18027.41951077217, -43279.45927136651, -30207.80148599166, -30316.81094370019, -20908.1346879166, -13917.067815907934, -37287.29185906552, 0.014, 0.862, 0.542, 192.0, 0.0, 0.0, 0.0, 0.0, 0.0, 0.0, 0.0, 0.0, 0.0, 1.6521697884539583E9, 0.0, 2022-05-10 10:03:08.453
58.0, 29368.71699913943, 18023.060920603388, -43287.885879026166, -30213.16590466093, -30320.275464090762, -20902.814972736236, -13923.885097966802, -37295.53965276953, 0.014, 0.87, 0.542, 192.0, 0.0, 112.0, 27.0, 48.0, 16.0, 240.0, 0.0, 0.0, 0.0, 1.6521697884539664E9, 0.0, 2022-05-10 10:03:08.453
59.0, 29366.95121132746, 18018.165888567673, -43292.222117450496, -30213.54588431667, -30312.47470527586, -20900.08805991269, -13891.229199317599, -37288.118873610365, 0.014, 0.87, 0.542, 192.0, 0.0, 0.0, 0.0, 0.0, 0.0, 0.0, 0.0, 0.0, 0.0, 1.652169788453974E9, 0.0, 2022-05-10 10:03:08.453
60.0, 29355.305952466246, 18017.09300483382, -43294.166719218105, -30212.87533198301, -30312.98879539833, -20902.882027969605, -13884.098992836356, -37292.00807714559, 0.014, 0.87, 0.542, 192.0, 0.0, 0.0, 0.0, 0.0, 0.0, 0.0, 0.0, 0.0, 0.0, 1.6521697884539807E9, 0.0, 2022-05-10 10:03:08.453
61.0, 29349.18157448549, 18018.009426356486, -43292.065655239305, -30210.9307302154, -30318.15204836751, -20904.916036715036, -13899.566399999429, -37290.10817886689, 0.014, 0.87, 0.542, 192.0, 0.0, 0.0, 0.0, 0.0, 0.0, 0.0, 0.0, 0.0, 0.0, 1.652169788453992E9, 0.0, 2022-05-10 10:03:08.453
62.0, 29340.084414492183, 18012.55560070939, -43301.67690535509, -30220.40786986445, -30325.259903104296, -20916.069557198236, -13919.861783964847, -37299.80883596049, 0.014, 0.87, 0.542, 192.0, 0.0, 0.0, 0.0, 0.0, 0.0, 0.0, 0.0, 0.0, 0.0, 1.6521697884539983E9, 0.0, 2022-05-10 10:03:08.453
63.0, 29342.498402893354, 18010.633350686236, -43314.59621365026, -30232.611922337048, -30332.233647374353, -20926.127842203125, -13914.89969669577, -37308.57071978697, 0.014, 0.87, 0.542, 192.0, 0.0, 0.0, 0.0, 0.0, 0.0, 0.0, 0.0, 0.0, 0.0, 1.652169788454007E9, 0.0, 2022-05-10 10:03:08.454
64.0, 29349.04746401876, 18010.834516386334, -43325.74973413345, -30246.22413471033, -30345.220010902885, -20932.498089372886, -13932.736388771105, -37313.93513845625, 0.014, 0.87, 0.542, 192.0, 0.0, 0.0, 0.0, 0.0, 0.0, 0.0, 0.0, 0.0, 0.0, 1.6521697884540424E9, 0.0, 2022-05-10 10:03:08.454
65.0, 29345.605295372643, 17988.70628937558, -43334.153990048646, -30256.908268559968, -30353.825432518177, -20944.09864474519, -13952.629441336328, -37328.41906886328, 0.014, 0.87, 0.542, 192.0, 0.0, 0.0, 0.0, 0.0, 0.0, 0.0, 0.0, 0.0, 0.0, 1.6521697884540503E9, 0.0, 2022-05-10 10:03:08.454
66.0, 29325.287559662767, 17986.0464317854, -43321.39114396467, -30240.32327417413, -30352.193755172942, -20942.109339488667, -13943.398170876286, -37328.64258630783, 0.014, 0.87, 0.542, 192.0, 0.0, 0.0, 0.0, 0.0, 0.0, 0.0, 0.0, 0.0, 0.0, 1.6521697884540577E9, 0.0, 2022-05-10 10:03:08.454
67.0, 29332.82009754421, 18010.409833241683, -43297.05009425284, -30213.389422105483, -30333.462993319394, -20916.248371153877, -13929.85301373637, -37310.694135510224, 0.014, 0.87, 0.542, 192.0, 0.0, 0.0, 0.0, 0.0, 0.0, 0.0, 0.0, 0.0, 0.0, 1.652169788454065E9, 0.0, 2022-05-10 10:03:08.454
68.0, 29341.202001714948, 17998.831629613833, -43302.45921641102, -30214.082326183598, -30331.987778185343, -20907.575894305217, -13907.94830417017, -37295.89728068081, 0.014, 0.866, 0.544, 192.0, 0.0, 112.0, 27.0, 16.0, 17.0, 0.0, 0.0, 0.0, 0.0, 1.6521697884540787E9, 0.0, 2022-05-10 10:03:08.454
69.0, 29352.33317045369, 17994.31657723386, -43313.456274683034, -30228.56625659064, -30341.95665621241, -20918.75176653287, -13915.257324607055, -37312.14699889982, 0.014, 0.866, 0.544, 192.0, 0.0, 0.0, 0.0, 0.0, 0.0, 0.0, 0.0, 0.0, 0.0, 1.652169788454086E9, 0.0, 2022-05-10 10:03:08.454
70.0, 29337.357501668634, 17986.158190507675, -43325.43680971108, -30244.03366375371, -30353.937191240453, -20940.276496443334, -13947.354429644874, -37344.5123248711, 0.014, 0.866, 0.544, 192.0, 0.0, 0.0, 0.0, 0.0, 0.0, 0.0, 0.0, 0.0, 0.0, 1.6521697884540932E9, 0.0, 2022-05-10 10:03:08.454
71.0, 29331.76956555481, 18001.737356393023, -43311.13169325968, -30228.521553101727, -30339.90029572252, -20929.1900311935, -13931.529394570518, -37322.317042626986, 0.014, 0.866, 0.544, 192.0, 0.0, 0.0, 0.0, 0.0, 0.0, 0.0, 0.0, 0.0, 0.0, 1.6521697884541E9, 0.0, 2022-05-10 10:03:08.454
72.0, 29339.77149006981, 18021.94333338062, -43291.573916861285, -30207.063878424633, -30321.86243794709, -20902.122068658122, -13895.006644130546, -37282.106254351886, 0.014, 0.866, 0.544, 192.0, 0.0, 0.0, 0.0, 0.0, 0.0, 0.0, 0.0, 0.0, 0.0, 1.6521697884541087E9, 0.0, 2022-05-10 10:03:08.454
73.0, 29350.65678961954, 18034.505013764505, -43291.88684128366, -30206.30391911315, -30320.09665013512, -20896.534132544297, -13897.375929042808, -37289.68349572224, 0.014, 0.866, 0.544, 192.0, 0.0, 0.0, 0.0, 0.0, 0.0, 0.0, 0.0, 0.0, 0.0, 1.652169788454116E9, 0.0, 2022-05-10 10:03:08.454
74.0, 29354.791862343773, 18023.84323165932, -43301.11811174371, -30213.97056746132, -30324.32112983717, -20904.80427799276, -13904.707301224149, -37298.44537954871, 0.014, 0.866, 0.544, 192.0, 0.0, 0.0, 0.0, 0.0, 0.0, 0.0, 0.0, 0.0, 0.0, 1.6521697884541223E9, 0.0, 2022-05-10 10:03:08.454
75.0, 29347.348731440157, 18015.126051321753, -43313.97036480551, -30225.74993678927, -30337.48630732135, -20914.683749042004, -13920.130004898312, -37310.87294946587, 0.014, 0.866, 0.544, 192.0, 0.0, 0.0, 0.0, 0.0, 0.0, 0.0, 0.0, 0.0, 0.0, 1.6521697884541285E9, 0.0, 2022-05-10 10:03:08.454
76.0, 29344.24183896087, 18019.059958345886, -43302.906251300126, -30221.234884409296, -30333.75356599731, -20914.28141764181, -13917.984237430603, -37308.57071978697, 0.014, 0.866, 0.544, 192.0, 0.0, 0.0, 0.0, 0.0, 0.0, 0.0, 0.0, 0.0, 0.0, 1.652169788454136E9, 0.0, 2022-05-10 10:03:08.454
77.0, 29366.258307249347, 18043.490415035536, -43277.64878006563, -30195.88800619698, -30302.52817899325, -20893.606054020653, -13885.574207970407, -37274.23844030362, 0.014, 0.866, 0.544, 192.0, 0.0, 0.0, 0.0, 0.0, 0.0, 0.0, 0.0, 0.0, 0.0, 1.6521697884541438E9, 0.0, 2022-05-10 10:03:08.454
78.0, 29378.663525422042, 18043.535118524447, -43281.00154173393, -30190.434180549884, -30302.19290282642, -20890.074478396713, -13890.022205117013, -37274.52901298154, 0.016, 0.866, 0.542, 192.0, 0.0, 128.0, 27.0, 16.0, 16.0, 240.0, 0.0, 0.0, 0.0, 1.6521697884541512E9, 0.0, 2022-05-10 10:03:08.454
79.0, 29370.14751078457, 18015.61778969977, -43303.6215071227, -30212.98709070529, -30326.57865602716, -20914.348472875176, -13929.227164891621, -37309.12951339835, 0.016, 0.866, 0.542, 192.0, 0.0, 0.0, 0.0, 0.0, 0.0, 0.0, 0.0, 0.0, 0.0, 1.6521697884541576E9, 0.0, 2022-05-10 10:03:08.454
80.0, 29364.313705481734, 18018.814089156876, -43306.43782692407, -30218.530323330204, -30334.20060088642, -20925.680807314016, -13955.80338904898, -37330.78835377555, 0.016, 0.866, 0.542, 192.0, 0.0, 0.0, 0.0, 0.0, 0.0, 0.0, 0.0, 0.0, 0.0, 1.652169788454168E9, 0.0, 2022-05-10 10:03:08.454
81.0, 29342.65486510454, 18021.675112447156, -43308.650649625146, -30220.385518119994, -30330.356100840105, -20928.206554437467, -13918.453624064163, -37310.358859343396, 0.016, 0.866, 0.542, 192.0, 0.0, 0.0, 0.0, 0.0, 0.0, 0.0, 0.0, 0.0, 0.0, 1.652169788454176E9, 0.0, 2022-05-10 10:03:08.454
82.0, 29340.486745892376, 18026.391330527225, -43301.90042279964, -30215.55754131765, -30320.946016424423, -20921.322217145233, -13877.79580089996, -37295.316135324974, 0.016, 0.866, 0.542, 192.0, 0.0, 0.0, 0.0, 0.0, 0.0, 0.0, 0.0, 0.0, 0.0, 1.6521697884541848E9, 0.0, 2022-05-10 10:03:08.454
83.0, 29341.157298226037, 18022.680940947645, -43307.443655424555, -30218.440916352385, -30326.221028115873, -20917.075385698725, -13897.979426143102, -37310.269452365574, 0.016, 0.866, 0.542, 192.0, 0.0, 0.0, 0.0, 0.0, 0.0, 0.0, 0.0, 0.0, 0.0, 1.6521697884541938E9, 0.0, 2022-05-10 10:03:08.454
84.0, 29345.96292328393, 18017.160060067185, -43321.9722893205, -30229.080346713108, -30341.844897490133, -20921.746900289883, -13948.293202911998, -37335.61633057789, 0.016, 0.866, 0.542, 192.0, 0.0, 0.0, 0.0, 0.0, 0.0, 0.0, 0.0, 0.0, 0.0, 1.6521697884542012E9, 0.0, 2022-05-10 10:03:08.454
85.0, 29348.19809772946, 18016.04247284442, -43321.793475364866, -30230.9355415029, -30342.33663586815, -20923.177411935023, -13959.022040250546, -37341.91952251429, 0.016, 0.866, 0.542, 192.0, 0.0, 0.0, 0.0, 0.0, 0.0, 0.0, 0.0, 0.0, 0.0, 1.6521697884542067E9, 0.0, 2022-05-10 10:03:08.454
86.0, 29335.010568500828, 18003.793716882912, -43323.51455968792, -30237.998692750778, -30341.911952723498, -20926.530173603318, -13929.249516636077, -37321.64649029332, 0.016, 0.866, 0.542, 192.0, 0.0, 0.0, 0.0, 0.0, 0.0, 0.0, 0.0, 0.0, 0.0, 1.6521697884542217E9, 0.0, 2022-05-10 10:03:08.454
87.0, 29331.14371671006, 18014.43314724364, -43316.540815417866, -30234.06478572664, -30330.266693862286, -20917.969455476938, -13896.168934842222, -37307.8554639644, 0.016, 0.866, 0.542, 192.0, 0.0, 0.0, 0.0, 0.0, 0.0, 0.0, 0.0, 0.0, 0.0, 1.6521697884542277E9, 0.0, 2022-05-10 10:03:08.454
88.0, 29345.38177792809, 18022.323313036362, -43309.76823684791, -30227.35926239005, -30325.461068804394, -20906.570065804728, -13891.318606295421, -37301.97695517266, 0.016, 0.864, 0.542, 192.0, 0.0, 128.0, 27.0, 0.0, 16.0, 240.0, 0.0, 0.0, 0.0, 1.6521697884542332E9, 0.0, 2022-05-10 10:03:08.454
89.0, 29361.989124058382, 18018.881144390245, -43312.24928048245, -30229.41562287994, -30331.76426074079, -20907.46413558294, -13907.344807069876, -37317.064382679986, 0.016, 0.864, 0.542, 192.0, 0.0, 0.0, 0.0, 0.0, 0.0, 0.0, 0.0, 0.0, 0.0, 1.6521697884542396E9, 0.0, 2022-05-10 10:03:08.454
90.0, 29358.345789712166, 18013.539077465426, -43320.96646082002, -30243.899553286978, -30341.733138767857, -20928.65358932657, -13929.920068969735, -37344.467621382195, 0.016, 0.864, 0.542, 192.0, 0.0, 0.0, 0.0, 0.0, 0.0, 0.0, 0.0, 0.0, 0.0, 1.6521697884542449E9, 0.0, 2022-05-10 10:03:08.454
91.0, 29332.283655677278, 18005.626559928245, -43312.85277758274, -30239.83153579611, -30340.637903289546, -20928.921810260035, -13921.538164798996, -37313.488103567135, 0.016, 0.864, 0.542, 192.0, 0.0, 0.0, 0.0, 0.0, 0.0, 0.0, 0.0, 0.0, 0.0, 1.65216978845425E9, 0.0, 2022-05-10 10:03:08.454
92.0, 29340.084414492183, 18016.33304552234, -43294.457291896026, -30219.223227408318, -30330.28904560674, -20905.027795437312, -13897.688853465183, -37280.295763051006, 0.016, 0.864, 0.542, 192.0, 0.0, 0.0, 0.0, 0.0, 0.0, 0.0, 0.0, 0.0, 0.0, 1.652169788454255E9, 0.0, 2022-05-10 10:03:08.454
93.0, 29347.75106284035, 18016.75772866699, -43302.548623388844, -30223.067727454632, -30338.9615224554, -20904.670167526026, -13917.336036841398, -37301.23934760563, 0.016, 0.864, 0.542, 192.0, 0.0, 0.0, 0.0, 0.0, 0.0, 0.0, 0.0, 0.0, 0.0, 1.652169788454261E9, 0.0, 2022-05-10 10:03:08.454
94.0, 29354.836565832684, 18010.7004059196, -43315.31146947283, -30229.885009513502, -30345.085900436152, -20908.916998972538, -13948.80729303447, -37324.7086792837, 0.016, 0.864, 0.542, 192.0, 0.0, 0.0, 0.0, 0.0, 0.0, 0.0, 0.0, 0.0, 0.0, 1.65216978845427E9, 0.0, 2022-05-10 10:03:08.454
95.0, 29359.888060079586, 18012.55560070939, -43311.66813512661, -30228.812125779645, -30342.62720854607, -20908.76053676135, -13945.23101392162, -37324.03812695004, 0.016, 0.864, 0.542, 192.0, 0.0, 0.0, 0.0, 0.0, 0.0, 0.0, 0.0, 0.0, 0.0, 1.6521697884542758E9, 0.0, 2022-05-10 10:03:08.454
96.0, 29337.51396387982, 18003.27962676044, -43319.111266030224, -30235.69646307188, -30351.143223183542, -20916.56129557625, -13946.058028466467, -37320.260682137094, 0.016, 0.864, 0.542, 192.0, 0.0, 0.0, 0.0, 0.0, 0.0, 0.0, 0.0, 0.0, 0.0, 1.6521697884542809E9, 0.0, 2022-05-10 10:03:08.454
97.0, 29322.739460794863, 17994.920074334153, -43331.74000164748, -30240.435032896406, -30360.620362832593, -20925.09966195818, -13943.912260998757, -37318.71841176968, 0.016, 0.864, 0.542, 192.0, 0.0, 0.0, 0.0, 0.0, 0.0, 0.0, 0.0, 0.0, 0.0, 1.6521697884542856E9, 0.0, 2022-05-10 10:03:08.454
98.0, 29335.502306878843, 18002.452612215595, -43325.705030644545, -30233.46128862635, -30351.411444117006, -20918.014158965845, -13921.314647354442, -37314.20335938971, 0.014, 0.862, 0.542, 192.0, 0.0, 112.0, 26.0, 240.0, 16.0, 240.0, 0.0, 0.0, 0.0, 1.6521697884542904E9, 0.0, 2022-05-10 10:03:08.454
99.0, 29341.492574392865, 18009.202839041096, -43319.44654219706, -30230.712024058346, -30335.87698172057, -20913.119126930134, -13904.483783779597, -37308.14603664232, 0.014, 0.862, 0.542, 192.0, 0.0, 0.0, 0.0, 0.0, 0.0, 0.0, 0.0, 0.0, 0.0, 1.6521697884542956E9, 0.0, 2022-05-10 10:03:08.454
100.0, 29332.931856266485, 18006.252408772994, -43326.889673100675, -30241.373806163527, -30339.72148176688, -20920.00346422237, -13908.84237394838, -37309.509493054094, 0.014, 0.862, 0.542, 192.0, 0.0, 0.0, 0.0, 0.0, 0.0, 0.0, 0.0, 0.0, 0.0, 1.6521697884543009E9, 0.0, 2022-05-10 10:03:08.454
101.0, 29323.342957895158, 17990.673242887646, -43331.561187691834, -30248.101681244574, -30350.495022594336, -20932.52044111734, -13929.584792802907, -37324.64162405034, 0.014, 0.862, 0.542, 192.0, 0.0, 0.0, 0.0, 0.0, 0.0, 0.0, 0.0, 0.0, 0.0, 1.6521697884543054E9, 0.0, 2022-05-10 10:03:08.454
102.0, 29340.509097636834, 18001.737356393023, -43319.960632319526, -30237.59636135058, -30341.24140038984, -20925.61375208065, -13922.879269466313, -37316.95262395771, 0.014, 0.862, 0.542, 192.0, 0.0, 0.0, 0.0, 0.0, 0.0, 0.0, 0.0, 0.0, 0.0, 1.6521697884543102E9, 0.0, 2022-05-10 10:03:08.454
103.0, 29338.296274935758, 18009.69457741911, -43315.423228195104, -30232.142535703486, -30341.464917834393, -20914.61669380864, -13917.313685096942, -37299.4065045603, 0.014, 0.862, 0.542, 192.0, 0.0, 0.0, 0.0, 0.0, 0.0, 0.0, 0.0, 0.0, 0.0, 1.6521697884543147E9, 0.0, 2022-05-10 10:03:08.454
104.0, 29339.436213902976, 18014.81312689938, -43322.91106258763, -30235.07061422713, -30352.126699939574, -20916.09190894269, -13933.585755060407, -37315.38800184584, 0.014, 0.862, 0.542, 192.0, 0.0, 0.0, 0.0, 0.0, 0.0, 0.0, 0.0, 0.0, 0.0, 1.65216978845432E9, 0.0, 2022-05-10 10:03:08.454
105.0, 29336.128155723592, 18012.019158842464, -43331.13650454718, -30240.546791618683, -30357.535822097758, -20927.290132914797, -13951.310688413465, -37335.39281313334, 0.014, 0.862, 0.542, 192.0, 0.0, 0.0, 0.0, 0.0, 0.0, 0.0, 0.0, 0.0, 0.0, 1.6521697884543288E9, 0.0, 2022-05-10 10:03:08.454
106.0, 29328.305045164234, 18007.593513440315, -43320.452370697545, -30233.058957226152, -30346.941095225942, -20925.61375208065, -13944.202833676676, -37322.24998739362, 0.014, 0.862, 0.542, 192.0, 0.0, 0.0, 0.0, 0.0, 0.0, 0.0, 0.0, 0.0, 0.0, 1.652169788454334E9, 0.0, 2022-05-10 10:03:08.454
107.0, 29335.502306878843, 18018.814089156876, -43303.465044911514, -30215.73635527329, -30329.685548506448, -20906.86063848265, -13904.215562846133, -37290.73402771164, 0.014, 0.862, 0.542, 192.0, 0.0, 0.0, 0.0, 0.0, 0.0, 0.0, 0.0, 0.0, 0.0, 1.652169788454342E9, 0.0, 2022-05-10 10:03:08.454
108.0, 29351.61791463112, 18036.583725998848, -43293.58557386226, -30205.8792359685, -30321.61656875808, -20894.343661587678, -13898.158240098744, -37294.399713802304, 0.02, 0.864, 0.548, 192.0, 0.0, 160.0, 27.0, 0.0, 17.0, 32.0, 0.0, 0.0, 0.0, 1.6521697884543464E9, 0.0, 2022-05-10 10:03:08.454
109.0, 29349.919182052516, 18023.41854851467, -43311.13169325968, -30224.609997822048, -30341.084938178654, -20907.0841559272, -13938.860766751859, -37321.57943505996, 0.02, 0.864, 0.548, 192.0, 0.0, 0.0, 0.0, 0.0, 0.0, 0.0, 0.0, 0.0, 0.0, 1.652169788454352E9, 0.0, 2022-05-10 10:03:08.454
110.0, 29343.593638371665, 18012.13091756474, -43323.67102189911, -30238.55748636216, -30357.62522907558, -20921.545734589785, -13958.37383966134, -37328.888455496846, 0.02, 0.864, 0.548, 192.0, 0.0, 0.0, 0.0, 0.0, 0.0, 0.0, 0.0, 0.0, 0.0, 1.652169788454357E9, 0.0, 2022-05-10 10:03:08.454
111.0, 29352.3778739426, 18022.882106647743, -43306.43782692407, -30226.152268189464, -30335.273484620273, -20912.493278085385, -13903.053272134457, -37293.52799576855, 0.02, 0.864, 0.548, 192.0, 0.0, 0.0, 0.0, 0.0, 0.0, 0.0, 0.0, 0.0, 0.0, 1.652169788454362E9, 0.0, 2022-05-10 10:03:08.454
112.0, 29334.116498722615, 18006.744147151014, -43307.4213036801, -30233.394233392984, -30336.703996265413, -20919.735243288906, -13911.591638516384, -37308.10133315341, 0.02, 0.864, 0.548, 192.0, 0.0, 0.0, 0.0, 0.0, 0.0, 0.0, 0.0, 0.0, 0.0, 1.6521697884543667E9, 0.0, 2022-05-10 10:03:08.454
113.0, 29334.295312678256, 18003.726661649547, -43303.28623095587, -30229.661492068946, -30328.031519416752, -20914.884914742102, -13916.66548450774, -37314.51628381208, 0.02, 0.864, 0.548, 192.0, 0.0, 0.0, 0.0, 0.0, 0.0, 0.0, 0.0, 0.0, 0.0, 1.6521697884543717E9, 0.0, 2022-05-10 10:03:08.454
114.0, 29351.550859397754, 18009.582818696836, -43299.21821346501, -30226.30873040065, -30319.470801290372, -20902.70321401396, -13901.08631862239, -37302.91572843978, 0.02, 0.864, 0.548, 192.0, 0.0, 0.0, 0.0, 0.0, 0.0, 0.0, 0.0, 0.0, 0.0, 1.6521697884543772E9, 0.0, 2022-05-10 10:03:08.454
115.0, 29347.639304118075, 18003.27962676044, -43306.124902501695, -30239.40685265146, -30331.451336318416, -20917.14244093209, -13923.75098750007, -37320.59595830393, 0.02, 0.864, 0.548, 192.0, 0.0, 0.0, 0.0, 0.0, 0.0, 0.0, 0.0, 0.0, 0.0, 1.652169788454382E9, 0.0, 2022-05-10 10:03:08.454
116.0, 29334.38471965608, 18009.538115207924, -43304.62733562319, -30233.84126828209, -30332.613627030092, -20917.164792676544, -13927.416673590742, -37314.471580323174, 0.02, 0.864, 0.548, 192.0, 0.0, 0.0, 0.0, 0.0, 0.0, 0.0, 0.0, 0.0, 0.0, 1.6521697884543877E9, 0.0, 2022-05-10 10:03:08.454
117.0, 29325.4216701295, 18025.13963283773, -43297.49712914194, -30221.391346620483, -30318.219103600873, -20908.3358536167, -13895.498382508564, -37293.25977483509, 0.014, 0.864, 0.552, 192.0, 0.0, 112.0, 27.0, 0.0, 17.0, 64.0, 0.0, 0.0, 0.0, 1.6521697884543931E9, 0.0, 2022-05-10 10:03:08.454
118.0, 29341.894905793062, 18026.36897878277, -43303.17447223359, -30218.59737856357, -30313.793458198725, -20900.71390875744, -13893.75494644105, -37292.23159459014, 0.014, 0.864, 0.552, 192.0, 0.0, 0.0, 0.0, 0.0, 0.0, 0.0, 0.0, 0.0, 0.0, 1.652169788454398E9, 0.0, 2022-05-10 10:03:08.454
119.0, 29356.132967011094, 18016.75772866699, -43312.472797927, -30219.826724508614, -30325.61753101558, -20899.4845628124, -13902.650940734262, -37296.94781267021, 0.014, 0.864, 0.552, 192.0, 0.0, 0.0, 0.0, 0.0, 0.0, 0.0, 0.0, 0.0, 0.0, 1.6521697884544036E9, 0.0, 2022-05-10 10:03:08.454
120.0, 29360.424501946512, 18032.8062811859, -43309.61177463672, -30215.892817484477, -30327.517429294283, -20899.37280409012, -13898.47116452112, -37296.9031091813, 0.014, 0.864, 0.552, 192.0, 0.0, 0.0, 0.0, 0.0, 0.0, 0.0, 0.0, 0.0, 0.0, 1.6521697884544084E9, 0.0, 2022-05-10 10:03:08.454
121.0, 29353.428405932, 18030.41464452918, -43303.0180100224, -30212.003613949255, -30322.66710074748, -20900.51274305734, -13893.062042362935, -37294.64558299132, 0.014, 0.864, 0.552, 192.0, 0.0, 0.0, 0.0, 0.0, 0.0, 0.0, 0.0, 0.0, 0.0, 1.6521697884544144E9, 0.0, 2022-05-10 10:03:08.454
122.0, 29341.336112181678, 18027.888897405734, -43300.55931813232, -30208.114410414033, -30322.018900158277, -20894.2319028654, -13901.08631862239, -37286.73306545414, 0.014, 0.864, 0.552, 192.0, 0.0, 0.0, 0.0, 0.0, 0.0, 0.0, 0.0, 0.0, 0.0, 1.6521697884544199E9, 0.0, 2022-05-10 10:03:08.454
123.0, 29357.38466470059, 18041.411702801193, -43292.11035872822, -30198.234939364786, -30315.313376821683, -20879.94913815846, -13891.117440595322, -37276.18304207123, 0.014, 0.864, 0.552, 192.0, 0.0, 0.0, 0.0, 0.0, 0.0, 0.0, 0.0, 0.0, 0.0, 1.6521697884544256E9, 0.0, 2022-05-10 10:03:08.454
124.0, 29358.256382734347, 18026.860717160787, -43312.405742693634, -30217.345680874074, -30332.99360668583, -20896.735298244395, -13915.95022868517, -37310.492969810126, 0.014, 0.864, 0.552, 192.0, 0.0, 0.0, 0.0, 0.0, 0.0, 0.0, 0.0, 0.0, 0.0, 1.6521697884544306E9, 0.0, 2022-05-10 10:03:08.454
125.0, 29355.95415305545, 18020.289304290927, -43322.128751531694, -30232.567218848137, -30338.983874199854, -20916.494240342887, -13941.252403408576, -37344.82524929348, 0.014, 0.864, 0.552, 192.0, 0.0, 0.0, 0.0, 0.0, 0.0, 0.0, 0.0, 0.0, 0.0, 1.6521697884544375E9, 0.0, 2022-05-10 10:03:08.454
126.0, 29348.488670407376, 18024.536135737435, -43310.86347232622, -30229.080346713108, -30337.53101081026, -20920.80812702276, -13941.721790042138, -37340.57841784697, 0.014, 0.864, 0.552, 192.0, 0.0, 0.0, 0.0, 0.0, 0.0, 0.0, 0.0, 0.0, 0.0, 1.6521697884544427E9, 0.0, 2022-05-10 10:03:08.454
127.0, 29358.569307156722, 18035.9578771541, -43294.23377445147, -30212.49535232727, -30311.401821542004, -20902.65851052505, -13910.786975715993, -37294.131492868844, 0.018000000000000002, 0.86, 0.552, 192.0, 0.0, 144.0, 26.0, 224.0, 17.0, 64.0, 0.0, 0.0, 0.0, 1.652169788454448E9, 0.0, 2022-05-10 10:03:08.454
128.0, 29361.877365336106, 18039.131824866752, -43291.95389651703, -30210.416640092928, -30294.481550989338, -20894.27660635431, -13891.810344673437, -37289.81760618897, 0.018000000000000002, 0.86, 0.552, 192.0, 0.0, 0.0, 0.0, 0.0, 0.0, 0.0, 0.0, 0.0, 0.0, 1.65216978845447E9, 0.0, 2022-05-10 10:03:08.454
129.0, 29346.029978517294, 18026.659551460692, -43309.79058859236, -30229.97441649132, -30316.363908811083, -20909.431089095007, -13913.715054239638, -37314.471580323174, 0.018000000000000002, 0.86, 0.552, 192.0, 0.0, 0.0, 0.0, 0.0, 0.0, 0.0, 0.0, 0.0, 0.0, 1.6521697884544747E9, 0.0, 2022-05-10 10:03:08.454
130.0, 29339.860897047627, 18006.163001795176, -43313.05394328284, -30235.852925283067, -30326.265731604784, -20912.56033331875, -13901.667463978227, -37296.99251615912, 0.018000000000000002, 0.86, 0.552, 192.0, 0.0, 0.0, 0.0, 0.0, 0.0, 0.0, 0.0, 0.0, 0.0, 1.6521697884544802E9, 0.0, 2022-05-10 10:03:08.454
131.0, 29334.541181867266, 18007.593513440315, -43307.6224693802, -30230.533210102705, -30321.48245829135, -20918.081214199214, -13897.1300598538, -37300.09940863841, 0.018000000000000002, 0.86, 0.552, 192.0, 0.0, 0.0, 0.0, 0.0, 0.0, 0.0, 0.0, 0.0, 0.0, 1.6521697884544857E9, 0.0, 2022-05-10 10:03:08.454
132.0, 29344.375949427602, 18030.749920696013, -43299.620544865196, -30222.106602443055, -30313.368775054074, -20910.213400150944, -13892.816173173926, -37296.366667314374, 0.018000000000000002, 0.86, 0.552, 192.0, 0.0, 0.0, 0.0, 0.0, 0.0, 0.0, 0.0, 0.0, 0.0, 1.6521697884544947E9, 0.0, 2022-05-10 10:03:08.454
133.0, 29340.5761528702, 18023.753824681502, -43309.678829870085, -30234.288303171197, -30324.656406004004, -20909.364033861642, -13912.575115272417, -37304.14507438482, 0.018000000000000002, 0.86, 0.552, 192.0, 0.0, 0.0, 0.0, 0.0, 0.0, 0.0, 0.0, 0.0, 0.0, 1.652169788454501E9, 0.0, 2022-05-10 10:03:08.454
134.0, 29342.945437782462, 17997.37876622424, -43318.708934630034, -30246.134727732508, -30335.944036953933, -20916.918923487538, -13942.504101098073, -37319.67953678126, 0.018000000000000002, 0.86, 0.552, 192.0, 0.0, 0.0, 0.0, 0.0, 0.0, 0.0, 0.0, 0.0, 0.0, 1.6521697884545088E9, 0.0, 2022-05-10 10:03:08.454
135.0, 29340.151469725548, 17991.65671964368, -43331.53883594738, -30259.70223661688, -30346.874039992577, -20931.782833550315, -13948.80729303447, -37334.252874166115, 0.018000000000000002, 0.86, 0.552, 192.0, 0.0, 0.0, 0.0, 0.0, 0.0, 0.0, 0.0, 0.0, 0.0, 1.6521697884545174E9, 0.0, 2022-05-10 10:03:08.454
136.0, 29323.119440450602, 17987.409888197173, -43345.50867623195, -30272.778007123234, -30356.708807552914, -20951.586479137717, -13936.782054517515, -37339.79610679104, 0.018000000000000002, 0.86, 0.552, 192.0, 0.0, 0.0, 0.0, 0.0, 0.0, 0.0, 0.0, 0.0, 0.0, 1.6521697884545357E9, 0.0, 2022-05-10 10:03:08.454
137.0, 29333.33418766668, 18006.386519239728, -43326.86732135622, -30251.007408023765, -30342.738967268346, -20938.71187433146, -13916.79959497447, -37322.62996704936, 0.016, 0.856, 0.548, 192.0, 0.0, 128.0, 26.0, 192.0, 17.0, 32.0, 0.0, 0.0, 0.0, 1.6521697884545484E9, 0.0, 2022-05-10 10:03:08.454
138.0, 29342.788975571275, 18012.98028385404, -43325.57092017781, -30247.587591122105, -30343.655388791012, -20929.324141660232, -13908.574153014917, -37318.85252223641, 0.016, 0.856, 0.548, 192.0, 0.0, 0.0, 0.0, 0.0, 0.0, 0.0, 0.0, 0.0, 0.0, 1.652169788454557E9, 0.0, 2022-05-10 10:03:08.454
139.0, 29351.28263846429, 18004.643083172214, -43341.373603507716, -30259.545774405695, -30360.28508666576, -20933.81684229575, -13936.603240561873, -37339.41612713529, 0.016, 0.856, 0.548, 192.0, 0.0, 0.0, 0.0, 0.0, 0.0, 0.0, 0.0, 0.0, 0.0, 1.6521697884545667E9, 0.0, 2022-05-10 10:03:08.454
140.0, 29344.398301172056, 17994.94242607861, -43349.55434197836, -30265.111358775066, -30373.718485083402, -20942.511670888864, -13936.71499928415, -37345.04876673803, 0.016, 0.856, 0.548, 192.0, 0.0, 0.0, 0.0, 0.0, 0.0, 0.0, 0.0, 0.0, 0.0, 1.652169788454578E9, 0.0, 2022-05-10 10:03:08.454
141.0, 29327.27686491929, 18004.75484189449, -43344.52519947591, -30258.025855782733, -30371.796235060247, -20940.455310398975, -13932.445816093186, -37333.71643229919, 0.016, 0.856, 0.548, 192.0, 0.0, 0.0, 0.0, 0.0, 0.0, 0.0, 0.0, 0.0, 0.0, 1.6521697884545915E9, 0.0, 2022-05-10 10:03:08.454
142.0, 29327.925065508494, 18021.831574658343, -43330.64476616916, -30246.961742277355, -30360.57565934368, -20930.53113586082, -13938.056103951467, -37323.43462984975, 0.016, 0.856, 0.548, 192.0, 0.0, 0.0, 0.0, 0.0, 0.0, 0.0, 0.0, 0.0, 0.0, 1.6521697884546103E9, 0.0, 2022-05-10 10:03:08.454
143.0, 29336.262266190322, 18024.647894459715, -43334.60102493776, -30250.448614412384, -30367.01296174681, -20933.459214384464, -13960.117275728855, -37344.758194060116, 0.016, 0.856, 0.548, 192.0, 0.0, 0.0, 0.0, 0.0, 0.0, 0.0, 0.0, 0.0, 0.0, 1.652169788454628E9, 0.0, 2022-05-10 10:03:08.454
144.0, 29342.453699404443, 18037.164871354686, -43331.24826326946, -30249.152213233974, -30365.783615801767, -20929.972342249435, -13958.776171061538, -37349.20619120672, 0.016, 0.856, 0.548, 192.0, 0.0, 0.0, 0.0, 0.0, 0.0, 0.0, 0.0, 0.0, 0.0, 1.6521697884546392E9, 0.0, 2022-05-10 10:03:08.454
145.0, 29332.99891149985, 18022.166850825175, -43343.318205275325, -30260.015161039253, -30375.05958975072, -20943.517499389352, -13955.758685560071, -37351.933104030264, 0.016, 0.856, 0.548, 192.0, 0.0, 0.0, 0.0, 0.0, 0.0, 0.0, 0.0, 0.0, 0.0, 1.6521697884546535E9, 0.0, 2022-05-10 10:03:08.454
146.0, 29334.38471965608, 18017.025949600455, -43335.87507437171, -30248.794585322692, -30363.235516933863, -20939.53888887631, -13937.117330684345, -37334.051708466024, 0.016, 0.856, 0.548, 192.0, 0.0, 0.0, 0.0, 0.0, 0.0, 0.0, 0.0, 0.0, 0.0, 1.6521697884546652E9, 0.0, 2022-05-10 10:03:08.454
147.0, 29342.878382549094, 18038.148348110717, -43320.9217573311, -30233.32717815962, -30345.10825218061, -20924.786737535804, -13926.366141601342, -37320.61831004838, 0.012, 0.86, 0.542, 192.0, 0.0, 96.0, 26.0, 224.0, 16.0, 240.0, 0.0, 0.0, 0.0, 1.6521697884546752E9, 0.0, 2022-05-10 10:03:08.454
148.0, 29343.303065693744, 18020.8033944134, -43323.40280096565, -30236.456422383362, -30345.66704579199, -20923.2891706573, -13936.42442660623, -37340.24314168014, 0.012, 0.86, 0.542, 192.0, 0.0, 0.0, 0.0, 0.0, 0.0, 0.0, 0.0, 0.0, 0.0, 1.6521697884546912E9, 0.0, 2022-05-10 10:03:08.454
149.0, 29343.70539709394, 18003.637254671725, -43338.557283706345, -30249.889820801, -30356.887621508555, -20927.17837419252, -13950.103694212878, -37352.58130461947, 0.012, 0.86, 0.542, 192.0, 0.0, 0.0, 0.0, 0.0, 0.0, 0.0, 0.0, 0.0, 0.0, 1.6521697884547021E9, 0.0, 2022-05-10 10:03:08.454
