%OpenBCI Raw EEG Data
%Number of channels = 8
%Sample Rate = 250 Hz
%Board = OpenBCI_GUI$BoardCytonSerial
Sample Index, EXG Channel 0, EXG Channel 1, EXG Channel 2, EXG Channel 3, EXG Channel 4, EXG Channel 5, EXG Channel 6, EXG Channel 7, Accel Channel 0, Accel Channel 1, Accel Channel 2, Other, Other, Other, Other, Other, Other, Other, Analog Channel 0, Analog Channel 1, Analog Channel 2, Timestamp, Other, Timestamp (Formatted)
0.0, 0.0, 0.0, 0.0, 0.0, 0.0, 0.0, 0.0, 0.0, 0.0, 0.0, 0.0, 192.0, 0.0, 0.0, 0.0, 0.0, 0.0, 0.0, 0.0, 0.0, 0.0, 1.6541738154702375E9, 0.0, 2022-06-02 14:43:35.470
1.0, -8423.14313926019, 8788.102422726444, -46023.40412418892, -38439.43487875877, -23342.15025212172, -21635.95219087031, -9679.44528811518, -10185.935817472437, 0.014, 0.916, 0.464, 192.0, 0.0, 112.0, 28.0, 160.0, 14.0, 128.0, 0.0, 0.0, 0.0, 1.6541738159547284E9, 0.0, 2022-06-02 14:43:35.954
2.0, -8409.530926886908, 8806.654370624348, -46008.29434493713, -38416.18906452526, -23313.919998874666, -21620.261266262685, -9623.185947321172, -10180.236122636334, 0.014, 0.916, 0.464, 192.0, 0.0, 0.0, 0.0, 0.0, 0.0, 0.0, 0.0, 0.0, 0.0, 1.6541738159548314E9, 0.0, 2022-06-02 14:43:35.954
3.0, -8380.741880028472, 8843.758266420158, -45958.539361779614, -38370.367988391874, -23265.215547706553, -21573.255547673172, -9587.780784103965, -10124.24500277579, 0.014, 0.916, 0.464, 192.0, 0.0, 0.0, 0.0, 0.0, 0.0, 0.0, 0.0, 0.0, 0.0, 1.6541738159548404E9, 0.0, 2022-06-02 14:43:35.954
4.0, -8379.244313149968, 8845.613461209949, -45955.00778615568, -38371.843203525925, -23264.88027153972, -21568.472274359738, -9587.04317653694, -10117.003037572269, 0.014, 0.916, 0.464, 192.0, 0.0, 0.0, 0.0, 0.0, 0.0, 0.0, 0.0, 0.0, 0.0, 1.654173815954846E9, 0.0, 2022-06-02 14:43:35.954
5.0, -8411.162604232146, 8808.531917158594, -45999.018370988175, -38421.911111105816, -23311.483658729037, -21612.9522458258, -9634.384171293279, -10159.136075870523, 0.014, 0.916, 0.464, 192.0, 0.0, 0.0, 0.0, 0.0, 0.0, 0.0, 0.0, 0.0, 0.0, 1.6541738159548547E9, 0.0, 2022-06-02 14:43:35.954
6.0, -8426.630011395218, 8785.353158158441, -46029.97553705878, -38446.05099511755, -23338.126938119764, -21643.864708407487, -9641.134398118782, -10169.753154486794, 0.014, 0.916, 0.464, 192.0, 0.0, 0.0, 0.0, 0.0, 0.0, 0.0, 0.0, 0.0, 0.0, 1.6541738159548607E9, 0.0, 2022-06-02 14:43:35.954
7.0, -8400.366711660232, 8809.560097403539, -46001.544118111626, -38405.4155236978, -23301.492428957514, -21606.626702144946, -9578.6612723662, -10102.116775765035, 0.014, 0.916, 0.464, 192.0, 0.0, 0.0, 0.0, 0.0, 0.0, 0.0, 0.0, 0.0, 0.0, 1.6541738159548678E9, 0.0, 2022-06-02 14:43:35.954
8.0, -8366.950853699547, 8845.792275165591, -45954.069012888554, -38356.5546103185, -23251.335114399804, -21546.388750837894, -9533.063713677373, -10045.253937870733, 0.016, 0.914, 0.466, 192.0, 0.0, 128.0, 28.0, 144.0, 14.0, 144.0, 0.0, 0.0, 0.0, 1.6541738159548736E9, 0.0, 2022-06-02 14:43:35.954
9.0, -8356.333775083278, 8847.558062977561, -45952.9961291547, -38358.40980510829, -23252.206832433563, -21548.467463072237, -9542.943184726619, -10068.879731759993, 0.016, 0.914, 0.466, 192.0, 0.0, 0.0, 0.0, 0.0, 0.0, 0.0, 0.0, 0.0, 0.0, 1.6541738159548788E9, 0.0, 2022-06-02 14:43:35.954
10.0, -8392.029510978402, 8813.091673027477, -46000.13595821094, -38404.722619619686, -23302.9005888582, -21592.14277173791, -9617.352142018335, -10121.428682974421, 0.016, 0.914, 0.466, 192.0, 0.0, 0.0, 0.0, 0.0, 0.0, 0.0, 0.0, 0.0, 0.0, 1.654173815954884E9, 0.0, 2022-06-02 14:43:35.954
11.0, -8438.945822590093, 8779.675815066794, -46044.52652269918, -38445.58160848398, -23347.00058066852, -21639.304952538605, -9680.361709637846, -10161.706526482883, 0.016, 0.914, 0.466, 192.0, 0.0, 0.0, 0.0, 0.0, 0.0, 0.0, 0.0, 0.0, 0.0, 1.6541738159548893E9, 0.0, 2022-06-02 14:43:35.954
12.0, -8433.62610740973, 8786.515448870117, -46033.216540004796, -38430.225960043186, -23331.108490360795, -21629.492536722726, -9665.788372252986, -10166.042764907213, 0.016, 0.914, 0.466, 192.0, 0.0, 0.0, 0.0, 0.0, 0.0, 0.0, 0.0, 0.0, 0.0, 1.6541738159548945E9, 0.0, 2022-06-02 14:43:35.954
13.0, -8390.66605456663, 8828.916708101835, -45976.48781257723, -38375.57594484997, -23268.143626230198, -21575.06603897405, -9574.861475808797, -10132.559851713164, 0.016, 0.914, 0.466, 192.0, 0.0, 0.0, 0.0, 0.0, 0.0, 0.0, 0.0, 0.0, 0.0, 1.6541738159549005E9, 0.0, 2022-06-02 14:43:35.954
14.0, -8381.367728873221, 8837.075094828022, -45971.19044914132, -38372.066720970484, -23256.855995280268, -21568.628736570925, -9547.860568506787, -10116.064264305147, 0.016, 0.914, 0.466, 192.0, 0.0, 0.0, 0.0, 0.0, 0.0, 0.0, 0.0, 0.0, 0.0, 1.6541738159549055E9, 0.0, 2022-06-02 14:43:35.954
15.0, -8399.47264188202, 8807.056702024543, -46014.619888617985, -38418.93832909326, -23297.156190533184, -21611.834658603035, -9591.75939461701, -10145.43445651942, 0.016, 0.914, 0.466, 192.0, 0.0, 0.0, 0.0, 0.0, 0.0, 0.0, 0.0, 0.0, 0.0, 1.6541738159549108E9, 0.0, 2022-06-02 14:43:35.954
16.0, -8424.081912527314, 8783.967350002213, -46037.128095284475, -38447.772079440605, -23325.94523739162, -21640.757815928202, -9622.09071184286, -10156.923253169449, 0.016, 0.914, 0.466, 192.0, 0.0, 0.0, 0.0, 0.0, 0.0, 0.0, 0.0, 0.0, 0.0, 1.654173815954916E9, 0.0, 2022-06-02 14:43:35.954
17.0, -8412.213136221544, 8801.625228121904, -46018.86672006449, -38425.08505881847, -23305.51574295947, -21613.71220513728, -9621.777787420486, -10125.80962488766, 0.016, 0.914, 0.466, 192.0, 0.0, 0.0, 0.0, 0.0, 0.0, 0.0, 0.0, 0.0, 0.0, 1.6541738159549212E9, 0.0, 2022-06-02 14:43:35.954
18.0, -8384.832249263794, 8831.487158714195, -45983.52861208065, -38385.94715427723, -23269.864710553255, -21574.350783151483, -9586.640845136744, -10115.371360227033, 0.018000000000000002, 0.916, 0.466, 192.0, 0.0, 144.0, 28.0, 160.0, 14.0, 144.0, 0.0, 0.0, 0.0, 1.6541738159549265E9, 0.0, 2022-06-02 14:43:35.954
19.0, -8372.784659002384, 8846.0381443546, -45974.4538038318, -38371.999665737116, -23259.538204614902, -21566.102989447474, -9574.347385686326, -10122.412159730455, 0.018000000000000002, 0.916, 0.466, 192.0, 0.0, 0.0, 0.0, 0.0, 0.0, 0.0, 0.0, 0.0, 0.0, 1.6541738159549317E9, 0.0, 2022-06-02 14:43:35.954
20.0, -8393.638836579184, 8822.769978376626, -46011.82592056107, -38412.83630285696, -23303.52643770295, -21607.23019924524, -9649.561005778432, -10145.747380941795, 0.018000000000000002, 0.916, 0.466, 192.0, 0.0, 0.0, 0.0, 0.0, 0.0, 0.0, 0.0, 0.0, 0.0, 1.6541738159549372E9, 0.0, 2022-06-02 14:43:35.954
21.0, -8410.827328065316, 8799.725329843204, -46041.77725813118, -38449.448460274754, -23338.551621264414, -21640.489594994735, -9700.63474185881, -10159.516055526265, 0.018000000000000002, 0.916, 0.466, 192.0, 0.0, 0.0, 0.0, 0.0, 0.0, 0.0, 0.0, 0.0, 0.0, 1.654173815954943E9, 0.0, 2022-06-02 14:43:35.954
22.0, -8398.265647681434, 8805.425024679307, -46030.86960683699, -38436.79737291305, -23325.989940880532, -21627.95026635531, -9654.456037814145, -10139.175968071935, 0.018000000000000002, 0.916, 0.466, 192.0, 0.0, 0.0, 0.0, 0.0, 0.0, 0.0, 0.0, 0.0, 0.0, 1.654173815954954E9, 0.0, 2022-06-02 14:43:35.954
23.0, -8387.201534176056, 8826.905051100857, -45995.79971978661, -38400.54284340654, -23283.18635024862, -21600.077641019543, -9576.694318854132, -10127.86598537755, 0.018000000000000002, 0.916, 0.466, 192.0, 0.0, 0.0, 0.0, 0.0, 0.0, 0.0, 0.0, 0.0, 0.0, 1.6541738159549592E9, 0.0, 2022-06-02 14:43:35.954
24.0, -8376.964435215526, 8850.754362434669, -45971.279856119145, -38381.45445364171, -23258.97941100352, -21586.845408302, -9537.981097457541, -10111.370397969533, 0.018000000000000002, 0.916, 0.466, 192.0, 0.0, 0.0, 0.0, 0.0, 0.0, 0.0, 0.0, 0.0, 0.0, 1.6541738159549644E9, 0.0, 2022-06-02 14:43:35.954
25.0, -8390.598999333262, 8841.143112318887, -45987.3060568936, -38398.64294512784, -23276.03379202292, -21600.16704799736, -9558.187074445137, -10097.221743729324, 0.018000000000000002, 0.916, 0.466, 192.0, 0.0, 0.0, 0.0, 0.0, 0.0, 0.0, 0.0, 0.0, 0.0, 1.6541738159549696E9, 0.0, 2022-06-02 14:43:35.954
26.0, -8397.125708714213, 8812.197603249264, -46022.59946138853, -38428.66133793132, -23305.8510191263, -21631.839469890532, -9611.09365357085, -10163.382907317033, 0.018000000000000002, 0.916, 0.466, 192.0, 0.0, 0.0, 0.0, 0.0, 0.0, 0.0, 0.0, 0.0, 0.0, 1.654173815954975E9, 0.0, 2022-06-02 14:43:35.954
27.0, -8400.389063404687, 8791.477536139195, -46037.97746157378, -38444.46402126122, -23317.608036709793, -21643.775301429665, -9652.28791860198, -10210.25451543981, 0.01, 0.914, 0.466, 192.0, 0.0, 80.0, 28.0, 144.0, 14.0, 144.0, 0.0, 0.0, 0.0, 1.6541738159549801E9, 0.0, 2022-06-02 14:43:35.954
28.0, -8381.837115506783, 8827.732065645703, -45983.48390859174, -38390.395151423836, -23262.868614538744, -21584.900806534388, -9588.585446904355, -10125.563755698653, 0.01, 0.914, 0.466, 192.0, 0.0, 0.0, 0.0, 0.0, 0.0, 0.0, 0.0, 0.0, 0.0, 1.6541738159549856E9, 0.0, 2022-06-02 14:43:35.954
29.0, -8379.691348039074, 8840.204339051765, -45973.24680963121, -38380.64979084132, -23252.631515578214, -21568.427570870826, -9551.146274941717, -10074.959406251837, 0.01, 0.914, 0.466, 192.0, 0.0, 0.0, 0.0, 0.0, 0.0, 0.0, 0.0, 0.0, 0.0, 1.6541738159549906E9, 0.0, 2022-06-02 14:43:35.954
30.0, -8401.37254016072, 8817.226745751708, -46013.18937697284, -38421.66524191681, -23296.396231221705, -21609.018338801663, -9611.384226248769, -10106.832993845104, 0.01, 0.914, 0.466, 192.0, 0.0, 0.0, 0.0, 0.0, 0.0, 0.0, 0.0, 0.0, 0.0, 1.654173815954996E9, 0.0, 2022-06-02 14:43:35.954
31.0, -8429.133406774212, 8783.073280224, -46054.182476303875, -38450.90132366435, -23338.61867649778, -21642.121272339973, -9669.118782176827, -10162.108857883079, 0.01, 0.914, 0.466, 192.0, 0.0, 0.0, 0.0, 0.0, 0.0, 0.0, 0.0, 0.0, 0.0, 1.654173815955001E9, 0.0, 2022-06-02 14:43:35.955
32.0, -8420.840909581293, 8790.158783216331, -46044.01243257671, -38439.56898922551, -23327.263990314485, -21620.417728473873, -9649.67276450071, -10155.939776413416, 0.01, 0.914, 0.466, 192.0, 0.0, 0.0, 0.0, 0.0, 0.0, 0.0, 0.0, 0.0, 0.0, 1.6541738159550073E9, 0.0, 2022-06-02 14:43:35.955
33.0, -8393.705891812551, 8821.741798131681, -46001.72293206727, -38396.251308471125, -23275.452646667083, -21579.42462914284, -9573.90035079722, -10131.799892401683, 0.01, 0.914, 0.466, 192.0, 0.0, 0.0, 0.0, 0.0, 0.0, 0.0, 0.0, 0.0, 0.0, 1.6541738159550123E9, 0.0, 2022-06-02 14:43:35.955
34.0, -8371.84588573526, 8843.937080375801, -45983.84153650302, -38379.77807280756, -23260.92401277113, -21567.779370281623, -9567.194827460627, -10119.417025973444, 0.01, 0.914, 0.466, 192.0, 0.0, 0.0, 0.0, 0.0, 0.0, 0.0, 0.0, 0.0, 0.0, 1.654173815955018E9, 0.0, 2022-06-02 14:43:35.955
35.0, -8401.529002371908, 8809.716559614726, -46030.08729578106, -38427.83432338647, -23312.198914551605, -21614.583923171034, -9608.903182614229, -10131.174043556935, 0.01, 0.914, 0.466, 192.0, 0.0, 0.0, 0.0, 0.0, 0.0, 0.0, 0.0, 0.0, 0.0, 1.6541738159550235E9, 0.0, 2022-06-02 14:43:35.955
36.0, -8421.243240981488, 8797.758376331136, -46043.833618621065, -38443.5252479941, -23329.05212987091, -21630.94540011232, -9616.547479217945, -10138.460712249365, 0.01, 0.914, 0.466, 192.0, 0.0, 0.0, 0.0, 0.0, 0.0, 0.0, 0.0, 0.0, 0.0, 1.6541738159550292E9, 0.0, 2022-06-02 14:43:35.955
37.0, -8394.555258101853, 8820.9818388202, -46017.2126909748, -38409.57294816649, -23298.541998689416, -21599.340033452518, -9596.073281296884, -10114.09731079308, 0.012, 0.912, 0.47000000000000003, 192.0, 0.0, 96.0, 28.0, 128.0, 14.0, 176.0, 0.0, 0.0, 0.0, 1.6541738159550345E9, 0.0, 2022-06-02 14:43:35.955
38.0, -8361.564083285819, 8854.598862480982, -45977.40423409989, -38363.37189237736, -23253.257364422963, -21553.608364296957, -9560.489304124034, -10083.47542088931, 0.012, 0.912, 0.47000000000000003, 192.0, 0.0, 0.0, 0.0, 0.0, 0.0, 0.0, 0.0, 0.0, 0.0, 1.6541738159550412E9, 0.0, 2022-06-02 14:43:35.955
39.0, -8360.088868151768, 8860.477371272727, -45967.211838628275, -38362.6566365548, -23250.50809985496, -21554.211861397253, -9567.530103627456, -10087.52108663572, 0.012, 0.912, 0.47000000000000003, 192.0, 0.0, 0.0, 0.0, 0.0, 0.0, 0.0, 0.0, 0.0, 0.0, 1.654173815955047E9, 0.0, 2022-06-02 14:43:35.955
40.0, -8374.595150303263, 8840.94194661879, -45992.603420329506, -38394.53022414807, -23277.46430366806, -21579.42462914284, -9578.303644454914, -10107.81647060114, 0.012, 0.912, 0.47000000000000003, 192.0, 0.0, 0.0, 0.0, 0.0, 0.0, 0.0, 0.0, 0.0, 0.0, 1.654173815955053E9, 0.0, 2022-06-02 14:43:35.955
41.0, -8389.593170832773, 8824.60282142196, -46021.05719102111, -38425.84501812995, -23306.096888315307, -21611.253513247197, -9605.57277269039, -10129.989401100804, 0.012, 0.912, 0.47000000000000003, 192.0, 0.0, 0.0, 0.0, 0.0, 0.0, 0.0, 0.0, 0.0, 0.0, 1.6541738159550598E9, 0.0, 2022-06-02 14:43:35.955
42.0, -8380.60776956174, 8840.383153007408, -46005.4109699024, -38408.38830571035, -23291.903530586187, -21591.51692289316, -9610.579563448378, -10113.694979392885, 0.012, 0.912, 0.47000000000000003, 192.0, 0.0, 0.0, 0.0, 0.0, 0.0, 0.0, 0.0, 0.0, 0.0, 1.6541738159550667E9, 0.0, 2022-06-02 14:43:35.955
43.0, -8355.774981471895, 8865.305348075075, -45975.325521865554, -38362.56722957698, -23253.682047567614, -21551.59670729598, -9580.337653200348, -10099.501621663765, 0.012, 0.912, 0.47000000000000003, 192.0, 0.0, 0.0, 0.0, 0.0, 0.0, 0.0, 0.0, 0.0, 0.0, 1.6541738159550798E9, 0.0, 2022-06-02 14:43:35.955
44.0, -8356.736106483473, 8863.316042818553, -45975.83961198803, -38369.02688372456, -23255.000800490478, -21556.379980609418, -9574.079164752862, -10106.76593861174, 0.012, 0.912, 0.47000000000000003, 192.0, 0.0, 0.0, 0.0, 0.0, 0.0, 0.0, 0.0, 0.0, 0.0, 1.6541738159550855E9, 0.0, 2022-06-02 14:43:35.955
45.0, -8384.51932484142, 8831.55421394756, -46010.77538857167, -38411.87517784538, -23291.858827097276, -21596.590768884515, -9603.851688367331, -10116.824223616628, 0.012, 0.912, 0.47000000000000003, 192.0, 0.0, 0.0, 0.0, 0.0, 0.0, 0.0, 0.0, 0.0, 0.0, 1.6541738159550912E9, 0.0, 2022-06-02 14:43:35.955
46.0, -8407.698083841573, 8804.754472345647, -46047.9686913453, -38449.00142538565, -23329.61092348229, -21636.980371115253, -9622.694208943154, -10158.398468303498, 0.012, 0.912, 0.47000000000000003, 192.0, 0.0, 0.0, 0.0, 0.0, 0.0, 0.0, 0.0, 0.0, 0.0, 1.6541738159550967E9, 0.0, 2022-06-02 14:43:35.955
47.0, -8402.221906450022, 8813.672818383315, -46041.91136859791, -38440.73127993719, -23318.792679165923, -21630.587772201037, -9618.872060641297, -10182.270131381767, 0.016, 0.918, 0.47000000000000003, 192.0, 0.0, 128.0, 28.0, 176.0, 14.0, 176.0, 0.0, 0.0, 0.0, 1.6541738159551044E9, 0.0, 2022-06-02 14:43:35.955
48.0, -8381.61359806223, 8837.633888439404, -46007.57908911456, -38404.32028821949, -23279.0959810133, -21590.421687414848, -9587.914894570697, -10109.492851435287, 0.016, 0.918, 0.47000000000000003, 192.0, 0.0, 0.0, 0.0, 0.0, 0.0, 0.0, 0.0, 0.0, 0.0, 1.6541738159551096E9, 0.0, 2022-06-02 14:43:35.955
49.0, -8370.03539443438, 8850.352031034474, -45996.44792037582, -38395.29018345955, -23274.73739084451, -21579.42462914284, -9597.257923753015, -10085.62118835702, 0.016, 0.918, 0.47000000000000003, 192.0, 0.0, 0.0, 0.0, 0.0, 0.0, 0.0, 0.0, 0.0, 0.0, 1.6541738159551156E9, 0.0, 2022-06-02 14:43:35.955
50.0, -8385.078118452802, 8830.995420336178, -46016.497435152225, -38417.73133489268, -23298.653757411692, -21606.33612946703, -9620.123758330794, -10131.084636579113, 0.016, 0.918, 0.47000000000000003, 192.0, 0.0, 0.0, 0.0, 0.0, 0.0, 0.0, 0.0, 0.0, 0.0, 1.6541738159551213E9, 0.0, 2022-06-02 14:43:35.955
51.0, -8415.52119440093, 8794.830297807492, -46047.02991807818, -38451.95185565375, -23329.253295571005, -21645.898717152922, -9626.605764222833, -10166.445096307409, 0.016, 0.918, 0.47000000000000003, 192.0, 0.0, 0.0, 0.0, 0.0, 0.0, 0.0, 0.0, 0.0, 0.0, 1.6541738159551275E9, 0.0, 2022-06-02 14:43:35.955
52.0, -8409.866203053738, 8798.160707731331, -46045.241778521755, -38446.76625094012, -23325.989940880532, -21641.85305140651, -9632.5736799924, -10162.555892772185, 0.016, 0.918, 0.47000000000000003, 192.0, 0.0, 0.0, 0.0, 0.0, 0.0, 0.0, 0.0, 0.0, 0.0, 1.6541738159551332E9, 0.0, 2022-06-02 14:43:35.955
53.0, -8376.293882881866, 8834.012905837644, -45995.44209187533, -38393.4126369253, -23270.758780331467, -21580.922196021344, -9587.244342237038, -10096.104156506557, 0.016, 0.918, 0.47000000000000003, 192.0, 0.0, 0.0, 0.0, 0.0, 0.0, 0.0, 0.0, 0.0, 0.0, 1.6541738159551387E9, 0.0, 2022-06-02 14:43:35.955
54.0, -8384.273455652412, 8830.45897846925, -46003.28755417914, -38408.611823154904, -23280.481789169527, -21591.36046068197, -9622.403636265235, -10114.276124748721, 0.016, 0.918, 0.47000000000000003, 192.0, 0.0, 0.0, 0.0, 0.0, 0.0, 0.0, 0.0, 0.0, 0.0, 1.6541738159551456E9, 0.0, 2022-06-02 14:43:35.955
55.0, -8391.783641789394, 8815.773882362113, -46029.52850216967, -38426.0685355745, -23307.03566158243, -21610.47120219126, -9642.76607546402, -10144.763904185762, 0.016, 0.918, 0.47000000000000003, 192.0, 0.0, 0.0, 0.0, 0.0, 0.0, 0.0, 0.0, 0.0, 0.0, 1.6541738159551518E9, 0.0, 2022-06-02 14:43:35.955
56.0, -8419.969191547536, 8794.584428618482, -46062.78789791917, -38456.66807373382, -23334.595362495824, -21640.04256010563, -9642.564909763922, -10189.310930885189, 0.016, 0.918, 0.47000000000000003, 192.0, 0.0, 0.0, 0.0, 0.0, 0.0, 0.0, 0.0, 0.0, 0.0, 1.6541738159551587E9, 0.0, 2022-06-02 14:43:35.955
57.0, -8418.650438624672, 8800.887620554879, -46058.89869438395, -38454.14232661037, -23331.24260082753, -21640.266077550183, -9637.826339939396, -10192.708396042395, 0.018000000000000002, 0.922, 0.464, 192.0, 0.0, 144.0, 28.0, 208.0, 14.0, 128.0, 0.0, 0.0, 0.0, 1.6541738159551651E9, 0.0, 2022-06-02 14:43:35.955
58.0, -8370.951815957049, 8850.262624056653, -45997.63256283195, -38390.7080758462, -23264.634402350715, -21577.457675630772, -9563.685603581143, -10138.81834016065, 0.018000000000000002, 0.922, 0.464, 192.0, 0.0, 0.0, 0.0, 0.0, 0.0, 0.0, 0.0, 0.0, 0.0, 1.6541738159551733E9, 0.0, 2022-06-02 14:43:35.955
59.0, -8366.883798466182, 8852.095467101988, -45992.91634475188, -38390.95394503522, -23262.84626279429, -21579.759905309667, -9569.720574584077, -10152.251738578288, 0.018000000000000002, 0.922, 0.464, 192.0, 0.0, 0.0, 0.0, 0.0, 0.0, 0.0, 0.0, 0.0, 0.0, 1.6541738159551792E9, 0.0, 2022-06-02 14:43:35.955
60.0, -8392.096566211769, 8819.528975430605, -46035.74228712825, -38434.85277114544, -23307.259179026983, -21627.167955299374, -9618.670894941199, -10155.269224079755, 0.018000000000000002, 0.922, 0.464, 192.0, 0.0, 0.0, 0.0, 0.0, 0.0, 0.0, 0.0, 0.0, 0.0, 1.6541738159551857E9, 0.0, 2022-06-02 14:43:35.955
61.0, -8402.221906450022, 8808.442510180774, -46054.22717979279, -38449.113184107926, -23326.77225193647, -21634.119347824973, -9632.797197436952, -10129.899994122981, 0.018000000000000002, 0.922, 0.464, 192.0, 0.0, 0.0, 0.0, 0.0, 0.0, 0.0, 0.0, 0.0, 0.0, 1.6541738159551916E9, 0.0, 2022-06-02 14:43:35.955
62.0, -8404.054749495357, 8810.40946369284, -46054.69656642635, -38439.43487875877, -23319.37382452176, -21626.586809943536, -9617.218031551603, -10137.678401193429, 0.018000000000000002, 0.922, 0.464, 192.0, 0.0, 0.0, 0.0, 0.0, 0.0, 0.0, 0.0, 0.0, 0.0, 1.6541738159551983E9, 0.0, 2022-06-02 14:43:35.955
63.0, -8384.94400798607, 8826.279202256108, -46026.712182368305, -38408.567119666, -23283.901606071187, -21593.573283383048, -9578.70597585511, -10104.70957812185, 0.018000000000000002, 0.922, 0.464, 192.0, 0.0, 0.0, 0.0, 0.0, 0.0, 0.0, 0.0, 0.0, 0.0, 1.6541738159552038E9, 0.0, 2022-06-02 14:43:35.955
64.0, -8368.336661855777, 8845.971089121234, -46000.31477216659, -38387.98116302266, -23262.22041394954, -21575.155445951874, -9576.202580476116, -10089.778612825707, 0.018000000000000002, 0.922, 0.464, 192.0, 0.0, 0.0, 0.0, 0.0, 0.0, 0.0, 0.0, 0.0, 0.0, 1.6541738159552157E9, 0.0, 2022-06-02 14:43:35.955
65.0, -8389.973150488515, 8825.496891200173, -46032.74715337124, -38422.58166343947, -23297.75968763348, -21610.851181847, -9620.86136589782, -10125.04966557618, 0.018000000000000002, 0.922, 0.464, 192.0, 0.0, 0.0, 0.0, 0.0, 0.0, 0.0, 0.0, 0.0, 0.0, 1.6541738159552238E9, 0.0, 2022-06-02 14:43:35.955
66.0, -8406.982828019003, 8804.061568267532, -46063.771374675205, -38457.495088278665, -23328.403929281703, -21641.71894093978, -9654.187816880682, -10169.954320186893, 0.018000000000000002, 0.922, 0.464, 192.0, 0.0, 0.0, 0.0, 0.0, 0.0, 0.0, 0.0, 0.0, 0.0, 1.6541738159552305E9, 0.0, 2022-06-02 14:43:35.955
67.0, -8419.656267125161, 8788.661216337827, -46078.367063804515, -38470.25793436264, -23337.61284799729, -21650.391417788436, -9660.893340217273, -10185.82405875016, 0.022, 0.916, 0.464, 192.0, 0.0, 176.0, 28.0, 160.0, 14.0, 128.0, 0.0, 0.0, 0.0, 1.6541738159552374E9, 0.0, 2022-06-02 14:43:35.955
68.0, -8399.09266222628, 8815.46095793974, -46038.603310418526, -38415.406753469324, -23294.339870731816, -21604.23506548823, -9609.484327970067, -10116.578354427618, 0.022, 0.916, 0.464, 192.0, 0.0, 0.0, 0.0, 0.0, 0.0, 0.0, 0.0, 0.0, 0.0, 1.6541738159552453E9, 0.0, 2022-06-02 14:43:35.955
69.0, -8369.70011826755, 8844.361763520452, -46010.79774031613, -38386.59535486643, -23265.41671340665, -21572.22736742823, -9571.106382740305, -10081.106135977047, 0.022, 0.916, 0.464, 192.0, 0.0, 0.0, 0.0, 0.0, 0.0, 0.0, 0.0, 0.0, 0.0, 1.654173815955253E9, 0.0, 2022-06-02 14:43:35.955
70.0, -8393.99646449047, 8815.21508875073, -46051.321453013596, -38434.94217812326, -23306.074536570854, -21618.495478450714, -9612.412406493713, -10147.043782120203, 0.022, 0.916, 0.464, 192.0, 0.0, 0.0, 0.0, 0.0, 0.0, 0.0, 0.0, 0.0, 0.0, 1.6541738159552605E9, 0.0, 2022-06-02 14:43:35.955
71.0, -8402.490127383486, 8798.74185308717, -46074.83548818058, -38465.13938488238, -23335.869411929776, -21648.558574743103, -9663.128514662805, -10198.63160832305, 0.022, 0.916, 0.464, 192.0, 0.0, 0.0, 0.0, 0.0, 0.0, 0.0, 0.0, 0.0, 0.0, 1.654173815955266E9, 0.0, 2022-06-02 14:43:35.955
72.0, -8404.233563451, 8803.145146744866, -46069.09108985557, -38458.90324817935, -23329.029778126453, -21645.116406096986, -9654.81366572543, -10204.73363455935, 0.022, 0.916, 0.464, 192.0, 0.0, 0.0, 0.0, 0.0, 0.0, 0.0, 0.0, 0.0, 0.0, 1.6541738159552712E9, 0.0, 2022-06-02 14:43:35.955
73.0, -8383.781717274394, 8828.246155768175, -46028.20974924681, -38415.205587769226, -23281.398210692194, -21603.542161410114, -9572.89452229673, -10139.175968071935, 0.022, 0.916, 0.464, 192.0, 0.0, 0.0, 0.0, 0.0, 0.0, 0.0, 0.0, 0.0, 0.0, 1.6541738159552777E9, 0.0, 2022-06-02 14:43:35.955
74.0, -8385.703967297552, 8828.626135423916, -46025.460484678806, -38409.192968510746, -23283.18635024862, -21591.919254293356, -9580.538818900444, -10113.896145092982, 0.022, 0.916, 0.464, 192.0, 0.0, 0.0, 0.0, 0.0, 0.0, 0.0, 0.0, 0.0, 0.0, 1.6541738159552832E9, 0.0, 2022-06-02 14:43:35.955
75.0, -8389.32494989931, 8819.573678919516, -46039.81030461911, -38428.14724780885, -23304.733431903536, -21606.358481211482, -9610.914839615207, -10119.461729462353, 0.022, 0.916, 0.464, 192.0, 0.0, 0.0, 0.0, 0.0, 0.0, 0.0, 0.0, 0.0, 0.0, 1.6541738159552884E9, 0.0, 2022-06-02 14:43:35.955
76.0, -8405.954647774059, 8799.568867632017, -46067.92879914389, -38458.00917840114, -23335.42237704067, -21640.08726359454, -9639.86034868483, -10157.996136903303, 0.022, 0.916, 0.464, 192.0, 0.0, 0.0, 0.0, 0.0, 0.0, 0.0, 0.0, 0.0, 0.0, 1.6541738159552941E9, 0.0, 2022-06-02 14:43:35.955
77.0, -8398.936200015092, 8807.50373691365, -46060.95505487383, -38448.66614921882, -23328.515688003983, -21632.71118792429, -9650.455075556645, -10158.353764814588, 0.016, 0.914, 0.464, 192.0, 0.0, 128.0, 28.0, 144.0, 14.0, 128.0, 0.0, 0.0, 0.0, 1.6541738159553013E9, 0.0, 2022-06-02 14:43:35.955
78.0, -8368.604882789241, 8838.75147566217, -46013.72581883977, -38401.59337539594, -23278.537187401915, -21586.063097246064, -9597.99553132004, -10120.735778896305, 0.016, 0.914, 0.464, 192.0, 0.0, 0.0, 0.0, 0.0, 0.0, 0.0, 0.0, 0.0, 0.0, 1.6541738159553068E9, 0.0, 2022-06-02 14:43:35.955
79.0, -8358.211321617522, 8846.775751921625, -46001.16413845589, -38392.183290980254, -23264.142663972696, -21576.9435855083, -9564.46791463708, -10123.820319631139, 0.016, 0.914, 0.464, 192.0, 0.0, 0.0, 0.0, 0.0, 0.0, 0.0, 0.0, 0.0, 0.0, 1.6541738159553123E9, 0.0, 2022-06-02 14:43:35.955
80.0, -8382.105336440247, 8822.41235046534, -46040.92789184188, -38432.259968788625, -23308.46617322757, -21614.18159177084, -9607.204450035626, -10142.305212295678, 0.016, 0.914, 0.464, 192.0, 0.0, 0.0, 0.0, 0.0, 0.0, 0.0, 0.0, 0.0, 0.0, 1.654173815955318E9, 0.0, 2022-06-02 14:43:35.955
81.0, -8379.244313149968, 8823.865213854935, -46046.426420977885, -38440.19483807026, -23316.8033739094, -21617.064966805574, -9631.634906725278, -10155.358631057577, 0.016, 0.914, 0.464, 192.0, 0.0, 0.0, 0.0, 0.0, 0.0, 0.0, 0.0, 0.0, 0.0, 1.654173815955327E9, 0.0, 2022-06-02 14:43:35.955
82.0, -8376.427993348598, 8833.118836059431, -46032.993022560244, -38432.93052112228, -23303.90641735869, -21612.125231280952, -9636.418180038712, -10151.357668800078, 0.016, 0.914, 0.464, 192.0, 0.0, 0.0, 0.0, 0.0, 0.0, 0.0, 0.0, 0.0, 0.0, 1.6541738159553337E9, 0.0, 2022-06-02 14:43:35.955
83.0, -8369.074269422803, 8849.614423467448, -46009.657801348905, -38396.47482591568, -23275.56440538936, -21591.829847315534, -9589.300702726925, -10144.965069885859, 0.016, 0.914, 0.464, 192.0, 0.0, 0.0, 0.0, 0.0, 0.0, 0.0, 0.0, 0.0, 0.0, 1.6541738159553392E9, 0.0, 2022-06-02 14:43:35.955
84.0, -8358.479542550987, 8858.264548571653, -45998.41487388789, -38388.83052931196, -23263.717980828045, -21591.60632987098, -9542.116170181773, -10131.486967979308, 0.016, 0.914, 0.464, 192.0, 0.0, 0.0, 0.0, 0.0, 0.0, 0.0, 0.0, 0.0, 0.0, 1.6541738159553444E9, 0.0, 2022-06-02 14:43:35.955
85.0, -8361.69819375255, 8849.99440312319, -46012.60823161701, -38408.70123013273, -23282.426390937137, -21608.03486204563, -9582.617531134789, -10135.085598836613, 0.016, 0.914, 0.464, 192.0, 0.0, 0.0, 0.0, 0.0, 0.0, 0.0, 0.0, 0.0, 0.0, 1.65417381595535E9, 0.0, 2022-06-02 14:43:35.955
86.0, -8383.200571918556, 8824.759283633148, -46044.90650235493, -38437.13264907988, -23315.86460064228, -21630.833641390043, -9629.28797355747, -10143.66866870745, 0.016, 0.914, 0.464, 192.0, 0.0, 0.0, 0.0, 0.0, 0.0, 0.0, 0.0, 0.0, 0.0, 1.6541738159553592E9, 0.0, 2022-06-02 14:43:35.955
87.0, -8381.2783218954, 8820.9818388202, -46048.32631925659, -38434.2716257896, -23318.77032742147, -21627.592638444024, -9646.945851677163, -10135.063247092157, 0.01, 0.914, 0.468, 192.0, 0.0, 80.0, 28.0, 144.0, 14.0, 160.0, 0.0, 0.0, 0.0, 1.6541738159553647E9, 0.0, 2022-06-02 14:43:35.955
88.0, -8354.61269076022, 8851.648432212882, -46009.501339137714, -38392.27269795808, -23275.474998411537, -21586.35366992398, -9597.928476086674, -10108.397615956977, 0.01, 0.914, 0.468, 192.0, 0.0, 0.0, 0.0, 0.0, 0.0, 0.0, 0.0, 0.0, 0.0, 1.6541738159553697E9, 0.0, 2022-06-02 14:43:35.955
89.0, -8329.466978247998, 8879.811630226568, -45971.43631833033, -38361.561401076484, -23244.249611407475, -21557.9893062102, -9537.824635246354, -10070.220836427312, 0.01, 0.914, 0.468, 192.0, 0.0, 0.0, 0.0, 0.0, 0.0, 0.0, 0.0, 0.0, 0.0, 1.6541738159553747E9, 0.0, 2022-06-02 14:43:35.955
90.0, -8350.030583146881, 8861.907882917867, -45999.13012971045, -38390.32809619047, -23273.575100132835, -21584.051440245086, -9564.780839059453, -10093.690168105384, 0.01, 0.914, 0.468, 192.0, 0.0, 0.0, 0.0, 0.0, 0.0, 0.0, 0.0, 0.0, 0.0, 1.65417381595538E9, 0.0, 2022-06-02 14:43:35.955
91.0, -8375.08688868128, 8833.498815715173, -46042.11253429801, -38430.89651237685, -23315.19404830862, -21626.631513432447, -9628.215089823614, -10141.00881111727, 0.01, 0.914, 0.468, 192.0, 0.0, 0.0, 0.0, 0.0, 0.0, 0.0, 0.0, 0.0, 0.0, 1.6541738159553852E9, 0.0, 2022-06-02 14:43:35.955
92.0, -8369.923635712104, 8836.158673305354, -46043.274825009685, -38427.61080594192, -23309.94138836162, -21622.116461052476, -9609.886659370262, -10156.990308402814, 0.01, 0.914, 0.468, 192.0, 0.0, 0.0, 0.0, 0.0, 0.0, 0.0, 0.0, 0.0, 0.0, 1.6541738159553905E9, 0.0, 2022-06-02 14:43:35.955
93.0, -8346.096676122746, 8869.261606843664, -46003.91340302389, -38380.82860479696, -23264.03090525042, -21571.579166839027, -9548.84404526282, -10111.28099099171, 0.01, 0.914, 0.468, 192.0, 0.0, 0.0, 0.0, 0.0, 0.0, 0.0, 0.0, 0.0, 0.0, 1.6541738159553955E9, 0.0, 2022-06-02 14:43:35.955
94.0, -8332.775036427383, 8880.66099651587, -45991.105853451, -38365.919991245275, -23256.23014643552, -21558.79396901059, -9536.595289301311, -10094.51718265023, 0.01, 0.914, 0.468, 192.0, 0.0, 0.0, 0.0, 0.0, 0.0, 0.0, 0.0, 0.0, 0.0, 1.6541738159554007E9, 0.0, 2022-06-02 14:43:35.955
95.0, -8352.64573724815, 8853.03424036911, -46029.32733646958, -38408.142436521346, -23298.765516133968, -21601.508152664683, -9601.6165139218, -10147.982555387325, 0.01, 0.914, 0.468, 192.0, 0.0, 0.0, 0.0, 0.0, 0.0, 0.0, 0.0, 0.0, 0.0, 1.6541738159554057E9, 0.0, 2022-06-02 14:43:35.955
96.0, -8382.954702729548, 8822.32294348752, -46072.04152012367, -38450.0743091195, -23341.077368387865, -21645.898717152922, -9660.62511928381, -10199.011587978792, 0.01, 0.914, 0.468, 192.0, 0.0, 0.0, 0.0, 0.0, 0.0, 0.0, 0.0, 0.0, 0.0, 1.654173815955411E9, 0.0, 2022-06-02 14:43:35.955
97.0, -8381.054804450847, 8829.296687757575, -46064.06194735312, -38429.48835247617, -23328.582743237348, -21628.08437682204, -9651.885587201785, -10161.997099160802, 0.018000000000000002, 0.912, 0.466, 192.0, 0.0, 144.0, 28.0, 128.0, 14.0, 144.0, 0.0, 0.0, 0.0, 1.654173815955416E9, 0.0, 2022-06-02 14:43:35.955
98.0, -8371.3764991017, 8848.832112411514, -46028.99206030274, -38393.70320960322, -23286.762629361467, -21596.009623528676, -9600.878906354774, -10126.279011521223, 0.018000000000000002, 0.912, 0.466, 192.0, 0.0, 0.0, 0.0, 0.0, 0.0, 0.0, 0.0, 0.0, 0.0, 1.6541738159554214E9, 0.0, 2022-06-02 14:43:35.955
99.0, -8362.167580386113, 8864.344223063496, -46012.04943800562, -38379.55455536301, -23263.516815127947, -21581.928024521832, -9568.759449572499, -10091.052662259659, 0.018000000000000002, 0.912, 0.466, 192.0, 0.0, 0.0, 0.0, 0.0, 0.0, 0.0, 0.0, 0.0, 0.0, 1.6541738159554265E9, 0.0, 2022-06-02 14:43:35.955
100.0, -8377.210304404534, 8837.052743083566, -46050.31562451311, -38422.78282913957, -23305.918074359666, -21614.09218479302, -9600.029540065472, -10129.229441789323, 0.018000000000000002, 0.912, 0.466, 192.0, 0.0, 0.0, 0.0, 0.0, 0.0, 0.0, 0.0, 0.0, 0.0, 1.654173815955432E9, 0.0, 2022-06-02 14:43:35.955
101.0, -8391.873048767215, 8814.812757350535, -46081.18338360589, -38454.74582371066, -23339.356284064805, -21639.819042661078, -9634.786502693476, -10165.662785251474, 0.018000000000000002, 0.912, 0.466, 192.0, 0.0, 0.0, 0.0, 0.0, 0.0, 0.0, 0.0, 0.0, 0.0, 1.6541738159554372E9, 0.0, 2022-06-02 14:43:35.955
102.0, -8382.708833540539, 8827.039161567589, -46064.28546479767, -38437.89260839136, -23321.318426289374, -21622.272923263663, -9626.158729333727, -10159.001965403791, 0.018000000000000002, 0.912, 0.466, 192.0, 0.0, 0.0, 0.0, 0.0, 0.0, 0.0, 0.0, 0.0, 0.0, 1.6541738159554422E9, 0.0, 2022-06-02 14:43:35.955
103.0, -8370.66124327913, 8843.758266420158, -46038.178627273875, -38408.835340599464, -23288.32725147334, -21598.200094485295, -9604.812813378909, -10139.734761683318, 0.018000000000000002, 0.912, 0.466, 192.0, 0.0, 0.0, 0.0, 0.0, 0.0, 0.0, 0.0, 0.0, 0.0, 1.6541738159554474E9, 0.0, 2022-06-02 14:43:35.955
104.0, -8365.520342054408, 8845.300536787574, -46033.775333616184, -38404.23088124167, -23283.007536292975, -21593.41682117186, -9588.943074815641, -10108.665836890441, 0.018000000000000002, 0.912, 0.466, 192.0, 0.0, 0.0, 0.0, 0.0, 0.0, 0.0, 0.0, 0.0, 0.0, 1.6541738159554524E9, 0.0, 2022-06-02 14:43:35.955
105.0, -8380.98774921748, 8832.738856403692, -46056.48470598277, -38429.64481468735, -23305.56044644838, -21618.51783019517, -9602.37647323328, -10140.472369250343, 0.018000000000000002, 0.912, 0.466, 192.0, 0.0, 0.0, 0.0, 0.0, 0.0, 0.0, 0.0, 0.0, 0.0, 1.6541738159554577E9, 0.0, 2022-06-02 14:43:35.955
106.0, -8398.533868614897, 8808.241344480675, -46092.51571804473, -38465.876992449404, -23341.56910676588, -21654.0124003902, -9650.522130790012, -10200.620913579574, 0.018000000000000002, 0.906, 0.466, 192.0, 0.0, 144.0, 28.0, 80.0, 14.0, 144.0, 0.0, 0.0, 0.0, 1.6541738159554627E9, 0.0, 2022-06-02 14:43:35.955
107.0, -8378.976092216502, 8820.199527764265, -46104.27273562822, -38473.40953033084, -23346.7100079906, -21667.266984852195, -9643.213110353126, -10200.710320557395, 0.018000000000000002, 0.906, 0.466, 192.0, 0.0, 0.0, 0.0, 0.0, 0.0, 0.0, 0.0, 0.0, 0.0, 1.6541738159554703E9, 0.0, 2022-06-02 14:43:35.955
108.0, -8356.110257638724, 8852.117818846444, -46062.38556651898, -38421.39702098334, -23298.162019033673, -21615.410937715882, -9584.249208480025, -10124.96025859836, 0.018000000000000002, 0.906, 0.466, 192.0, 0.0, 0.0, 0.0, 0.0, 0.0, 0.0, 0.0, 0.0, 0.0, 1.654173815955475E9, 0.0, 2022-06-02 14:43:35.955
109.0, -8377.009138704436, 8839.846711140479, -46033.216540004796, -38393.63615436985, -23275.631460622724, -21585.9960420127, -9581.94697880113, -10080.94967376586, 0.018000000000000002, 0.906, 0.466, 192.0, 0.0, 0.0, 0.0, 0.0, 0.0, 0.0, 0.0, 0.0, 0.0, 1.6541738159554803E9, 0.0, 2022-06-02 14:43:35.955
110.0, -8387.939141743082, 8819.21605100823, -46055.50122922674, -38423.1181053064, -23301.380670235238, -21608.23602774573, -9616.547479217945, -10125.47434872083, 0.018000000000000002, 0.906, 0.466, 192.0, 0.0, 0.0, 0.0, 0.0, 0.0, 0.0, 0.0, 0.0, 0.0, 1.6541738159554856E9, 0.0, 2022-06-02 14:43:35.955
111.0, -8414.917697300638, 8782.73800405717, -46097.92484020291, -38468.961533184236, -23345.503013790014, -21649.65381022141, -9642.184930108182, -10174.715241755872, 0.018000000000000002, 0.906, 0.466, 192.0, 0.0, 0.0, 0.0, 0.0, 0.0, 0.0, 0.0, 0.0, 0.0, 1.654173815955491E9, 0.0, 2022-06-02 14:43:35.955
112.0, -8418.829252580315, 8781.866286023413, -46090.23584011028, -38463.28419009259, -23339.33393232035, -21645.228164819262, -9609.394920992247, -10157.81732294766, 0.018000000000000002, 0.906, 0.466, 192.0, 0.0, 0.0, 0.0, 0.0, 0.0, 0.0, 0.0, 0.0, 0.0, 1.6541738159554963E9, 0.0, 2022-06-02 14:43:35.955
113.0, -8400.210249449045, 8799.79238507657, -46048.14750530094, -38411.9645848232, -23290.204798007584, -21597.373079940447, -9566.144295471227, -10098.026406529714, 0.018000000000000002, 0.906, 0.466, 192.0, 0.0, 0.0, 0.0, 0.0, 0.0, 0.0, 0.0, 0.0, 0.0, 1.654173815955502E9, 0.0, 2022-06-02 14:43:35.955
114.0, -8389.302598154854, 8821.920612087324, -46019.090237509045, -38385.85774729941, -23257.70536156957, -21567.958184237265, -9547.569995828868, -10077.127525464002, 0.018000000000000002, 0.906, 0.466, 192.0, 0.0, 0.0, 0.0, 0.0, 0.0, 0.0, 0.0, 0.0, 0.0, 1.6541738159555073E9, 0.0, 2022-06-02 14:43:35.955
115.0, -8437.358848733766, 8786.135469214376, -46065.60421772054, -38435.14334382336, -23306.745088904514, -21618.294312750615, -9611.607743693321, -10126.167252798945, 0.018000000000000002, 0.906, 0.466, 192.0, 0.0, 0.0, 0.0, 0.0, 0.0, 0.0, 0.0, 0.0, 0.0, 1.6541738159555123E9, 0.0, 2022-06-02 14:43:35.955
116.0, -8480.609474254785, 8741.029648903566, -46104.853880984054, -38477.94693445527, -23350.33099059236, -21662.170787116385, -9668.783506009997, -10168.523808541753, 0.02, 0.914, 0.47200000000000003, 192.0, 0.0, 160.0, 28.0, 144.0, 14.0, 192.0, 0.0, 0.0, 0.0, 1.6541738159555175E9, 0.0, 2022-06-02 14:43:35.955
117.0, -8471.24409332801, 8742.393105315341, -46097.321343102616, -38462.05484414755, -23332.628408983757, -21645.76460668619, -9642.810778952931, -10168.188532374923, 0.02, 0.914, 0.47200000000000003, 192.0, 0.0, 0.0, 0.0, 0.0, 0.0, 0.0, 0.0, 0.0, 0.0, 1.6541738159555228E9, 0.0, 2022-06-02 14:43:35.955
118.0, -8451.52985471843, 8760.363907857407, -46057.13290657198, -38414.13270403537, -23283.678088626635, -21598.110687507473, -9573.296853696926, -10114.790214871195, 0.02, 0.914, 0.47200000000000003, 192.0, 0.0, 0.0, 0.0, 0.0, 0.0, 0.0, 0.0, 0.0, 0.0, 1.654173815955528E9, 0.0, 2022-06-02 14:43:35.955
119.0, -8459.174151322146, 8759.626300290383, -46055.43417399337, -38413.08217204597, -23283.342812459807, -21594.55676013908, -9565.026708248462, -10108.375264212522, 0.02, 0.914, 0.47200000000000003, 192.0, 0.0, 0.0, 0.0, 0.0, 0.0, 0.0, 0.0, 0.0, 0.0, 1.6541738159555335E9, 0.0, 2022-06-02 14:43:35.955
120.0, -8458.43654375512, 8752.697259509237, -46077.8753254265, -38437.60203571344, -23309.002615094498, -21622.98817908623, -9606.310380257413, -10134.325639525132, 0.02, 0.914, 0.47200000000000003, 192.0, 0.0, 0.0, 0.0, 0.0, 0.0, 0.0, 0.0, 0.0, 0.0, 1.6541738159555387E9, 0.0, 2022-06-02 14:43:35.955
121.0, -8477.860209686782, 8731.843081932437, -46105.32326761762, -38468.961533184236, -23335.176507851662, -21653.05127537862, -9638.496892273057, -10165.081639895636, 0.02, 0.914, 0.47200000000000003, 192.0, 0.0, 0.0, 0.0, 0.0, 0.0, 0.0, 0.0, 0.0, 0.0, 1.6541738164341407E9, 0.0, 2022-06-02 14:43:36.434
122.0, -8483.515201033975, 8734.905270922813, -46108.228994396806, -38473.40953033084, -23336.42820554116, -21656.225223091275, -9636.641697483266, -10162.82411370565, 0.02, 0.914, 0.47200000000000003, 192.0, 0.0, 0.0, 0.0, 0.0, 0.0, 0.0, 0.0, 0.0, 0.0, 1.6541738164342966E9, 0.0, 2022-06-02 14:43:36.434
123.0, -8451.976889607537, 8765.281291637575, -46066.94532238786, -38430.225960043186, -23294.786905620924, -21616.059138305085, -9593.480478940068, -10113.1361857815, 0.02, 0.914, 0.47200000000000003, 192.0, 0.0, 0.0, 0.0, 0.0, 0.0, 0.0, 0.0, 0.0, 0.0, 1.6541738164343076E9, 0.0, 2022-06-02 14:43:36.434
124.0, -8411.453176910065, 8808.21899273622, -46026.62277539048, -38387.310610689, -23255.22431793503, -21576.31773666355, -9551.101571452806, -10079.608569098542, 0.02, 0.914, 0.47200000000000003, 192.0, 0.0, 0.0, 0.0, 0.0, 0.0, 0.0, 0.0, 0.0, 0.0, 1.6541738164343147E9, 0.0, 2022-06-02 14:43:36.434
125.0, -8434.47547369903, 8771.36096612942, -46070.87922941199, -38440.775983426094, -23306.409812737682, -21626.005664587698, -9611.987723349062, -10144.026296618737, 0.02, 0.914, 0.47200000000000003, 192.0, 0.0, 0.0, 0.0, 0.0, 0.0, 0.0, 0.0, 0.0, 0.0, 1.6541738164343233E9, 0.0, 2022-06-02 14:43:36.434
126.0, -8460.224683311544, 8747.757523984614, -46096.60608728005, -38467.10633839445, -23333.589533995335, -21655.219394590786, -9634.898261415752, -10174.759945244783, 0.022, 0.916, 0.47000000000000003, 192.0, 0.0, 176.0, 28.0, 160.0, 14.0, 176.0, 0.0, 0.0, 0.0, 1.6541738164343345E9, 0.0, 2022-06-02 14:43:36.434
127.0, -8460.917587389658, 8749.612718774404, -46097.053122169156, -38457.919771423316, -23330.348531049316, -21652.850109678522, -9623.655333954732, -10180.102012169602, 0.022, 0.916, 0.47000000000000003, 192.0, 0.0, 0.0, 0.0, 0.0, 0.0, 0.0, 0.0, 0.0, 0.0, 1.6541738164343429E9, 0.0, 2022-06-02 14:43:36.434
128.0, -8416.862299068249, 8788.057719237533, -46044.481819210276, -38404.02971554157, -23274.066838510855, -21604.346824210505, -9569.89938853972, -10148.250776320789, 0.022, 0.916, 0.47000000000000003, 192.0, 0.0, 0.0, 0.0, 0.0, 0.0, 0.0, 0.0, 0.0, 0.0, 1.654173816434428E9, 0.0, 2022-06-02 14:43:36.434
129.0, -8399.271476181922, 8807.995475291667, -46027.695659124336, -38392.09388400244, -23254.8890417682, -21590.75696358168, -9557.471818622567, -10140.070037850146, 0.022, 0.916, 0.47000000000000003, 192.0, 0.0, 0.0, 0.0, 0.0, 0.0, 0.0, 0.0, 0.0, 0.0, 1.6541738164344351E9, 0.0, 2022-06-02 14:43:36.434
130.0, -8430.76508411945, 8780.771050545103, -46069.716938700316, -38434.74101242316, -23302.051222568898, -21624.508097709193, -9620.19081356416, -10136.650220948484, 0.022, 0.916, 0.47000000000000003, 192.0, 0.0, 0.0, 0.0, 0.0, 0.0, 0.0, 0.0, 0.0, 0.0, 1.654173816434442E9, 0.0, 2022-06-02 14:43:36.434
131.0, -8447.48418897202, 8758.933396212267, -46104.96563970633, -38467.59807677246, -23340.94325792113, -21651.66546722239, -9653.76313373603, -10145.143883841502, 0.022, 0.916, 0.47000000000000003, 192.0, 0.0, 0.0, 0.0, 0.0, 0.0, 0.0, 0.0, 0.0, 0.0, 1.6541738164344485E9, 0.0, 2022-06-02 14:43:36.434
132.0, -8437.180034778123, 8770.243378906653, -46094.14739538996, -38449.06848061901, -23322.23484781204, -21637.650923448913, -9620.280220541981, -10137.968973871348, 0.022, 0.916, 0.47000000000000003, 192.0, 0.0, 0.0, 0.0, 0.0, 0.0, 0.0, 0.0, 0.0, 0.0, 1.6541738164344568E9, 0.0, 2022-06-02 14:43:36.434
133.0, -8400.992560504981, 8809.537745659083, -46044.86179886601, -38396.92186080478, -23270.244690208994, -21588.007699013677, -9594.910990585207, -10101.625037387019, 0.022, 0.916, 0.47000000000000003, 192.0, 0.0, 0.0, 0.0, 0.0, 0.0, 0.0, 0.0, 0.0, 0.0, 1.6541738164344647E9, 0.0, 2022-06-02 14:43:36.434
134.0, -8398.198592448067, 8814.544536417072, -46039.07269705209, -38393.63615436985, -23268.858882052766, -21581.480989632724, -9598.174345275682, -10079.340348165077, 0.022, 0.916, 0.47000000000000003, 192.0, 0.0, 0.0, 0.0, 0.0, 0.0, 0.0, 0.0, 0.0, 0.0, 1.654173816434474E9, 0.0, 2022-06-02 14:43:36.434
135.0, -8417.041113023892, 8796.819603064014, -46067.21354332132, -38425.24152102965, -23295.636271910225, -21610.135926024428, -9591.55822891691, -10110.632790402507, 0.022, 0.916, 0.47000000000000003, 192.0, 0.0, 0.0, 0.0, 0.0, 0.0, 0.0, 0.0, 0.0, 0.0, 1.6541738164344811E9, 0.0, 2022-06-02 14:43:36.434
136.0, -8420.371522947731, 8793.511544884628, -46078.70233997135, -38440.03837585907, -23303.057051069387, -21626.13977505443, -9613.060607082916, -10145.613270475063, 0.016, 0.926, 0.47600000000000003, 192.0, 0.0, 128.0, 28.0, 240.0, 14.0, 224.0, 0.0, 0.0, 0.0, 1.6541738164344888E9, 0.0, 2022-06-02 14:43:36.434
137.0, -8407.206345463555, 8801.155841488344, -46067.481764254786, -38428.951910609234, -23296.530341688438, -21611.544085925114, -9625.041142110962, -10124.490871964797, 0.016, 0.926, 0.47600000000000003, 192.0, 0.0, 0.0, 0.0, 0.0, 0.0, 0.0, 0.0, 0.0, 0.0, 1.6541738164344945E9, 0.0, 2022-06-02 14:43:36.434
138.0, -8394.242333679478, 8812.041141038078, -46038.84917960753, -38397.301840460525, -23267.36131517426, -21580.877492532432, -9587.490211426046, -10102.42970018741, 0.016, 0.926, 0.47600000000000003, 192.0, 0.0, 0.0, 0.0, 0.0, 0.0, 0.0, 0.0, 0.0, 0.0, 1.6541738164345043E9, 0.0, 2022-06-02 14:43:36.434
139.0, -8396.902191269659, 8814.008094550145, -46026.086333523555, -38392.563270636, -23256.811291791357, -21574.395486640395, -9558.052963978405, -10097.065281518137, 0.016, 0.926, 0.47600000000000003, 192.0, 0.0, 0.0, 0.0, 0.0, 0.0, 0.0, 0.0, 0.0, 0.0, 1.6541738164345102E9, 0.0, 2022-06-02 14:43:36.434
140.0, -8417.890479313193, 8795.523201885606, -46051.70143266934, -38431.87998913288, -23281.398210692194, -21607.453716689794, -9556.51069361099, -10124.200299286878, 0.016, 0.926, 0.47600000000000003, 192.0, 0.0, 0.0, 0.0, 0.0, 0.0, 0.0, 0.0, 0.0, 0.0, 1.6541738164345174E9, 0.0, 2022-06-02 14:43:36.434
141.0, -8439.057581312369, 8771.87505625189, -46084.13381387399, -38458.45621329024, -23321.56429547838, -21639.751987427713, -9594.799231862931, -10125.47434872083, 0.016, 0.926, 0.47600000000000003, 192.0, 0.0, 0.0, 0.0, 0.0, 0.0, 0.0, 0.0, 0.0, 0.0, 1.6541738164345272E9, 0.0, 2022-06-02 14:43:36.434
142.0, -8427.747598617983, 8779.273483666597, -46072.89088641297, -38441.826515415494, -23311.7518796625, -21623.770490142168, -9584.740946858043, -10105.782461855706, 0.016, 0.926, 0.47600000000000003, 192.0, 0.0, 0.0, 0.0, 0.0, 0.0, 0.0, 0.0, 0.0, 0.0, 1.654173816434533E9, 0.0, 2022-06-02 14:43:36.434
143.0, -8407.541621630386, 8806.274390968609, -46033.79768536064, -38401.52632016258, -23272.636326865715, -21578.776428553632, -9548.061734206884, -10067.337461392577, 0.016, 0.926, 0.47600000000000003, 192.0, 0.0, 0.0, 0.0, 0.0, 0.0, 0.0, 0.0, 0.0, 0.0, 1.6541738164345448E9, 0.0, 2022-06-02 14:43:36.434
144.0, -8408.525098386419, 8804.821527579013, -46024.119380011485, -38399.246442228134, -23268.635364608213, -21572.36147789496, -9563.775010558964, -10066.823371270106, 0.016, 0.926, 0.47600000000000003, 192.0, 0.0, 0.0, 0.0, 0.0, 0.0, 0.0, 0.0, 0.0, 0.0, 1.654173816434553E9, 0.0, 2022-06-02 14:43:36.434
145.0, -8420.125653758723, 8783.810887791025, -46052.48374372527, -38437.95966362472, -23302.85588536929, -21608.57130391256, -9616.882755384775, -10116.108967794058, 0.016, 0.926, 0.47600000000000003, 192.0, 0.0, 0.0, 0.0, 0.0, 0.0, 0.0, 0.0, 0.0, 0.0, 1.6541738164345608E9, 0.0, 2022-06-02 14:43:36.434
146.0, -8419.432749680609, 8778.82644877749, -46073.11440385752, -38460.80314645805, -23324.85000191331, -21632.107690823996, -9644.487159787079, -10155.112761868568, 0.016, 0.924, 0.47400000000000003, 192.0, 0.0, 128.0, 28.0, 224.0, 14.0, 208.0, 0.0, 0.0, 0.0, 1.6541738164345703E9, 0.0, 2022-06-02 14:43:36.434
147.0, -8411.788453076893, 8797.668969353315, -46060.03863335116, -38446.028643373094, -23313.76353666348, -21621.89294360792, -9641.559081263433, -10144.048648363192, 0.016, 0.924, 0.47400000000000003, 192.0, 0.0, 0.0, 0.0, 0.0, 0.0, 0.0, 0.0, 0.0, 0.0, 1.6541738164345765E9, 0.0, 2022-06-02 14:43:36.434
148.0, -8412.101377499268, 8810.32005671502, -46030.9143103259, -38415.98789882516, -23288.50606542898, -21591.56162638207, -9602.28706625546, -10097.221743729324, 0.016, 0.924, 0.47400000000000003, 192.0, 0.0, 0.0, 0.0, 0.0, 0.0, 0.0, 0.0, 0.0, 0.0, 1.654173816434585E9, 0.0, 2022-06-02 14:43:36.434
149.0, -8396.276342424911, 8828.112045301443, -45996.76084479819, -38386.684761844255, -23257.70536156957, -21558.481044588214, -9538.763408513476, -10067.158647436936, 0.016, 0.924, 0.47400000000000003, 192.0, 0.0, 0.0, 0.0, 0.0, 0.0, 0.0, 0.0, 0.0, 0.0, 1.654173816434594E9, 0.0, 2022-06-02 14:43:36.434
150.0, -8410.581458876308, 8814.455129439251, -46013.435246161855, -38415.205587769226, -23281.95700430358, -21582.777390811134, -9570.70405134011, -10101.021540286725, 0.016, 0.924, 0.47400000000000003, 192.0, 0.0, 0.0, 0.0, 0.0, 0.0, 0.0, 0.0, 0.0, 0.0, 1.6541738164346104E9, 0.0, 2022-06-02 14:43:36.434
151.0, -8428.664020140652, 8786.26957968111, -46052.32728151409, -38456.91394292282, -23331.354359549805, -21629.023150089164, -9631.456092769635, -10156.744439213806, 0.016, 0.924, 0.47400000000000003, 192.0, 0.0, 0.0, 0.0, 0.0, 0.0, 0.0, 0.0, 0.0, 0.0, 1.6541738164346173E9, 0.0, 2022-06-02 14:43:36.434
152.0, -8414.403607178165, 8786.224876192198, -46046.53817970016, -38448.3755765409, -23324.648836213215, -21628.15143205541, -9627.343371789859, -10154.643375235008, 0.016, 0.924, 0.47400000000000003, 192.0, 0.0, 0.0, 0.0, 0.0, 0.0, 0.0, 0.0, 0.0, 0.0, 1.6541738164346266E9, 0.0, 2022-06-02 14:43:36.434
153.0, -8400.724339571518, 8811.862327082436, -46012.094141494534, -38411.83047435647, -23287.70140262859, -21592.18747522682, -9596.60972316381, -10097.825240829616, 0.016, 0.924, 0.47400000000000003, 192.0, 0.0, 0.0, 0.0, 0.0, 0.0, 0.0, 0.0, 0.0, 0.0, 1.6541738164346344E9, 0.0, 2022-06-02 14:43:36.434
154.0, -8383.80406901885, 8833.074132570522, -45990.39059762843, -38390.95394503522, -23266.31078318486, -21567.980535981722, -9586.37262420328, -10082.223723199812, 0.016, 0.924, 0.47400000000000003, 192.0, 0.0, 0.0, 0.0, 0.0, 0.0, 0.0, 0.0, 0.0, 0.0, 1.654173816434641E9, 0.0, 2022-06-02 14:43:36.434
155.0, -8399.673807582118, 8813.672818383315, -46016.96682178579, -38424.816837885, -23295.479809699038, -21596.32254795105, -9603.225839522582, -10126.994267343793, 0.016, 0.924, 0.47400000000000003, 192.0, 0.0, 0.0, 0.0, 0.0, 0.0, 0.0, 0.0, 0.0, 0.0, 1.6541738164346511E9, 0.0, 2022-06-02 14:43:36.434
156.0, -8433.737866132005, 8779.228780177687, -46056.149429815945, -38474.10243440896, -23334.483603773548, -21637.13683332644, -9626.04697061145, -10160.879511938037, 0.02, 0.918, 0.47000000000000003, 192.0, 0.0, 160.0, 28.0, 176.0, 14.0, 176.0, 0.0, 0.0, 0.0, 1.6541738164346657E9, 0.0, 2022-06-02 14:43:36.434
157.0, -8436.576537677829, 8774.423155119795, -46060.44096475136, -38469.788547729084, -23339.28922883144, -21637.963847871288, -9642.631964997288, -10177.196285390412, 0.02, 0.918, 0.47000000000000003, 192.0, 0.0, 0.0, 0.0, 0.0, 0.0, 0.0, 0.0, 0.0, 0.0, 1.6541738164346745E9, 0.0, 2022-06-02 14:43:36.434
158.0, -8403.294790183878, 8806.877888068902, -46017.07858050807, -38421.486427961165, -23293.065821297863, -21592.031013015632, -9622.068360098405, -10146.037953619714, 0.02, 0.918, 0.47000000000000003, 192.0, 0.0, 0.0, 0.0, 0.0, 0.0, 0.0, 0.0, 0.0, 0.0, 1.654173816434682E9, 0.0, 2022-06-02 14:43:36.434
159.0, -8378.03731894938, 8840.539615218595, -45988.42364411636, -38395.692514859744, -23264.7908645619, -21567.55585283707, -9593.27931323997, -10133.833901147116, 0.02, 0.918, 0.47000000000000003, 192.0, 0.0, 0.0, 0.0, 0.0, 0.0, 0.0, 0.0, 0.0, 0.0, 1.654173816434696E9, 0.0, 2022-06-02 14:43:36.434
160.0, -8382.887647496182, 8831.196586036276, -46015.71512409629, -38422.31344250601, -23293.825780609346, -21593.439172916314, -9605.349255245836, -10145.032125119225, 0.02, 0.918, 0.47000000000000003, 192.0, 0.0, 0.0, 0.0, 0.0, 0.0, 0.0, 0.0, 0.0, 0.0, 1.6541738164347043E9, 0.0, 2022-06-02 14:43:36.434
161.0, -8425.400665450175, 8798.78655657608, -46044.97355758829, -38447.39209978487, -23323.397138523716, -21618.204905772796, -9621.107235086827, -10110.453976446865, 0.02, 0.918, 0.47000000000000003, 192.0, 0.0, 0.0, 0.0, 0.0, 0.0, 0.0, 0.0, 0.0, 0.0, 1.6541738164347112E9, 0.0, 2022-06-02 14:43:36.434
162.0, -8444.33259300382, 8783.766184302114, -46054.7189181708, -38450.767213197614, -23327.018121125475, -21619.32249299556, -9630.450264269146, -10104.24019148829, 0.02, 0.918, 0.47000000000000003, 192.0, 0.0, 0.0, 0.0, 0.0, 0.0, 0.0, 0.0, 0.0, 0.0, 1.6541738164347215E9, 0.0, 2022-06-02 14:43:36.434
163.0, -8411.810804821349, 8813.918687572323, -46016.02804851867, -38409.684706888766, -23287.52258867295, -21576.51890236365, -9630.114988102316, -10085.911761034939, 0.02, 0.918, 0.47000000000000003, 192.0, 0.0, 0.0, 0.0, 0.0, 0.0, 0.0, 0.0, 0.0, 0.0, 1.6541738164347308E9, 0.0, 2022-06-02 14:43:36.434
164.0, -8387.916789998626, 8831.17423429182, -45993.229269174255, -38390.48455840165, -23261.482806382515, -21555.038875942097, -9580.89644681173, -10070.690223060874, 0.02, 0.918, 0.47000000000000003, 192.0, 0.0, 0.0, 0.0, 0.0, 0.0, 0.0, 0.0, 0.0, 0.0, 1.6541738164347384E9, 0.0, 2022-06-02 14:43:36.434
165.0, -8407.183993719102, 8806.564963646528, -46031.78602835966, -38433.89164613386, -23303.191161536117, -21599.071812519054, -9582.170496245682, -10128.357723755566, 0.02, 0.918, 0.47000000000000003, 192.0, 0.0, 0.0, 0.0, 0.0, 0.0, 0.0, 0.0, 0.0, 0.0, 1.6541738164347467E9, 0.0, 2022-06-02 14:43:36.434
166.0, -8442.231529025023, 8773.462030108218, -46069.44871776685, -38477.835175732995, -23343.647819000224, -21643.19415607383, -9631.500796258546, -10173.016509177269, 0.02, 0.91, 0.466, 192.0, 0.0, 160.0, 28.0, 112.0, 14.0, 144.0, 0.0, 0.0, 0.0, 1.6541738164347548E9, 0.0, 2022-06-02 14:43:36.434
167.0, -8441.96330809156, 8771.02568996259, -46068.97933113329, -38472.873088463915, -23338.10458637531, -21637.76268217119, -9623.230650810081, -10164.142866628512, 0.02, 0.91, 0.466, 192.0, 0.0, 0.0, 0.0, 0.0, 0.0, 0.0, 0.0, 0.0, 0.0, 1.654173816434765E9, 0.0, 2022-06-02 14:43:36.434
168.0, -8418.561031646852, 8792.59512336196, -46035.40701096142, -38435.29980603454, -23300.441896968117, -21601.821077087054, -9574.41444091969, -10153.637546734519, 0.02, 0.91, 0.466, 192.0, 0.0, 0.0, 0.0, 0.0, 0.0, 0.0, 0.0, 0.0, 0.0, 1.6541738164347758E9, 0.0, 2022-06-02 14:43:36.434
169.0, -8405.976999518514, 8810.677684626304, -46010.93185078286, -38416.63609941436, -23277.08432401232, -21579.201111698283, -9565.764315815488, -10120.33344749611, 0.02, 0.91, 0.466, 192.0, 0.0, 0.0, 0.0, 0.0, 0.0, 0.0, 0.0, 0.0, 0.0, 1.6541738164347885E9, 0.0, 2022-06-02 14:43:36.434
170.0, -8412.816633321838, 8800.686454854782, -46033.6635748939, -38443.68171020529, -23305.068708070365, -21597.864818318467, -9607.226801780082, -10101.513278664743, 0.02, 0.91, 0.466, 192.0, 0.0, 0.0, 0.0, 0.0, 0.0, 0.0, 0.0, 0.0, 0.0, 1.6541738164348004E9, 0.0, 2022-06-02 14:43:36.434
171.0, -8431.770912619939, 8775.943073742757, -46070.052214867144, -38478.461024577744, -23344.363074822795, -21636.242763548227, -9647.258776099537, -10153.414029289965, 0.02, 0.91, 0.466, 192.0, 0.0, 0.0, 0.0, 0.0, 0.0, 0.0, 0.0, 0.0, 0.0, 1.6541738164348161E9, 0.0, 2022-06-02 14:43:36.434
172.0, -8429.938069574604, 8786.113117469922, -46063.346691530554, -38462.18895461428, -23338.886897431243, -21632.80059490211, -9641.916709174719, -10158.018488647758, 0.02, 0.91, 0.466, 192.0, 0.0, 0.0, 0.0, 0.0, 0.0, 0.0, 0.0, 0.0, 0.0, 1.6541738164348278E9, 0.0, 2022-06-02 14:43:36.434
173.0, -8428.105226529267, 8789.287065182574, -46046.58288318907, -38447.41445152932, -23321.18431582264, -21615.925027838355, -9628.371552034801, -10141.746418684295, 0.02, 0.91, 0.466, 192.0, 0.0, 0.0, 0.0, 0.0, 0.0, 0.0, 0.0, 0.0, 0.0, 1.6541738164348388E9, 0.0, 2022-06-02 14:43:36.434
174.0, -8418.024589779925, 8802.78751883358, -46019.805493331616, -38428.30371002003, -23295.926844588143, -21592.880379304934, -9604.14226104525, -10116.198374771879, 0.02, 0.91, 0.466, 192.0, 0.0, 0.0, 0.0, 0.0, 0.0, 0.0, 0.0, 0.0, 0.0, 1.6541738164348462E9, 0.0, 2022-06-02 14:43:36.434
175.0, -8420.125653758723, 8796.059643752533, -46028.72383936928, -38446.56508524002, -23312.221266296063, -21612.52756268115, -9614.960505361618, -10122.345104497088, 0.02, 0.91, 0.466, 192.0, 0.0, 0.0, 0.0, 0.0, 0.0, 0.0, 0.0, 0.0, 0.0, 1.654173816434854E9, 0.0, 2022-06-02 14:43:36.434
176.0, -8433.067313798347, 8778.580579588483, -46053.690737925856, -38472.49310880817, -23340.71974047658, -21639.103786838506, -9639.972107407106, -10155.2468723353, 0.024, 0.92, 0.47000000000000003, 192.0, 0.0, 192.0, 28.0, 192.0, 14.0, 176.0, 0.0, 0.0, 0.0, 1.6541738164348688E9, 0.0, 2022-06-02 14:43:36.434
177.0, -8440.823369124339, 8770.288082395564, -46060.128040328986, -38480.003294945156, -23346.642952757236, -21644.669371207878, -9631.411389280724, -10172.033032421235, 0.024, 0.92, 0.47000000000000003, 192.0, 0.0, 0.0, 0.0, 0.0, 0.0, 0.0, 0.0, 0.0, 0.0, 1.65417381643488E9, 0.0, 2022-06-02 14:43:36.434
178.0, -8414.38125543371, 8798.965370531723, -46020.140769498445, -38433.98105311168, -23305.918074359666, -21591.248701959696, -9601.6165139218, -10118.567659684142, 0.024, 0.92, 0.47000000000000003, 192.0, 0.0, 0.0, 0.0, 0.0, 0.0, 0.0, 0.0, 0.0, 0.0, 1.6541738164348872E9, 0.0, 2022-06-02 14:43:36.434
179.0, -8395.359920902243, 8812.018789293623, -45996.69378956482, -38411.9645848232, -23287.679050884137, -21570.08159996052, -9596.09563304134, -10113.471461948331, 0.024, 0.92, 0.47000000000000003, 192.0, 0.0, 0.0, 0.0, 0.0, 0.0, 0.0, 0.0, 0.0, 0.0, 1.654173816434898E9, 0.0, 2022-06-02 14:43:36.434
180.0, -8410.983790276503, 8788.080070981989, -46026.53336841266, -38449.91784690831, -23318.07742334335, -21611.186458013828, -9616.033389095473, -10149.05543912118, 0.024, 0.92, 0.47000000000000003, 192.0, 0.0, 0.0, 0.0, 0.0, 0.0, 0.0, 0.0, 0.0, 0.0, 1.65417381643491E9, 0.0, 2022-06-02 14:43:36.434
181.0, -8426.518252672942, 8777.954730743735, -46046.225255277786, -38475.75646349865, -23338.328103819862, -21636.242763548227, -9623.789444421463, -10167.11564864107, 0.024, 0.92, 0.47000000000000003, 192.0, 0.0, 0.0, 0.0, 0.0, 0.0, 0.0, 0.0, 0.0, 0.0, 1.6541738164349215E9, 0.0, 2022-06-02 14:43:36.434
182.0, -8437.090627800302, 8772.299739396542, -46051.83554313607, -38482.037303690595, -23341.077368387865, -21645.026999119164, -9626.203432822638, -10184.818230249672, 0.024, 0.92, 0.47000000000000003, 192.0, 0.0, 0.0, 0.0, 0.0, 0.0, 0.0, 0.0, 0.0, 0.0, 1.6541738164349344E9, 0.0, 2022-06-02 14:43:36.434
183.0, -8415.744711845484, 8793.109213484433, -46016.02804851867, -38449.29199806356, -23307.885027871733, -21607.073737034054, -9602.622342422288, -10145.970898386347, 0.024, 0.92, 0.47000000000000003, 192.0, 0.0, 0.0, 0.0, 0.0, 0.0, 0.0, 0.0, 0.0, 0.0, 1.6541738164349468E9, 0.0, 2022-06-02 14:43:36.434
184.0, -8405.395854162676, 8813.31519047203, -45990.27883890615, -38421.84405587245, -23287.567292161857, -21573.926100006833, -9589.971255060585, -10083.318958678123, 0.024, 0.92, 0.47000000000000003, 192.0, 0.0, 0.0, 0.0, 0.0, 0.0, 0.0, 0.0, 0.0, 0.0, 1.6541738164349627E9, 0.0, 2022-06-02 14:43:36.434
185.0, -8409.910906542647, 8807.481385169194, -46008.182586214854, -38435.99271011266, -23306.476867971047, -21593.03684151612, -9643.436627797679, -10124.24500277579, 0.024, 0.92, 0.47000000000000003, 192.0, 0.0, 0.0, 0.0, 0.0, 0.0, 0.0, 0.0, 0.0, 0.0, 1.6541738164349713E9, 0.0, 2022-06-02 14:43:36.434
186.0, -8426.205328250568, 8779.87698076689, -46046.292310511155, -38481.47851007921, -23347.022932412976, -21635.9074873814, -9672.024508956018, -10183.119497671069, 0.022, 0.914, 0.47000000000000003, 192.0, 0.0, 176.0, 28.0, 144.0, 14.0, 176.0, 0.0, 0.0, 0.0, 1.6541738164349797E9, 0.0, 2022-06-02 14:43:36.434
187.0, -8422.360828204255, 8780.9722162452, -46040.32439474158, -38478.57278330002, -23338.931600920154, -21631.79476640162, -9619.944944375151, -10166.15452362949, 0.022, 0.914, 0.47000000000000003, 192.0, 0.0, 0.0, 0.0, 0.0, 0.0, 0.0, 0.0, 0.0, 0.0, 1.6541738164349928E9, 0.0, 2022-06-02 14:43:36.434
188.0, -8394.108223212746, 8808.55426890305, -46000.82886228906, -38433.13168682238, -23293.915187587165, -21584.11849547845, -9566.61368210479, -10103.010845543247, 0.022, 0.914, 0.47000000000000003, 192.0, 0.0, 0.0, 0.0, 0.0, 0.0, 0.0, 0.0, 0.0, 0.0, 1.6541738164350033E9, 0.0, 2022-06-02 14:43:36.435
189.0, -8389.95079874406, 8828.022638323622, -45978.119489922465, -38412.50102669013, -23270.378800675728, -21561.900861489878, -9558.187074445137, -10090.113888992535, 0.022, 0.914, 0.47000000000000003, 192.0, 0.0, 0.0, 0.0, 0.0, 0.0, 0.0, 0.0, 0.0, 0.0, 1.6541738164350173E9, 0.0, 2022-06-02 14:43:36.435
190.0, -8405.57466811832, 8812.823452094013, -46001.0076762447, -38439.77015492561, -23296.03860331042, -21589.371155425448, -9601.035368565961, -10140.450017505887, 0.022, 0.914, 0.47000000000000003, 192.0, 0.0, 0.0, 0.0, 0.0, 0.0, 0.0, 0.0, 0.0, 0.0, 1.654173816435028E9, 0.0, 2022-06-02 14:43:36.435
191.0, -8432.553223675874, 8774.557265586527, -46049.06392682361, -38484.3842368584, -23348.207574869106, -21639.930801383354, -9639.234499840082, -10161.550064271696, 0.022, 0.914, 0.47000000000000003, 192.0, 0.0, 0.0, 0.0, 0.0, 0.0, 0.0, 0.0, 0.0, 0.0, 1.654173816435042E9, 0.0, 2022-06-02 14:43:36.435
192.0, -8425.445368939087, 8781.73217555668, -46040.01147031921, -38471.107300651944, -23341.122071876773, -21630.654827434402, -9615.943982117651, -10133.72214242484, 0.022, 0.914, 0.47000000000000003, 192.0, 0.0, 0.0, 0.0, 0.0, 0.0, 0.0, 0.0, 0.0, 0.0, 1.6541738164350896E9, 0.0, 2022-06-02 14:43:36.435
193.0, -8403.160679717146, 8805.380321190396, -46008.83078680406, -38434.96452986771, -23304.599321436803, -21591.31575719306, -9601.6165139218, -10132.135168568513, 0.022, 0.914, 0.47000000000000003, 192.0, 0.0, 0.0, 0.0, 0.0, 0.0, 0.0, 0.0, 0.0, 0.0, 1.6541738164351068E9, 0.0, 2022-06-02 14:43:36.435
194.0, -8377.23265614899, 8833.588222692993, -45978.14184166692, -38407.091904531946, -23276.19025423411, -21555.664724786846, -9564.780839059453, -10100.574505397619, 0.022, 0.914, 0.47000000000000003, 192.0, 0.0, 0.0, 0.0, 0.0, 0.0, 0.0, 0.0, 0.0, 0.0, 1.654173816435118E9, 0.0, 2022-06-02 14:43:36.435
195.0, -8386.061595208836, 8827.955583090255, -46001.76763555618, -38427.990785597656, -23297.491466700016, -21573.523768606636, -9595.17921151867, -10118.053569561669, 0.022, 0.912, 0.47400000000000003, 192.0, 0.0, 176.0, 28.0, 128.0, 14.0, 208.0, 0.0, 0.0, 0.0, 1.6541738164351337E9, 0.0, 2022-06-02 14:43:36.435
196.0, -8419.253935724966, 8799.568867632017, -46038.98329007427, -38460.154945868846, -23331.04143512743, -21601.821077087054, -9628.930345646184, -10140.315907039156, 0.022, 0.912, 0.47400000000000003, 192.0, 0.0, 0.0, 0.0, 0.0, 0.0, 0.0, 0.0, 0.0, 0.0, 1.6541738164351475E9, 0.0, 2022-06-02 14:43:36.435
197.0, -8439.48226445702, 8778.267655166108, -46057.84816239455, -38477.11991991042, -23346.7100079906, -21618.51783019517, -9620.883717642275, -10152.654069978485, 0.022, 0.912, 0.47400000000000003, 192.0, 0.0, 0.0, 0.0, 0.0, 0.0, 0.0, 0.0, 0.0, 0.0, 1.6541738164351587E9, 0.0, 2022-06-02 14:43:36.435
198.0, -8409.218002464533, 8810.297704970564, -46012.04943800562, -38433.60107345594, -23294.965719576565, -21566.572376081036, -9573.006281019007, -10106.989456056292, 0.022, 0.912, 0.47400000000000003, 192.0, 0.0, 0.0, 0.0, 0.0, 0.0, 0.0, 0.0, 0.0, 0.0, 1.6541738164351697E9, 0.0, 2022-06-02 14:43:36.435
199.0, -8375.623330548207, 8841.813664652547, -45968.3517775955, -38396.09484625993, -23253.8385097788, -21532.396558808872, -9546.899443495207, -10062.129504934492, 0.022, 0.912, 0.47400000000000003, 192.0, 0.0, 0.0, 0.0, 0.0, 0.0, 0.0, 0.0, 0.0, 0.0, 1.6541738164351785E9, 0.0, 2022-06-02 14:43:36.435
200.0, -8406.468737896532, 8810.811795093035, -46014.23990896224, -38434.85277114544, -23299.79369637891, -21583.716164078258, -9604.701054656633, -10108.799947357173, 0.022, 0.912, 0.47400000000000003, 192.0, 0.0, 0.0, 0.0, 0.0, 0.0, 0.0, 0.0, 0.0, 0.0, 1.654173816435201E9, 0.0, 2022-06-02 14:43:36.435
201.0, -8419.47745316952, 8787.029538992589, -46049.868589624, -38471.57668728551, -23333.90245841771, -21621.356501740993, -9653.696078502666, -10160.253663093288, 0.022, 0.912, 0.47400000000000003, 192.0, 0.0, 0.0, 0.0, 0.0, 0.0, 0.0, 0.0, 0.0, 0.0, 1.6541738164352176E9, 0.0, 2022-06-02 14:43:36.435
202.0, -8433.290831242899, 8768.9693294727, -46068.509944499725, -38494.21900441874, -23349.258106858506, -21646.6586764644, -9680.428764871212, -10195.2564949103, 0.022, 0.912, 0.47400000000000003, 192.0, 0.0, 0.0, 0.0, 0.0, 0.0, 0.0, 0.0, 0.0, 0.0, 1.6541738164352298E9, 0.0, 2022-06-02 14:43:36.435
203.0, -8407.742787330484, 8799.79238507657, -46027.22627249078, -38447.906189907335, -23301.42537372415, -21601.03876603112, -9618.335618774368, -10143.378096029532, 0.022, 0.912, 0.47400000000000003, 192.0, 0.0, 0.0, 0.0, 0.0, 0.0, 0.0, 0.0, 0.0, 0.0, 1.6541738164352384E9, 0.0, 2022-06-02 14:43:36.435
204.0, -8403.495955883975, 8811.482347426694, -46008.182586214854, -38425.8673698744, -23284.9968415495, -21574.70841106277, -9566.32310942687, -10100.015711786236, 0.022, 0.912, 0.47400000000000003, 192.0, 0.0, 0.0, 0.0, 0.0, 0.0, 0.0, 0.0, 0.0, 0.0, 1.6541738164352484E9, 0.0, 2022-06-02 14:43:36.435
205.0, -8412.19078447709, 8802.318132200018, -46026.645127134936, -38444.8216491725, -23310.410774995184, -21595.495533406203, -9610.601915192832, -10105.24601998878, 0.014, 0.914, 0.47000000000000003, 192.0, 0.0, 112.0, 28.0, 144.0, 14.0, 176.0, 0.0, 0.0, 0.0, 1.654173816435259E9, 0.0, 2022-06-02 14:43:36.435
206.0, -8424.886575327704, 8785.531972114084, -46054.24953153724, -38471.50963205214, -23339.512746275992, -21626.810327388088, -9645.649450498755, -10148.2954798097, 0.014, 0.914, 0.47000000000000003, 192.0, 0.0, 0.0, 0.0, 0.0, 0.0, 0.0, 0.0, 0.0, 0.0, 1.654173816435285E9, 0.0, 2022-06-02 14:43:36.435
207.0, -8431.14506377519, 8770.288082395564, -46072.443851523865, -38488.452254349264, -23357.461197073604, -21646.345752042027, -9643.637793497777, -10175.229331878345, 0.014, 0.914, 0.47000000000000003, 192.0, 0.0, 0.0, 0.0, 0.0, 0.0, 0.0, 0.0, 0.0, 0.0, 1.6541738164353025E9, 0.0, 2022-06-02 14:43:36.435
208.0, -8413.71070310005, 8796.50667864164, -46036.47989469527, -38447.54856199605, -23314.9034756307, -21609.644187646412, -9601.415348221703, -10134.996191858792, 0.014, 0.914, 0.47000000000000003, 192.0, 0.0, 0.0, 0.0, 0.0, 0.0, 0.0, 0.0, 0.0, 0.0, 1.654173816435316E9, 0.0, 2022-06-02 14:43:36.435
209.0, -8395.874011024716, 8819.484271941696, -46009.4119321599, -38413.730372635175, -23285.265062482962, -21574.12726570693, -9570.592292617834, -10101.692092620384, 0.014, 0.914, 0.47000000000000003, 192.0, 0.0, 0.0, 0.0, 0.0, 0.0, 0.0, 0.0, 0.0, 0.0, 1.6541738164353337E9, 0.0, 2022-06-02 14:43:36.435
210.0, -8411.497880398974, 8801.625228121904, -46032.05424929312, -38439.43487875877, -23315.529324475447, -21591.09223974851, -9601.99649357754, -10125.608459187562, 0.014, 0.914, 0.47000000000000003, 192.0, 0.0, 0.0, 0.0, 0.0, 0.0, 0.0, 0.0, 0.0, 0.0, 1.6541738164353538E9, 0.0, 2022-06-02 14:43:36.435
211.0, -8428.798130607383, 8784.280274424586, -46056.06002283812, -38469.56503028453, -23353.728455749566, -21619.300141251104, -9654.098409902861, -10152.855235678582, 0.014, 0.914, 0.47000000000000003, 192.0, 0.0, 0.0, 0.0, 0.0, 0.0, 0.0, 0.0, 0.0, 0.0, 1.6541738164353707E9, 0.0, 2022-06-02 14:43:36.435
212.0, -8424.57365090533, 8786.224876192198, -46054.98713910427, -38467.88864945038, -23344.47483354507, -21617.534353439136, -9637.446360283657, -10150.843578677604, 0.014, 0.914, 0.47000000000000003, 192.0, 0.0, 0.0, 0.0, 0.0, 0.0, 0.0, 0.0, 0.0, 0.0, 1.6541738164353783E9, 0.0, 2022-06-02 14:43:36.435
213.0, -8414.358903689254, 8793.489193140173, -46035.47406619479, -38447.503858507145, -23317.317464031872, -21599.876475319445, -9606.75741514652, -10145.322697797144, 0.014, 0.914, 0.47000000000000003, 192.0, 0.0, 0.0, 0.0, 0.0, 0.0, 0.0, 0.0, 0.0, 0.0, 1.6541738164353895E9, 0.0, 2022-06-02 14:43:36.435
214.0, -8395.114051713235, 8824.535766188594, -46000.225365188766, -38418.759515137615, -23279.051277524388, -21573.635527328912, -9578.638920621745, -10131.86694763505, 0.014, 0.914, 0.47000000000000003, 192.0, 0.0, 0.0, 0.0, 0.0, 0.0, 0.0, 0.0, 0.0, 0.0, 1.6541738164354217E9, 0.0, 2022-06-02 14:43:36.435
215.0, -8395.1811069466, 8820.311286486542, -46011.133016482956, -38425.91207336332, -23291.769420119457, -21587.98534726922, -9586.462031181101, -10135.219709303345, 0.014, 0.914, 0.47200000000000003, 192.0, 0.0, 112.0, 28.0, 144.0, 14.0, 192.0, 0.0, 0.0, 0.0, 1.6541738164354308E9, 0.0, 2022-06-02 14:43:36.435
216.0, -8413.308371699855, 8788.638864593371, -46051.29910126914, -38464.3794255709, -23336.092929374332, -21628.03967333313, -9635.971145149606, -10156.051535135692, 0.014, 0.914, 0.47200000000000003, 192.0, 0.0, 0.0, 0.0, 0.0, 0.0, 0.0, 0.0, 0.0, 0.0, 1.654173816435439E9, 0.0, 2022-06-02 14:43:36.435
217.0, -8414.917697300638, 8791.701053583749, -46052.59550244755, -38468.738015739684, -23338.03753114194, -21627.57028669957, -9646.074133643406, -10168.479105052842, 0.014, 0.914, 0.47200000000000003, 192.0, 0.0, 0.0, 0.0, 0.0, 0.0, 0.0, 0.0, 0.0, 0.0, 1.6541738164354494E9, 0.0, 2022-06-02 14:43:36.435
218.0, -8400.053787237857, 8813.494004427672, -46020.833673576555, -38429.98009085418, -23300.41954522366, -21577.837655286512, -9597.369682475291, -10139.265375049756, 0.014, 0.914, 0.47200000000000003, 192.0, 0.0, 0.0, 0.0, 0.0, 0.0, 0.0, 0.0, 0.0, 0.0, 1.654173816435459E9, 0.0, 2022-06-02 14:43:36.435
219.0, -8382.03828120688, 8829.855481368957, -45997.23023143176, -38406.19783475374, -23275.474998411537, -21557.74343702119, -9580.382356689257, -10101.3344647091, 0.014, 0.914, 0.47200000000000003, 192.0, 0.0, 0.0, 0.0, 0.0, 0.0, 0.0, 0.0, 0.0, 0.0, 1.6541738164354703E9, 0.0, 2022-06-02 14:43:36.435
220.0, -8379.244313149968, 8829.94488834678, -45999.42070238837, -38415.339698235955, -23282.784018848422, -21568.785198782112, -9578.75067934402, -10090.76208958174, 0.014, 0.914, 0.47200000000000003, 192.0, 0.0, 0.0, 0.0, 0.0, 0.0, 0.0, 0.0, 0.0, 0.0, 1.65417381643548E9, 0.0, 2022-06-02 14:43:36.435
221.0, -8393.2812086679, 8808.330751458496, -46025.862816079, -38448.532038752084, -23313.56237096338, -21599.51884740816, -9602.354121488825, -10132.693962179896, 0.014, 0.914, 0.47200000000000003, 192.0, 0.0, 0.0, 0.0, 0.0, 0.0, 0.0, 0.0, 0.0, 0.0, 1.6541738164354873E9, 0.0, 2022-06-02 14:43:36.435
222.0, -8392.968284245526, 8804.329789200996, -46042.49251395375, -38458.45621329024, -23324.604132724304, -21607.252550989695, -9623.029485109984, -10141.902880895483, 0.014, 0.914, 0.47200000000000003, 192.0, 0.0, 0.0, 0.0, 0.0, 0.0, 0.0, 0.0, 0.0, 0.0, 1.654173816435496E9, 0.0, 2022-06-02 14:43:36.435
223.0, -8390.107260955247, 8816.042103295578, -46022.33124045506, -38433.444611244755, -23295.52451318795, -21588.052402502588, -9596.363853974803, -10137.164311070957, 0.014, 0.914, 0.47200000000000003, 192.0, 0.0, 0.0, 0.0, 0.0, 0.0, 0.0, 0.0, 0.0, 0.0, 1.6541738164355035E9, 0.0, 2022-06-02 14:43:36.435
224.0, -8372.784659002384, 8836.069266327533, -45991.418777873376, -38403.806198097016, -23266.355486673772, -21554.033047441608, -9556.622452333266, -10106.318903722633, 0.014, 0.914, 0.47200000000000003, 192.0, 0.0, 0.0, 0.0, 0.0, 0.0, 0.0, 0.0, 0.0, 0.0, 1.654173816435512E9, 0.0, 2022-06-02 14:43:36.435
225.0, -8385.32398764181, 8821.384170220395, -46008.115530981486, -38425.77796289659, -23288.483713684527, -21570.327469149528, -9575.397917675724, -10091.298531448667, 0.016, 0.912, 0.466, 192.0, 0.0, 128.0, 28.0, 128.0, 14.0, 144.0, 0.0, 0.0, 0.0, 1.6541738164355202E9, 0.0, 2022-06-02 14:43:36.435
226.0, -8410.76027283195, 8796.618437363915, -46043.1183627985, -38462.99361741467, -23323.91122864619, -21609.778298113146, -9629.042104368462, -10150.910633910971, 0.016, 0.912, 0.466, 192.0, 0.0, 0.0, 0.0, 0.0, 0.0, 0.0, 0.0, 0.0, 0.0, 1.654173816435536E9, 0.0, 2022-06-02 14:43:36.435
227.0, -8425.512424172453, 8775.630149320383, -46060.39626126245, -38476.292905365575, -23340.362112565294, -21628.844336133523, -9643.414276053223, -10174.268206866767, 0.016, 0.912, 0.466, 192.0, 0.0, 0.0, 0.0, 0.0, 0.0, 0.0, 0.0, 0.0, 0.0, 1.6541738164355521E9, 0.0, 2022-06-02 14:43:36.435
228.0, -8409.039188508892, 8794.047986751555, -46031.942490570844, -38440.84303865946, -23307.99678659401, -21593.103896749486, -9590.485345183057, -10133.029238346726, 0.016, 0.912, 0.466, 192.0, 0.0, 0.0, 0.0, 0.0, 0.0, 0.0, 0.0, 0.0, 0.0, 1.654173816435573E9, 0.0, 2022-06-02 14:43:36.435
229.0, -8387.80503127635, 8821.741798131681, -45999.08542622154, -38408.477712688175, -23274.446818166594, -21558.50339633267, -9552.777952286953, -10062.285967145679, 0.016, 0.912, 0.466, 192.0, 0.0, 0.0, 0.0, 0.0, 0.0, 0.0, 0.0, 0.0, 0.0, 1.6541738164355853E9, 0.0, 2022-06-02 14:43:36.435
230.0, -8391.314255155832, 8818.456091696751, -46013.54700488413, -38428.951910609234, -23291.16592301916, -21569.12047494894, -9581.32112995638, -10074.311205662634, 0.016, 0.912, 0.466, 192.0, 0.0, 0.0, 0.0, 0.0, 0.0, 0.0, 0.0, 0.0, 0.0, 1.6541738164355924E9, 0.0, 2022-06-02 14:43:36.435
231.0, -8406.736958829995, 8797.490155397672, -46046.24760702224, -38471.129652396405, -23323.41949026817, -21599.94353055281, -9628.438607268168, -10134.996191858792, 0.016, 0.912, 0.466, 192.0, 0.0, 0.0, 0.0, 0.0, 0.0, 0.0, 0.0, 0.0, 0.0, 1.6541738164356046E9, 0.0, 2022-06-02 14:43:36.435
232.0, -8401.57370586082, 8796.283161197087, -46048.30396751213, -38470.32498959601, -23328.00159788151, -21602.55868465408, -9649.695116245166, -10164.142866628512, 0.016, 0.912, 0.466, 192.0, 0.0, 0.0, 0.0, 0.0, 0.0, 0.0, 0.0, 0.0, 0.0, 1.654173816435613E9, 0.0, 2022-06-02 14:43:36.435
233.0, -8393.437670879088, 8807.079053768999, -46030.10964752551, -38438.31729153601, -23302.744126647012, -21584.9455100233, -9613.909973372218, -10157.571453758652, 0.016, 0.912, 0.466, 192.0, 0.0, 0.0, 0.0, 0.0, 0.0, 0.0, 0.0, 0.0, 0.0, 1.654173816435619E9, 0.0, 2022-06-02 14:43:36.435
234.0, -8363.978071686992, 8841.634850696904, -45987.06018770459, -38392.92089854728, -23256.90069876918, -21541.96310543574, -9553.046173220417, -10081.240246443778, 0.016, 0.912, 0.466, 192.0, 0.0, 0.0, 0.0, 0.0, 0.0, 0.0, 0.0, 0.0, 0.0, 1.6541738164356253E9, 0.0, 2022-06-02 14:43:36.435
235.0, -8369.99069094547, 8830.727199402714, -46003.846347790524, -38414.915015091305, -23278.157207746175, -21565.07480920253, -9570.569940873378, -10079.452106887355, 0.016, 0.908, 0.47200000000000003, 192.0, 0.0, 128.0, 28.0, 96.0, 14.0, 192.0, 0.0, 0.0, 0.0, 1.6541738164356475E9, 0.0, 2022-06-02 14:43:36.435
236.0, -8397.684502325596, 8800.038254265577, -46045.15237154393, -38462.390120314376, -23320.37965302225, -21609.487725435225, -9616.61453445131, -10126.390770243499, 0.016, 0.908, 0.47200000000000003, 192.0, 0.0, 0.0, 0.0, 0.0, 0.0, 0.0, 0.0, 0.0, 0.0, 1.6541738164356575E9, 0.0, 2022-06-02 14:43:36.435
237.0, -8403.495955883975, 8795.0761669965, -46050.136810557466, -38466.41343431633, -23331.577876994357, -21618.42842321735, -9632.640735225767, -10139.2430233053, 0.016, 0.908, 0.47200000000000003, 192.0, 0.0, 0.0, 0.0, 0.0, 0.0, 0.0, 0.0, 0.0, 0.0, 1.6541738164356675E9, 0.0, 2022-06-02 14:43:36.435
238.0, -8374.997481703458, 8824.826338866513, -46012.29530719463, -38420.70411690523, -23292.775248619946, -21577.301213419585, -9599.850726109831, -10109.358740968555, 0.016, 0.908, 0.47200000000000003, 192.0, 0.0, 0.0, 0.0, 0.0, 0.0, 0.0, 0.0, 0.0, 0.0, 1.6541738164356744E9, 0.0, 2022-06-02 14:43:36.435
239.0, -8356.825513461294, 8843.758266420158, -45981.695769035316, -38394.48552065915, -23257.012457491455, -21547.34987584947, -9547.614699317777, -10080.100307476558, 0.016, 0.908, 0.47200000000000003, 192.0, 0.0, 0.0, 0.0, 0.0, 0.0, 0.0, 0.0, 0.0, 0.0, 1.6541738164356823E9, 0.0, 2022-06-02 14:43:36.435
240.0, -8388.743804543472, 8815.639771895381, -46017.25739446371, -38434.65160544534, -23294.742202132013, -21588.879417047432, -9570.659347851199, -10126.81545338815, 0.016, 0.908, 0.47200000000000003, 192.0, 0.0, 0.0, 0.0, 0.0, 0.0, 0.0, 0.0, 0.0, 0.0, 1.654173816435695E9, 0.0, 2022-06-02 14:43:36.435
241.0, -8415.632953123208, 8794.562076874028, -46051.47791522479, -38470.41439657383, -23335.24356308503, -21626.922086110364, -9610.110176814816, -10159.270186337255, 0.016, 0.908, 0.47200000000000003, 192.0, 0.0, 0.0, 0.0, 0.0, 0.0, 0.0, 0.0, 0.0, 0.0, 1.6541738169136791E9, 0.0, 2022-06-02 14:43:36.913
242.0, -8416.012932778947, 8793.153916973342, -46059.144563572954, -38472.22488787471, -23341.412644554694, -21627.771452399666, -9635.904089916241, -10167.674442252452, 0.016, 0.908, 0.47200000000000003, 192.0, 0.0, 0.0, 0.0, 0.0, 0.0, 0.0, 0.0, 0.0, 0.0, 1.6541738169137723E9, 0.0, 2022-06-02 14:43:36.913
243.0, -8393.504726112453, 8814.49983292816, -46028.030935291164, -38435.523323479094, -23309.248484283507, -21591.382812426426, -9603.270543011493, -10147.356706542578, 0.016, 0.908, 0.47200000000000003, 192.0, 0.0, 0.0, 0.0, 0.0, 0.0, 0.0, 0.0, 0.0, 0.0, 1.6541738169137928E9, 0.0, 2022-06-02 14:43:36.913
244.0, -8380.56306607283, 8834.594051193482, -45997.43139713185, -38405.43787544226, -23279.744181602502, -21557.519919576636, -9568.64769085022, -10108.732892123806, 0.016, 0.908, 0.47200000000000003, 192.0, 0.0, 0.0, 0.0, 0.0, 0.0, 0.0, 0.0, 0.0, 0.0, 1.6541738169138017E9, 0.0, 2022-06-02 14:43:36.913
245.0, -8392.2306766785, 8821.853556853957, -46016.519786896686, -38428.63898618687, -23300.486600457025, -21578.55291110908, -9592.340539972847, -10121.741607396794, 0.012, 0.91, 0.47200000000000003, 192.0, 0.0, 96.0, 28.0, 112.0, 14.0, 192.0, 0.0, 0.0, 0.0, 1.6541738169138083E9, 0.0, 2022-06-02 14:43:36.913
246.0, -8402.154851216657, 8804.262733967631, -46043.05130756513, -38460.44551854677, -23327.442804270126, -21614.628626659945, -9628.90799390173, -10171.742459743316, 0.012, 0.91, 0.47200000000000003, 192.0, 0.0, 0.0, 0.0, 0.0, 0.0, 0.0, 0.0, 0.0, 0.0, 1.654173816913816E9, 0.0, 2022-06-02 14:43:36.913
247.0, -8426.406493950664, 8775.83131502048, -46075.03665388068, -38488.608716560455, -23361.417455842195, -21642.389493273437, -9670.236369399592, -10172.077735910147, 0.012, 0.91, 0.47200000000000003, 192.0, 0.0, 0.0, 0.0, 0.0, 0.0, 0.0, 0.0, 0.0, 0.0, 1.6541738169138236E9, 0.0, 2022-06-02 14:43:36.913
248.0, -8413.576592633319, 8790.73992857217, -46053.35546175903, -38459.596152257465, -23330.9073246607, -21604.27976897714, -9627.76805493451, -10112.063302047647, 0.012, 0.91, 0.47200000000000003, 192.0, 0.0, 0.0, 0.0, 0.0, 0.0, 0.0, 0.0, 0.0, 0.0, 1.6541738169138308E9, 0.0, 2022-06-02 14:43:36.913
249.0, -8375.623330548207, 8827.88852785689, -46002.14761521192, -38411.85282610093, -23277.55371064588, -21552.624887540926, -9547.748809784509, -10090.33740643709, 0.012, 0.91, 0.47200000000000003, 192.0, 0.0, 0.0, 0.0, 0.0, 0.0, 0.0, 0.0, 0.0, 0.0, 1.6541738169138415E9, 0.0, 2022-06-02 14:43:36.913
250.0, -8392.275380167412, 8819.305457986053, -46018.08440900855, -38425.4203349853, -23297.111487044276, -21576.965937252753, -9563.171513458672, -10127.106026066069, 0.012, 0.91, 0.47200000000000003, 192.0, 0.0, 0.0, 0.0, 0.0, 0.0, 0.0, 0.0, 0.0, 0.0, 1.6541738169138489E9, 0.0, 2022-06-02 14:43:36.913
251.0, -8400.769043060427, 8810.476518926205, -46040.413801719405, -38449.60492248594, -23321.38548152274, -21600.56937939756, -9603.270543011493, -10142.461674506865, 0.012, 0.91, 0.47200000000000003, 192.0, 0.0, 0.0, 0.0, 0.0, 0.0, 0.0, 0.0, 0.0, 0.0, 1.6541738169138668E9, 0.0, 2022-06-02 14:43:36.913
252.0, -8411.76610133244, 8797.333693186485, -46055.41182224892, -38463.48535579268, -23334.550659006913, -21614.025129559654, -9624.5717554774, -10165.886302696026, 0.012, 0.91, 0.47200000000000003, 192.0, 0.0, 0.0, 0.0, 0.0, 0.0, 0.0, 0.0, 0.0, 0.0, 1.654173816913874E9, 0.0, 2022-06-02 14:43:36.913
253.0, -8407.318104185833, 8799.59121937647, -46044.83944712156, -38448.59909398545, -23319.776155921958, -21601.932835809333, -9629.824415424397, -10172.323605099155, 0.012, 0.91, 0.47200000000000003, 192.0, 0.0, 0.0, 0.0, 0.0, 0.0, 0.0, 0.0, 0.0, 0.0, 1.65417381691388E9, 0.0, 2022-06-02 14:43:36.913
254.0, -8391.671883067118, 8815.46095793974, -46023.851159078025, -38425.64385242985, -23298.877274856244, -21577.591786097502, -9608.500851214034, -10128.04479933319, 0.012, 0.91, 0.47200000000000003, 192.0, 0.0, 0.0, 0.0, 0.0, 0.0, 0.0, 0.0, 0.0, 0.0, 1.6541738169138885E9, 0.0, 2022-06-02 14:43:36.913
255.0, -8407.09458674128, 8800.574696132506, -46043.94537734335, -38446.63214047338, -23319.440879755126, -21596.389603184416, -9607.875002369286, -10116.533650938709, 0.008, 0.914, 0.468, 192.0, 0.0, 64.0, 28.0, 144.0, 14.0, 160.0, 0.0, 0.0, 0.0, 1.6541738169138958E9, 0.0, 2022-06-02 14:43:36.913
0.0, -8414.850642067271, 8787.320111670508, -46064.77720317569, -38468.06746340603, -23344.519537033982, -21615.857972604987, -9640.016810896017, -10129.229441789323, 0.008, 0.914, 0.468, 192.0, 0.0, 0.0, 0.0, 0.0, 0.0, 0.0, 0.0, 0.0, 0.0, 1.6541738169139433E9, 0.0, 2022-06-02 14:43:36.913
1.0, -8419.611563636252, 8774.378451630886, -46080.73634871678, -38483.95955371375, -23361.082179675363, -21632.46531873528, -9652.131456390793, -10166.802724218694, 0.008, 0.914, 0.468, 192.0, 0.0, 0.0, 0.0, 0.0, 0.0, 0.0, 0.0, 0.0, 0.0, 1.65417381691395E9, 0.0, 2022-06-02 14:43:36.913
2.0, -8404.412377406643, 8796.886658297379, -46053.37781350349, -38453.06944287651, -23325.542905991424, -21604.65974863288, -9608.769072147497, -10142.81930241815, 0.008, 0.914, 0.468, 192.0, 0.0, 0.0, 0.0, 0.0, 0.0, 0.0, 0.0, 0.0, 0.0, 1.654173816913958E9, 0.0, 2022-06-02 14:43:36.913
3.0, -8389.593170832773, 8816.846766095969, -46028.92500506938, -38423.34162275096, -23295.88214109923, -21573.322602906537, -9592.854630095318, -10108.263505490244, 0.008, 0.914, 0.468, 192.0, 0.0, 0.0, 0.0, 0.0, 0.0, 0.0, 0.0, 0.0, 0.0, 1.654173816913967E9, 0.0, 2022-06-02 14:43:36.913
4.0, -8391.828345278305, 8807.995475291667, -46042.78308663167, -38444.642835216866, -23314.724661675056, -21595.495533406203, -9620.794310664452, -10135.934965125914, 0.008, 0.914, 0.468, 192.0, 0.0, 0.0, 0.0, 0.0, 0.0, 0.0, 0.0, 0.0, 0.0, 1.654173816913974E9, 0.0, 2022-06-02 14:43:36.913
5.0, -8419.388046191698, 8776.658329565327, -46078.165898104424, -38485.032437447604, -23355.203670883617, -21639.61787696098, -9665.944834464173, -10184.035919193735, 0.008, 0.914, 0.468, 192.0, 0.0, 0.0, 0.0, 0.0, 0.0, 0.0, 0.0, 0.0, 0.0, 1.6541738169139795E9, 0.0, 2022-06-02 14:43:36.913
6.0, -8427.233508495512, 8774.780783031081, -46081.00456965024, -38485.07714093651, -23357.37179009578, -21641.942458384332, -9677.05365145846, -10185.421727349965, 0.008, 0.914, 0.468, 192.0, 0.0, 0.0, 0.0, 0.0, 0.0, 0.0, 0.0, 0.0, 0.0, 1.6541738169139853E9, 0.0, 2022-06-02 14:43:36.913
7.0, -8400.970208760526, 8803.748643845158, -46040.8161331196, -38442.2735503046, -23310.388423250726, -21590.868722303956, -9598.934304587163, -10137.991325615803, 0.008, 0.914, 0.468, 192.0, 0.0, 0.0, 0.0, 0.0, 0.0, 0.0, 0.0, 0.0, 0.0, 1.6541738169139905E9, 0.0, 2022-06-02 14:43:36.913
8.0, -8381.099507939758, 8826.12274004492, -46002.63935358994, -38412.29986099003, -23270.0435245089, -21559.866852744442, -9542.227928904049, -10103.010845543247, 0.008, 0.914, 0.468, 192.0, 0.0, 0.0, 0.0, 0.0, 0.0, 0.0, 0.0, 0.0, 0.0, 1.6541738169139967E9, 0.0, 2022-06-02 14:43:36.913
9.0, -8390.196667933067, 8817.450263196262, -46014.619888617985, -38421.55348319453, -23284.527454915937, -21578.17293145334, -9568.871208294775, -10099.725139108317, 0.02, 0.918, 0.462, 192.0, 0.0, 160.0, 28.0, 176.0, 14.0, 112.0, 0.0, 0.0, 0.0, 1.6541738169140024E9, 0.0, 2022-06-02 14:43:36.914
10.0, -8414.3365519448, 8790.35994891643, -46058.58576996157, -38458.65737899034, -23331.197897338618, -21625.17865004285, -9626.42695026719, -10150.173026343946, 0.02, 0.918, 0.462, 192.0, 0.0, 0.0, 0.0, 0.0, 0.0, 0.0, 0.0, 0.0, 0.0, 1.6541738169140084E9, 0.0, 2022-06-02 14:43:36.914
11.0, -8420.036246780903, 8778.222951677199, -46079.127023116, -38478.37161759992, -23347.358208579804, -21642.389493273437, -9635.591165493866, -10186.2040384059, 0.02, 0.918, 0.462, 192.0, 0.0, 0.0, 0.0, 0.0, 0.0, 0.0, 0.0, 0.0, 0.0, 1.6541738169140148E9, 0.0, 2022-06-02 14:43:36.914
12.0, -8391.783641789394, 8807.570792147017, -46042.0678308091, -38440.23954155917, -23307.505048215993, -21600.636434630924, -9585.567961402889, -10142.372267529043, 0.02, 0.918, 0.462, 192.0, 0.0, 0.0, 0.0, 0.0, 0.0, 0.0, 0.0, 0.0, 0.0, 1.6541738169140203E9, 0.0, 2022-06-02 14:43:36.914
13.0, -8354.232711104478, 8850.195568823287, -46001.119434966975, -38396.49717766013, -23271.563443131858, -21559.26335564415, -9558.857626778798, -10100.127470508512, 0.02, 0.918, 0.462, 192.0, 0.0, 0.0, 0.0, 0.0, 0.0, 0.0, 0.0, 0.0, 0.0, 1.6541738169140265E9, 0.0, 2022-06-02 14:43:36.914
14.0, -8365.453286821043, 8845.769923421136, -46022.510054410704, -38412.85865460142, -23293.624614909248, -21572.69675406179, -9601.28123775497, -10102.742624609784, 0.02, 0.918, 0.462, 192.0, 0.0, 0.0, 0.0, 0.0, 0.0, 0.0, 0.0, 0.0, 0.0, 1.654173816914034E9, 0.0, 2022-06-02 14:43:36.914
15.0, -8405.99935126297, 8803.212201978231, -46063.01141536372, -38450.767213197614, -23334.841231684833, -21606.403184700393, -9630.606726480333, -10133.968011613848, 0.02, 0.918, 0.462, 192.0, 0.0, 0.0, 0.0, 0.0, 0.0, 0.0, 0.0, 0.0, 0.0, 1.6541738169140396E9, 0.0, 2022-06-02 14:43:36.914
16.0, -8404.278266939911, 8799.971199032212, -46067.9735026328, -38456.89159117837, -23342.172603866173, -21614.89684759341, -9608.433795980669, -10158.130247370034, 0.02, 0.918, 0.462, 192.0, 0.0, 0.0, 0.0, 0.0, 0.0, 0.0, 0.0, 0.0, 0.0, 1.6541738169140463E9, 0.0, 2022-06-02 14:43:36.914
17.0, -8389.012025476935, 8817.830242852002, -46039.92206334139, -38424.347451251444, -23309.94138836162, -21582.6432803444, -9580.13648750025, -10157.191474102912, 0.02, 0.918, 0.462, 192.0, 0.0, 0.0, 0.0, 0.0, 0.0, 0.0, 0.0, 0.0, 0.0, 1.654173816914052E9, 0.0, 2022-06-02 14:43:36.914
18.0, -8378.014967204925, 8829.564908691038, -46016.296269452134, -38402.97918355217, -23286.628518894737, -21563.55489057957, -9564.065583236883, -10120.758130640761, 0.014, 0.918, 0.468, 192.0, 0.0, 112.0, 28.0, 176.0, 14.0, 160.0, 0.0, 0.0, 0.0, 1.654173816914058E9, 0.0, 2022-06-02 14:43:36.914
19.0, -8393.594133090273, 8811.594106148972, -46047.767525645206, -38435.188047312266, -23318.256237298996, -21598.602425885492, -9596.296798741436, -10127.262488277256, 0.014, 0.918, 0.468, 192.0, 0.0, 0.0, 0.0, 0.0, 0.0, 0.0, 0.0, 0.0, 0.0, 1.6541738169140637E9, 0.0, 2022-06-02 14:43:36.914
20.0, -8410.80497632086, 8799.233591465187, -46068.33113054409, -38454.79052719957, -23342.82080445538, -21623.479917464247, -9638.608650995333, -10147.893148409505, 0.014, 0.918, 0.468, 192.0, 0.0, 0.0, 0.0, 0.0, 0.0, 0.0, 0.0, 0.0, 0.0, 1.65417381691407E9, 0.0, 2022-06-02 14:43:36.914
21.0, -8421.220889237034, 8784.50379186914, -46088.6265145095, -38472.85073671946, -23360.925717464175, -21640.601353717015, -9668.381174609802, -10180.481991825342, 0.014, 0.918, 0.468, 192.0, 0.0, 0.0, 0.0, 0.0, 0.0, 0.0, 0.0, 0.0, 0.0, 1.6541738169140751E9, 0.0, 2022-06-02 14:43:36.914
22.0, -8403.272438439422, 8805.290914212575, -46058.89869438395, -38438.22788455819, -23322.123089089764, -21607.476068434247, -9611.47363322659, -10146.350878042089, 0.014, 0.918, 0.468, 192.0, 0.0, 0.0, 0.0, 0.0, 0.0, 0.0, 0.0, 0.0, 0.0, 1.6541738169140842E9, 0.0, 2022-06-02 14:43:36.914
23.0, -8375.511571825931, 8833.990554093189, -46021.817150332594, -38400.63225038436, -23280.168864747153, -21564.381905124417, -9567.41834490518, -10087.94576978037, 0.014, 0.918, 0.468, 192.0, 0.0, 0.0, 0.0, 0.0, 0.0, 0.0, 0.0, 0.0, 0.0, 1.6541738169140897E9, 0.0, 2022-06-02 14:43:36.914
24.0, -8376.584455559785, 8830.637792424894, -46030.22140624779, -38415.42910521378, -23292.75289687549, -21567.958184237265, -9588.652502137722, -10084.056566245148, 0.014, 0.918, 0.468, 192.0, 0.0, 0.0, 0.0, 0.0, 0.0, 0.0, 0.0, 0.0, 0.0, 1.6541738169140956E9, 0.0, 2022-06-02 14:43:36.914
25.0, -8393.102394712258, 8809.023655536612, -46054.62951119298, -38450.34253005296, -23327.822783925865, -21603.6986236213, -9623.297706043448, -10125.586107443109, 0.014, 0.918, 0.468, 192.0, 0.0, 0.0, 0.0, 0.0, 0.0, 0.0, 0.0, 0.0, 0.0, 1.6541738169141023E9, 0.0, 2022-06-02 14:43:36.914
26.0, -8412.99544727748, 8782.64859707935, -46084.20086910735, -38469.721492495715, -23354.734284250055, -21641.65188570641, -9651.952642435152, -10179.63262553604, 0.014, 0.918, 0.468, 192.0, 0.0, 0.0, 0.0, 0.0, 0.0, 0.0, 0.0, 0.0, 0.0, 1.6541738169141088E9, 0.0, 2022-06-02 14:43:36.914
27.0, -8404.501784384463, 8793.936228029279, -46067.034729365674, -38446.98976838467, -23328.42628102616, -21620.440080218326, -9631.612554980822, -10166.646262007507, 0.014, 0.918, 0.468, 192.0, 0.0, 0.0, 0.0, 0.0, 0.0, 0.0, 0.0, 0.0, 0.0, 1.654173816914117E9, 0.0, 2022-06-02 14:43:36.914
28.0, -8358.07721115079, 8846.641641454893, -46005.612135602496, -38387.55647987801, -23264.165015717153, -21557.117588176443, -9571.553417629411, -10100.306284464155, 0.014, 0.918, 0.468, 192.0, 0.0, 112.0, 28.0, 176.0, 14.0, 160.0, 0.0, 0.0, 0.0, 1.6541738169141276E9, 0.0, 2022-06-02 14:43:36.914
29.0, -8372.851714235749, 8831.107179058454, -46024.3652492005, -38415.92084359179, -23290.204798007584, -21577.70354481978, -9595.872115596785, -10122.702732408374, 0.014, 0.918, 0.468, 192.0, 0.0, 0.0, 0.0, 0.0, 0.0, 0.0, 0.0, 0.0, 0.0, 1.6541738169141352E9, 0.0, 2022-06-02 14:43:36.914
30.0, -8392.118917956224, 8804.709768856737, -46063.771374675205, -38457.986826656685, -23333.924810162167, -21616.506173194193, -9628.259793312525, -10160.499532282298, 0.014, 0.918, 0.468, 192.0, 0.0, 0.0, 0.0, 0.0, 0.0, 0.0, 0.0, 0.0, 0.0, 1.6541738169141428E9, 0.0, 2022-06-02 14:43:36.914
31.0, -8382.530019584898, 8806.676722368804, -46067.951150888344, -38458.16564061232, -23336.159984607697, -21615.455641204793, -9625.6222874668, -10165.483971295831, 0.014, 0.918, 0.468, 192.0, 0.0, 0.0, 0.0, 0.0, 0.0, 0.0, 0.0, 0.0, 0.0, 1.654173816914152E9, 0.0, 2022-06-02 14:43:36.914
32.0, -8386.329816142299, 8819.618382408427, -46048.28161576767, -38429.91303562082, -23311.885990129234, -21592.209826971273, -9606.422138979691, -10141.969936128848, 0.014, 0.918, 0.468, 192.0, 0.0, 0.0, 0.0, 0.0, 0.0, 0.0, 0.0, 0.0, 0.0, 1.6541738169141595E9, 0.0, 2022-06-02 14:43:36.914
33.0, -8368.247254877955, 8844.719391431736, -46018.24087121974, -38400.67695387328, -23278.358373446274, -21562.705524290268, -9572.715708341088, -10125.876680121026, 0.014, 0.918, 0.468, 192.0, 0.0, 0.0, 0.0, 0.0, 0.0, 0.0, 0.0, 0.0, 0.0, 1.6541738169141717E9, 0.0, 2022-06-02 14:43:36.914
34.0, -8370.460077579031, 8835.957507605257, -46030.981365559266, -38416.41258196981, -23291.23297825253, -21573.389658139906, -9588.965426560097, -10114.298476493177, 0.014, 0.918, 0.468, 192.0, 0.0, 0.0, 0.0, 0.0, 0.0, 0.0, 0.0, 0.0, 0.0, 1.65417381691418E9, 0.0, 2022-06-02 14:43:36.914
35.0, -8399.383234904199, 8800.775861832602, -46073.36027304653, -38456.48925977817, -23336.13763286324, -21615.18742027133, -9635.47940677159, -10136.203186059378, 0.014, 0.918, 0.468, 192.0, 0.0, 0.0, 0.0, 0.0, 0.0, 0.0, 0.0, 0.0, 0.0, 1.65417381691419E9, 0.0, 2022-06-02 14:43:36.914
36.0, -8403.585362861797, 8791.589294861471, -46085.96665691932, -38467.776890728106, -23346.553545779414, -21630.61012394549, -9624.90703164423, -10134.996191858792, 0.014, 0.918, 0.468, 192.0, 0.0, 0.0, 0.0, 0.0, 0.0, 0.0, 0.0, 0.0, 0.0, 1.6541738169141986E9, 0.0, 2022-06-02 14:43:36.914
37.0, -8382.530019584898, 8817.78553936309, -46051.07558382459, -38433.019928100104, -23307.929731360644, -21593.08154500503, -9585.23268523606, -10119.260563762256, 0.014, 0.918, 0.468, 192.0, 0.0, 0.0, 0.0, 0.0, 0.0, 0.0, 0.0, 0.0, 0.0, 1.6541738169142065E9, 0.0, 2022-06-02 14:43:36.914
38.0, -8366.615577532719, 8839.98082160721, -46022.95708929981, -38404.96848880869, -23278.961870546565, -21562.347896378982, -9564.736135570543, -10094.51718265023, 0.01, 0.916, 0.47400000000000003, 192.0, 0.0, 80.0, 28.0, 160.0, 14.0, 208.0, 0.0, 0.0, 0.0, 1.654173816914215E9, 0.0, 2022-06-02 14:43:36.914
39.0, -8381.65830155114, 8824.736931888692, -46046.985214589266, -38429.667166431806, -23307.66151042718, -21586.286614690616, -9599.202525520626, -10129.72118016734, 0.01, 0.916, 0.47400000000000003, 192.0, 0.0, 0.0, 0.0, 0.0, 0.0, 0.0, 0.0, 0.0, 0.0, 1.6541738169142232E9, 0.0, 2022-06-02 14:43:36.914
40.0, -8379.601941061252, 8823.932269088302, -46061.044461851656, -38449.85079167495, -23328.247467070516, -21605.307949222082, -9640.128569618293, -10176.793953990216, 0.01, 0.916, 0.47400000000000003, 192.0, 0.0, 0.0, 0.0, 0.0, 0.0, 0.0, 0.0, 0.0, 0.0, 1.6541738169142332E9, 0.0, 2022-06-02 14:43:36.914
41.0, -8385.189877175078, 8813.203431749753, -46075.9754271478, -38464.133556381894, -23338.52926951996, -21619.61306567348, -9643.034296397484, -10181.599579048107, 0.01, 0.916, 0.47400000000000003, 192.0, 0.0, 0.0, 0.0, 0.0, 0.0, 0.0, 0.0, 0.0, 0.0, 1.654173816914242E9, 0.0, 2022-06-02 14:43:36.914
42.0, -8377.098545682258, 8820.423045208818, -46051.79083964716, -38434.83041940098, -23314.635254697234, -21591.002832770686, -9620.682551942176, -10124.088540564602, 0.01, 0.916, 0.47400000000000003, 192.0, 0.0, 0.0, 0.0, 0.0, 0.0, 0.0, 0.0, 0.0, 0.0, 1.6541738169142504E9, 0.0, 2022-06-02 14:43:36.914
43.0, -8345.850806933739, 8856.65522297087, -46005.67919083586, -38390.17163397928, -23267.003687262975, -21547.014599682643, -9573.721536841576, -10062.75535377924, 0.01, 0.916, 0.47400000000000003, 192.0, 0.0, 0.0, 0.0, 0.0, 0.0, 0.0, 0.0, 0.0, 0.0, 1.6541738169142675E9, 0.0, 2022-06-02 14:43:36.914
44.0, -8351.684612236573, 8839.913766373846, -46032.38952545995, -38417.88779710386, -23290.94240557461, -21572.562643595058, -9587.691377126142, -10089.398633169965, 0.01, 0.916, 0.47400000000000003, 192.0, 0.0, 0.0, 0.0, 0.0, 0.0, 0.0, 0.0, 0.0, 0.0, 1.6541738169142747E9, 0.0, 2022-06-02 14:43:36.914
45.0, -8370.616539790219, 8816.533841673594, -46060.28450254018, -38439.99367237016, -23322.011330367488, -21602.871609076454, -9601.99649357754, -10133.655087191473, 0.01, 0.916, 0.47400000000000003, 192.0, 0.0, 0.0, 0.0, 0.0, 0.0, 0.0, 0.0, 0.0, 0.0, 1.654173816914282E9, 0.0, 2022-06-02 14:43:36.914
46.0, -8388.542638843375, 8800.150012987855, -46083.03857839568, -38466.21226861623, -23345.771234723477, -21628.66552217788, -9628.48331075708, -10180.25847438079, 0.01, 0.916, 0.47400000000000003, 192.0, 0.0, 0.0, 0.0, 0.0, 0.0, 0.0, 0.0, 0.0, 0.0, 1.654173816914291E9, 0.0, 2022-06-02 14:43:36.914
47.0, -8385.726319042005, 8812.130548015899, -46066.96767413231, -38446.028643373094, -23322.167792578675, -21608.70541437929, -9618.782653663475, -10174.402317333499, 0.01, 0.916, 0.47400000000000003, 192.0, 0.0, 0.0, 0.0, 0.0, 0.0, 0.0, 0.0, 0.0, 0.0, 1.654173816914297E9, 0.0, 2022-06-02 14:43:36.914
48.0, -8353.673917493095, 8848.966222878245, -46020.45369392082, -38399.179386994765, -23271.585794876315, -21561.811454512055, -9588.428984693168, -10110.14105202449, 0.016, 0.916, 0.47400000000000003, 192.0, 0.0, 128.0, 28.0, 160.0, 14.0, 208.0, 0.0, 0.0, 0.0, 1.6541738169143076E9, 0.0, 2022-06-02 14:43:36.914
49.0, -8362.391097830665, 8841.634850696904, -46037.37396447348, -38420.05591631602, -23289.668356140657, -21583.000908255686, -9593.569885917888, -10098.562848396641, 0.016, 0.916, 0.47400000000000003, 192.0, 0.0, 0.0, 0.0, 0.0, 0.0, 0.0, 0.0, 0.0, 0.0, 1.6541738169143152E9, 0.0, 2022-06-02 14:43:36.914
50.0, -8381.367728873221, 8813.583411405494, -46073.337921302074, -38458.053881890046, -23323.03951061243, -21621.624722674456, -9616.435720495669, -10148.2954798097, 0.016, 0.916, 0.47400000000000003, 192.0, 0.0, 0.0, 0.0, 0.0, 0.0, 0.0, 0.0, 0.0, 0.0, 1.6541738169143248E9, 0.0, 2022-06-02 14:43:36.914
51.0, -8385.256932408445, 8802.78751883358, -46088.447700553865, -38471.397873329865, -23335.824708440865, -21636.51098448169, -9625.979915378084, -10167.2497591078, 0.016, 0.916, 0.47400000000000003, 192.0, 0.0, 0.0, 0.0, 0.0, 0.0, 0.0, 0.0, 0.0, 0.0, 1.6541738169143329E9, 0.0, 2022-06-02 14:43:36.914
52.0, -8373.768135758417, 8819.953658575256, -46059.59159846206, -38438.98784386967, -23304.241693525517, -21601.195228242308, -9598.37551097578, -10134.996191858792, 0.016, 0.916, 0.47400000000000003, 192.0, 0.0, 0.0, 0.0, 0.0, 0.0, 0.0, 0.0, 0.0, 0.0, 1.6541738169143407E9, 0.0, 2022-06-02 14:43:36.914
53.0, -8371.577664801796, 8830.0342953246, -46040.19028427485, -38416.21141626971, -23282.068763025854, -21580.02812624313, -9576.98489153205, -10112.644447403485, 0.016, 0.916, 0.47400000000000003, 192.0, 0.0, 0.0, 0.0, 0.0, 0.0, 0.0, 0.0, 0.0, 0.0, 1.6541738169143493E9, 0.0, 2022-06-02 14:43:36.914
54.0, -8376.696214282061, 8824.625173166416, -46051.47791522479, -38429.242483287155, -23295.56921667686, -21593.349765938496, -9565.339632670837, -10121.406331229966, 0.016, 0.916, 0.47400000000000003, 192.0, 0.0, 0.0, 0.0, 0.0, 0.0, 0.0, 0.0, 0.0, 0.0, 1.6541738169143572E9, 0.0, 2022-06-02 14:43:36.914
55.0, -8387.626217320707, 8806.877888068902, -46082.010398150735, -38460.40081505785, -23328.56039149289, -21620.194211029317, -9610.601915192832, -10156.967956658358, 0.016, 0.916, 0.47400000000000003, 192.0, 0.0, 0.0, 0.0, 0.0, 0.0, 0.0, 0.0, 0.0, 0.0, 1.6541738169143753E9, 0.0, 2022-06-02 14:43:36.914
56.0, -8390.151964444156, 8797.937190286779, -46097.90248845846, -38473.38717858639, -23344.13955737824, -21633.00176060221, -9648.801046466953, -10173.172971388456, 0.016, 0.916, 0.47400000000000003, 192.0, 0.0, 0.0, 0.0, 0.0, 0.0, 0.0, 0.0, 0.0, 0.0, 1.654173816914386E9, 0.0, 2022-06-02 14:43:36.914
57.0, -8371.778830501895, 8815.729178873204, -46073.80730793563, -38442.251198560145, -23312.020100595964, -21602.60338814299, -9616.323961773393, -10137.946622126892, 0.016, 0.916, 0.47400000000000003, 192.0, 0.0, 0.0, 0.0, 0.0, 0.0, 0.0, 0.0, 0.0, 0.0, 1.6541738169143956E9, 0.0, 2022-06-02 14:43:36.914
58.0, -8356.356126827732, 8842.663030941849, -46029.75201961423, -38399.22409048368, -23263.516815127947, -21557.117588176443, -9533.890728222219, -10079.049775487158, 0.014, 0.92, 0.466, 192.0, 0.0, 112.0, 28.0, 192.0, 14.0, 144.0, 0.0, 0.0, 0.0, 1.654173816914404E9, 0.0, 2022-06-02 14:43:36.914
59.0, -8374.349281114255, 8827.665010412336, -46042.82779012058, -38422.335794250466, -23284.952138060587, -21583.380887911426, -9547.681754551144, -10094.293665205678, 0.014, 0.92, 0.466, 192.0, 0.0, 0.0, 0.0, 0.0, 0.0, 0.0, 0.0, 0.0, 0.0, 1.6541738169144118E9, 0.0, 2022-06-02 14:43:36.914
60.0, -8394.778775546405, 8795.634960607882, -46087.330113331096, -38470.45910006274, -23333.09779561732, -21631.906525123897, -9618.782653663475, -10142.52872974023, 0.014, 0.92, 0.466, 192.0, 0.0, 0.0, 0.0, 0.0, 0.0, 0.0, 0.0, 0.0, 0.0, 1.6541738169144208E9, 0.0, 2022-06-02 14:43:36.914
61.0, -8407.921601286125, 8783.252094179643, -46107.82666299661, -38486.641763048385, -23353.750807494023, -21651.218432333284, -9661.899168717762, -10180.638454036529, 0.014, 0.92, 0.466, 192.0, 0.0, 0.0, 0.0, 0.0, 0.0, 0.0, 0.0, 0.0, 0.0, 1.6541738169144275E9, 0.0, 2022-06-02 14:43:36.914
62.0, -8382.731185284994, 8813.024617794112, -46071.54978174565, -38448.66614921882, -23314.255275041494, -21612.818135359066, -9628.14803459025, -10161.840636949615, 0.014, 0.92, 0.466, 192.0, 0.0, 0.0, 0.0, 0.0, 0.0, 0.0, 0.0, 0.0, 0.0, 1.654173816914434E9, 0.0, 2022-06-02 14:43:36.914
63.0, -8369.543656056363, 8828.51437670164, -46045.15237154393, -38424.50391346263, -23285.17565550514, -21581.860969288467, -9591.04413879444, -10112.264467747746, 0.014, 0.92, 0.466, 192.0, 0.0, 0.0, 0.0, 0.0, 0.0, 0.0, 0.0, 0.0, 0.0, 1.6541738169144423E9, 0.0, 2022-06-02 14:43:36.914
64.0, -8376.495048581965, 8821.674742898314, -46052.72961291428, -38428.39311699785, -23296.37387947725, -21597.395431684905, -9595.246266752038, -10119.372322484533, 0.014, 0.92, 0.466, 192.0, 0.0, 0.0, 0.0, 0.0, 0.0, 0.0, 0.0, 0.0, 0.0, 1.6541738169144776E9, 0.0, 2022-06-02 14:43:36.914
65.0, -8374.505743325442, 8819.908955086346, -46070.45454626734, -38446.31921605101, -23317.608036709793, -21623.85989711999, -9619.609668208323, -10150.95533739988, 0.014, 0.92, 0.466, 192.0, 0.0, 0.0, 0.0, 0.0, 0.0, 0.0, 0.0, 0.0, 0.0, 1.6541738169144945E9, 0.0, 2022-06-02 14:43:36.914
66.0, -8373.455211336042, 8815.282143984097, -46083.28444758469, -38455.21521034422, -23334.796528195922, -21627.74910065521, -9632.730142203587, -10161.706526482883, 0.014, 0.92, 0.466, 192.0, 0.0, 0.0, 0.0, 0.0, 0.0, 0.0, 0.0, 0.0, 0.0, 1.6541738169145188E9, 0.0, 2022-06-02 14:43:36.914
67.0, -8366.392060088165, 8822.814681865535, -46067.66057821042, -38435.09864033444, -23313.115336074276, -21598.222446229753, -9601.504755199523, -10132.425741246432, 0.014, 0.92, 0.466, 192.0, 0.0, 0.0, 0.0, 0.0, 0.0, 0.0, 0.0, 0.0, 0.0, 1.6541738169145384E9, 0.0, 2022-06-02 14:43:36.914
68.0, -8356.89256869466, 8841.433684996806, -46038.648013907434, -38405.84020684245, -23282.292280470407, -21568.9416609933, -9569.98879551754, -10090.605627370553, 0.014, 0.92, 0.464, 192.0, 0.0, 112.0, 28.0, 192.0, 14.0, 128.0, 0.0, 0.0, 0.0, 1.6541738169145489E9, 0.0, 2022-06-02 14:43:36.914
69.0, -8373.65637703614, 8825.094559799976, -46063.83842990857, -38429.95773910973, -23313.115336074276, -21594.824981072543, -9623.588278721367, -10123.797967886683, 0.014, 0.92, 0.464, 192.0, 0.0, 0.0, 0.0, 0.0, 0.0, 0.0, 0.0, 0.0, 0.0, 1.6541738169145598E9, 0.0, 2022-06-02 14:43:36.914
70.0, -8383.044109707369, 8813.136376516388, -46087.44187205337, -38456.08692837798, -23339.49039453154, -21623.770490142168, -9651.5279592905, -10157.549102014196, 0.014, 0.92, 0.464, 192.0, 0.0, 0.0, 0.0, 0.0, 0.0, 0.0, 0.0, 0.0, 0.0, 1.6541738169145696E9, 0.0, 2022-06-02 14:43:36.914
71.0, -8393.303560412354, 8793.086861739977, -46107.9831252078, -38479.48920482268, -23353.370827838284, -21649.586754988046, -9648.778694722498, -10179.587922047129, 0.014, 0.92, 0.464, 192.0, 0.0, 0.0, 0.0, 0.0, 0.0, 0.0, 0.0, 0.0, 0.0, 1.654173816914594E9, 0.0, 2022-06-02 14:43:36.914
72.0, -8384.988711474982, 8796.529030386095, -46093.07451165611, -38462.77009997012, -23326.928714147656, -21630.43130998985, -9611.406577993224, -10166.86977945206, 0.014, 0.92, 0.464, 192.0, 0.0, 0.0, 0.0, 0.0, 0.0, 0.0, 0.0, 0.0, 0.0, 1.6541738169146512E9, 0.0, 2022-06-02 14:43:36.914
73.0, -8381.971225973515, 8814.49983292816, -46062.18440081888, -38435.813896157015, -23294.541036431914, -21598.75888809668, -9585.545609658433, -10152.20703508938, 0.014, 0.92, 0.464, 192.0, 0.0, 0.0, 0.0, 0.0, 0.0, 0.0, 0.0, 0.0, 0.0, 1.6541738169146776E9, 0.0, 2022-06-02 14:43:36.914
74.0, -8371.3764991017, 8819.797196364068, -46063.57020897511, -38441.98297762668, -23294.071649798352, -21604.547989910603, -9595.08980454085, -10168.032070163736, 0.014, 0.92, 0.464, 192.0, 0.0, 0.0, 0.0, 0.0, 0.0, 0.0, 0.0, 0.0, 0.0, 1.6541738169147003E9, 0.0, 2022-06-02 14:43:36.914
75.0, -8383.558199829842, 8801.468765910717, -46092.31455234463, -38471.93431519679, -23329.722682204567, -21631.23597279024, -9634.76415094902, -10167.62973876354, 0.014, 0.92, 0.464, 192.0, 0.0, 0.0, 0.0, 0.0, 0.0, 0.0, 0.0, 0.0, 0.0, 1.6541738169147213E9, 0.0, 2022-06-02 14:43:36.914
76.0, -8379.445478850064, 8801.178193232798, -46099.26594487023, -38474.482414064696, -23339.84802244282, -21632.62178094647, -9662.39090709578, -10160.186607859923, 0.014, 0.92, 0.464, 192.0, 0.0, 0.0, 0.0, 0.0, 0.0, 0.0, 0.0, 0.0, 0.0, 1.6541738169147267E9, 0.0, 2022-06-02 14:43:36.914
77.0, -8375.176295659101, 8813.717521872226, -46078.657636482436, -38447.68267246278, -23317.56333322088, -21605.240893988717, -9619.699075186143, -10107.928229323416, 0.014, 0.92, 0.464, 192.0, 0.0, 0.0, 0.0, 0.0, 0.0, 0.0, 0.0, 0.0, 0.0, 1.6541738169147348E9, 0.0, 2022-06-02 14:43:36.914
78.0, -8360.245330362955, 8838.505606473162, -46042.73838314276, -38413.75272437963, -23280.682954869626, -21572.69675406179, -9556.421286633169, -10073.484191117786, 0.016, 0.918, 0.462, 192.0, 0.0, 128.0, 28.0, 176.0, 14.0, 112.0, 0.0, 0.0, 0.0, 1.6541738169147415E9, 0.0, 2022-06-02 14:43:36.914
79.0, -8369.566007800819, 8827.508548201151, -46063.32433978609, -38444.59813172795, -23300.66541441267, -21598.870646818956, -9570.391126917735, -10116.533650938709, 0.016, 0.918, 0.462, 192.0, 0.0, 0.0, 0.0, 0.0, 0.0, 0.0, 0.0, 0.0, 0.0, 1.6541738169147477E9, 0.0, 2022-06-02 14:43:36.914
80.0, -8386.598037075762, 8803.323960700507, -46092.001627922255, -38468.89447795087, -23325.14057459123, -21631.23597279024, -9597.481441197568, -10155.91742466896, 0.016, 0.918, 0.462, 192.0, 0.0, 0.0, 0.0, 0.0, 0.0, 0.0, 0.0, 0.0, 0.0, 1.6541738169147546E9, 0.0, 2022-06-02 14:43:36.914
81.0, -8389.392005132677, 8793.824469307003, -46097.70132275836, -38469.11799539543, -23327.934542648145, -21635.460452492294, -9606.511545957512, -10172.368308588066, 0.016, 0.918, 0.462, 192.0, 0.0, 0.0, 0.0, 0.0, 0.0, 0.0, 0.0, 0.0, 0.0, 1.6541738169147651E9, 0.0, 2022-06-02 14:43:36.914
82.0, -8373.94694971406, 8812.734045116193, -46075.21546783632, -38446.095698606456, -23307.259179026983, -21610.80647835809, -9615.340485017357, -10149.614232732563, 0.016, 0.918, 0.462, 192.0, 0.0, 0.0, 0.0, 0.0, 0.0, 0.0, 0.0, 0.0, 0.0, 1.6541738169147725E9, 0.0, 2022-06-02 14:43:36.914
83.0, -8358.904225695638, 8835.398713993873, -46043.74421164325, -38415.16088428031, -23278.02309727944, -21578.93289076482, -9591.290007983447, -10099.792194341684, 0.016, 0.918, 0.462, 192.0, 0.0, 0.0, 0.0, 0.0, 0.0, 0.0, 0.0, 0.0, 0.0, 1.654173816914779E9, 0.0, 2022-06-02 14:43:36.914
84.0, -8368.403717089142, 8822.881737098902, -46065.29129329816, -38438.78667816957, -23302.833533624835, -21597.797763085102, -9598.263752253504, -10122.47921496382, 0.016, 0.918, 0.462, 192.0, 0.0, 0.0, 0.0, 0.0, 0.0, 0.0, 0.0, 0.0, 0.0, 1.654173816914786E9, 0.0, 2022-06-02 14:43:36.914
85.0, -8373.61167354723, 8810.856498581947, -46088.78297672069, -38462.63598950338, -23327.80043218141, -21622.13881279693, -9618.067397840905, -10148.027258876236, 0.016, 0.918, 0.462, 192.0, 0.0, 0.0, 0.0, 0.0, 0.0, 0.0, 0.0, 0.0, 0.0, 1.6541738169147928E9, 0.0, 2022-06-02 14:43:36.914
86.0, -8383.066461451825, 8801.580524632995, -46105.703247273355, -38479.779777500604, -23345.413606812195, -21640.869574650478, -9640.62030799631, -10166.646262007507, 0.016, 0.918, 0.462, 192.0, 0.0, 0.0, 0.0, 0.0, 0.0, 0.0, 0.0, 0.0, 0.0, 1.654173816914818E9, 0.0, 2022-06-02 14:43:36.914
87.0, -8372.471734580009, 8822.434702209795, -46080.535183016684, -38452.28713182058, -23315.529324475447, -21607.006681800685, -9620.481386242078, -10137.656049448973, 0.016, 0.918, 0.462, 192.0, 0.0, 0.0, 0.0, 0.0, 0.0, 0.0, 0.0, 0.0, 0.0, 1.6541738169148252E9, 0.0, 2022-06-02 14:43:36.914
88.0, -8354.836208204772, 8836.18102504981, -46053.98131060378, -38421.486427961165, -23282.404039192683, -21581.436286143817, -9570.972272273573, -10105.469537433331, 0.012, 0.92, 0.462, 192.0, 0.0, 96.0, 28.0, 192.0, 14.0, 112.0, 0.0, 0.0, 0.0, 1.6541738169148335E9, 0.0, 2022-06-02 14:43:36.914
89.0, -8360.535903040874, 8831.196586036276, -46061.73736592977, -38429.823628643, -23287.969623562054, -21592.433344415826, -9561.495132624523, -10117.360665483555, 0.012, 0.92, 0.462, 192.0, 0.0, 0.0, 0.0, 0.0, 0.0, 0.0, 0.0, 0.0, 0.0, 1.6541738169148414E9, 0.0, 2022-06-02 14:43:36.914
90.0, -8379.601941061252, 8811.169423004321, -46089.45352905435, -38463.17243137031, -23321.38548152274, -21626.47505122126, -9599.537801687457, -10158.286709581222, 0.012, 0.92, 0.462, 192.0, 0.0, 0.0, 0.0, 0.0, 0.0, 0.0, 0.0, 0.0, 0.0, 1.6541738169148476E9, 0.0, 2022-06-02 14:43:36.914
91.0, -8387.335644642788, 8803.793347334069, -46107.044351940676, -38478.729245511204, -23338.395159053227, -21645.63049621946, -9625.354066533335, -10175.92223595646, 0.012, 0.92, 0.462, 192.0, 0.0, 0.0, 0.0, 0.0, 0.0, 0.0, 0.0, 0.0, 0.0, 1.6541738169148533E9, 0.0, 2022-06-02 14:43:36.914
92.0, -8384.854601008248, 8811.54940266006, -46092.06868315562, -38457.785660956586, -23320.402004766704, -21623.099937808507, -9617.66506644071, -10139.287726794211, 0.012, 0.92, 0.462, 192.0, 0.0, 0.0, 0.0, 0.0, 0.0, 0.0, 0.0, 0.0, 0.0, 1.65417381691486E9, 0.0, 2022-06-02 14:43:36.914
93.0, -8358.859522206727, 8840.807836152058, -46052.19317104735, -38414.713849391206, -23278.693649613102, -21575.55777735207, -9567.977138516562, -10086.492906390775, 0.012, 0.92, 0.462, 192.0, 0.0, 0.0, 0.0, 0.0, 0.0, 0.0, 0.0, 0.0, 0.0, 1.6541738169148672E9, 0.0, 2022-06-02 14:43:36.914
94.0, -8365.430935076587, 8832.649449425871, -46065.98419737628, -38429.55540770953, -23296.172713777152, -21583.22442570024, -9581.99168229004, -10103.882563577004, 0.012, 0.92, 0.462, 192.0, 0.0, 0.0, 0.0, 0.0, 0.0, 0.0, 0.0, 0.0, 0.0, 1.654173816914875E9, 0.0, 2022-06-02 14:43:36.914
95.0, -8398.489165125986, 8794.249152451654, -46114.46513109984, -38479.69037052278, -23344.966571923087, -21634.834603647545, -9628.371552034801, -10164.388735817522, 0.012, 0.92, 0.462, 192.0, 0.0, 0.0, 0.0, 0.0, 0.0, 0.0, 0.0, 0.0, 0.0, 1.6541738169148808E9, 0.0, 2022-06-02 14:43:36.914
96.0, -8401.014912249437, 8784.92847501379, -46129.99959349628, -38495.69421955278, -23353.28142086046, -21653.05127537862, -9636.149959105249, -10189.176820418455, 0.012, 0.92, 0.462, 192.0, 0.0, 0.0, 0.0, 0.0, 0.0, 0.0, 0.0, 0.0, 0.0, 1.6541738169148872E9, 0.0, 2022-06-02 14:43:36.914
97.0, -8376.204475904045, 8805.916763057323, -46105.010343195245, -38471.62139077442, -23320.469060000072, -21625.871554120964, -9615.049912339438, -10160.253663093288, 0.014, 0.916, 0.47000000000000003, 192.0, 0.0, 112.0, 28.0, 160.0, 14.0, 176.0, 0.0, 0.0, 0.0, 1.6541738169148943E9, 0.0, 2022-06-02 14:43:36.914
98.0, -8347.862463934716, 8834.482292471206, -46061.938531629865, -38425.397983240844, -23278.693649613102, -21589.572321125546, -9580.315301455892, -10134.727970925329, 0.014, 0.916, 0.47000000000000003, 192.0, 0.0, 0.0, 0.0, 0.0, 0.0, 0.0, 0.0, 0.0, 0.0, 1.6541738169149017E9, 0.0, 2022-06-02 14:43:36.914
99.0, -8343.07919062128, 8840.383153007408, -46063.10082234154, -38423.520436706596, -23284.41569619366, -21590.064059503566, -9604.365778489802, -10127.843633633094, 0.014, 0.916, 0.47000000000000003, 192.0, 0.0, 0.0, 0.0, 0.0, 0.0, 0.0, 0.0, 0.0, 0.0, 1.6541738169149077E9, 0.0, 2022-06-02 14:43:36.914
100.0, -8376.740917770972, 8809.69420787027, -46104.65271528396, -38467.59807677246, -23329.722682204567, -21619.23308601774, -9656.221825626115, -10145.546215241697, 0.014, 0.916, 0.47000000000000003, 192.0, 0.0, 0.0, 0.0, 0.0, 0.0, 0.0, 0.0, 0.0, 0.0, 1.6541738169149144E9, 0.0, 2022-06-02 14:43:36.914
101.0, -8398.08683372579, 8789.73410007168, -46127.5409016062, -38490.62037356143, -23353.124958649274, -21639.550821727615, -9636.865214927819, -10170.557817287186, 0.014, 0.916, 0.47000000000000003, 192.0, 0.0, 0.0, 0.0, 0.0, 0.0, 0.0, 0.0, 0.0, 0.0, 1.6541738169149213E9, 0.0, 2022-06-02 14:43:36.914
102.0, -8377.411470104631, 8815.148033517366, -46090.057026154645, -38451.86244867593, -23317.831554154345, -21607.833696345533, -9589.188944004649, -10131.19639530139, 0.014, 0.916, 0.47000000000000003, 192.0, 0.0, 0.0, 0.0, 0.0, 0.0, 0.0, 0.0, 0.0, 0.0, 1.6541738169149284E9, 0.0, 2022-06-02 14:43:36.914
103.0, -8346.387248800665, 8850.195568823287, -46044.39241223245, -38400.76636085109, -23271.339925687305, -21564.60542256897, -9566.70308908261, -10074.758240551739, 0.014, 0.916, 0.47000000000000003, 192.0, 0.0, 0.0, 0.0, 0.0, 0.0, 0.0, 0.0, 0.0, 0.0, 1.654173816914935E9, 0.0, 2022-06-02 14:43:36.914
104.0, -8351.50579828093, 8840.025525096122, -46060.195095562354, -38418.491294204156, -23289.08721078482, -21588.812361814067, -9578.080127010362, -10098.205220485357, 0.014, 0.916, 0.47000000000000003, 192.0, 0.0, 0.0, 0.0, 0.0, 0.0, 0.0, 0.0, 0.0, 0.0, 1.6541738169149413E9, 0.0, 2022-06-02 14:43:36.914
105.0, -8372.874065980204, 8812.018789293623, -46096.71784600233, -38459.70791097974, -23325.989940880532, -21631.101862323507, -9606.80211863543, -10176.190456889923, 0.014, 0.916, 0.47000000000000003, 192.0, 0.0, 0.0, 0.0, 0.0, 0.0, 0.0, 0.0, 0.0, 0.0, 1.6541738173944952E9, 0.0, 2022-06-02 14:43:37.394
106.0, -8384.340510885777, 8795.970236774712, -46119.7848462802, -38479.22098388922, -23348.878127202766, -21654.101807368017, -9643.973069664606, -10198.564553089685, 0.014, 0.916, 0.47000000000000003, 192.0, 0.0, 0.0, 0.0, 0.0, 0.0, 0.0, 0.0, 0.0, 0.0, 1.654173817394558E9, 0.0, 2022-06-02 14:43:37.394
107.0, -8357.943100684059, 8820.9818388202, -46091.88986919998, -38443.860524160926, -23314.85877214179, -21622.89877210841, -9621.084883342372, -10150.53065425523, 0.02, 0.916, 0.47200000000000003, 192.0, 0.0, 160.0, 28.0, 160.0, 14.0, 192.0, 0.0, 0.0, 0.0, 1.6541738173946087E9, 0.0, 2022-06-02 14:43:37.394
108.0, -8339.815835930805, 8846.37342052143, -46058.026976350186, -38405.88491033136, -23278.783056590924, -21585.97369026824, -9585.187981747149, -10098.071110018625, 0.02, 0.916, 0.47200000000000003, 192.0, 0.0, 0.0, 0.0, 0.0, 0.0, 0.0, 0.0, 0.0, 0.0, 1.6541738173946536E9, 0.0, 2022-06-02 14:43:37.394
109.0, -8358.144266384157, 8832.135359303398, -46072.66736896842, -38426.53792220807, -23298.206722522584, -21604.168010254863, -9597.481441197568, -10113.225592759323, 0.02, 0.916, 0.47200000000000003, 192.0, 0.0, 0.0, 0.0, 0.0, 0.0, 0.0, 0.0, 0.0, 0.0, 1.6541738173946705E9, 0.0, 2022-06-02 14:43:37.394
110.0, -8373.142286913668, 8805.402672934852, -46105.59148855108, -38466.368730827424, -23336.517612518983, -21638.276772293662, -9624.549403732944, -10162.555892772185, 0.02, 0.916, 0.47200000000000003, 192.0, 0.0, 0.0, 0.0, 0.0, 0.0, 0.0, 0.0, 0.0, 0.0, 1.65417381739468E9, 0.0, 2022-06-02 14:43:37.394
111.0, -8391.89540051167, 8788.996492504655, -46119.337811391095, -38486.90998398185, -23353.974324938576, -21659.421522548382, -9640.240328340571, -10164.276977095244, 0.02, 0.916, 0.47200000000000003, 192.0, 0.0, 0.0, 0.0, 0.0, 0.0, 0.0, 0.0, 0.0, 0.0, 1.654173817394688E9, 0.0, 2022-06-02 14:43:37.394
112.0, -8397.37157790322, 8788.035367493078, -46110.91120373145, -38477.8798792219, -23343.13372887775, -21649.05031312112, -9628.95269739064, -10154.352802557089, 0.02, 0.916, 0.47200000000000003, 192.0, 0.0, 0.0, 0.0, 0.0, 0.0, 0.0, 0.0, 0.0, 0.0, 1.6541738173946967E9, 0.0, 2022-06-02 14:43:37.394
113.0, -8364.112182153724, 8828.626135423916, -46054.69656642635, -38422.98399483967, -23284.281585726927, -21591.114591492962, -9561.785705302442, -10099.389862941487, 0.02, 0.916, 0.47200000000000003, 192.0, 0.0, 0.0, 0.0, 0.0, 0.0, 0.0, 0.0, 0.0, 0.0, 1.6541738173947065E9, 0.0, 2022-06-02 14:43:37.394
114.0, -8352.086943636768, 8835.666934927338, -46050.38267974647, -38423.00634658412, -23281.733486859022, -21585.41489665686, -9559.997565746018, -10102.653217631963, 0.02, 0.916, 0.47200000000000003, 192.0, 0.0, 0.0, 0.0, 0.0, 0.0, 0.0, 0.0, 0.0, 0.0, 1.6541738173947144E9, 0.0, 2022-06-02 14:43:37.394
115.0, -8364.89449320966, 8814.365722461429, -46080.758700461236, -38452.734166709684, -23318.9044378882, -21620.88711510743, -9604.85751686782, -10145.948546641892, 0.02, 0.916, 0.47200000000000003, 192.0, 0.0, 0.0, 0.0, 0.0, 0.0, 0.0, 0.0, 0.0, 0.0, 1.6541738173947237E9, 0.0, 2022-06-02 14:43:37.394
116.0, -8373.634025291685, 8808.353103202951, -46089.38647382098, -38465.385254071385, -23333.56718225088, -21627.257362277196, -9625.756397933532, -10156.72208746935, 0.02, 0.916, 0.47200000000000003, 192.0, 0.0, 0.0, 0.0, 0.0, 0.0, 0.0, 0.0, 0.0, 0.0, 1.6541738173947315E9, 0.0, 2022-06-02 14:43:37.394
117.0, -8371.197685146057, 8810.253001481653, -46077.98708414878, -38452.19772484276, -23320.647873955713, -21607.81134460108, -9609.149051803239, -10124.803796387172, 0.018000000000000002, 0.912, 0.468, 192.0, 0.0, 144.0, 28.0, 128.0, 14.0, 160.0, 0.0, 0.0, 0.0, 1.65417381739474E9, 0.0, 2022-06-02 14:43:37.394
118.0, -8349.672955235596, 8838.170330306331, -46038.0668685516, -38414.69149764675, -23281.71113511457, -21568.159349937363, -9585.99264454754, -10071.204313183345, 0.018000000000000002, 0.912, 0.468, 192.0, 0.0, 0.0, 0.0, 0.0, 0.0, 0.0, 0.0, 0.0, 0.0, 1.6541738173947525E9, 0.0, 2022-06-02 14:43:37.394
119.0, -8360.290033851867, 8831.084827314, -46044.750040143736, -38427.81197164202, -23298.698460900603, -21581.41393439936, -9588.719557371087, -10079.630920842996, 0.018000000000000002, 0.912, 0.468, 192.0, 0.0, 0.0, 0.0, 0.0, 0.0, 0.0, 0.0, 0.0, 0.0, 1.6541738173947608E9, 0.0, 2022-06-02 14:43:37.394
120.0, -8374.237522391979, 8813.829280594502, -46067.66057821042, -38460.780794713595, -23326.884010658745, -21612.84048710352, -9605.192793034648, -10118.545307939687, 0.018000000000000002, 0.912, 0.468, 192.0, 0.0, 0.0, 0.0, 0.0, 0.0, 0.0, 0.0, 0.0, 0.0, 1.6541738173947668E9, 0.0, 2022-06-02 14:43:37.394
121.0, -8359.530074540386, 8816.109158528943, -46067.70528169934, -38463.88768719288, -23328.470984515072, -21613.689853392825, -9621.397807764746, -10133.632735447018, 0.018000000000000002, 0.912, 0.468, 192.0, 0.0, 0.0, 0.0, 0.0, 0.0, 0.0, 0.0, 0.0, 0.0, 1.6541738173947725E9, 0.0, 2022-06-02 14:43:37.394
122.0, -8341.134588853669, 8834.482292471206, -46037.128095284475, -38435.88095139038, -23297.93850158912, -21583.626757100435, -9600.677740654677, -10126.390770243499, 0.018000000000000002, 0.912, 0.468, 192.0, 0.0, 0.0, 0.0, 0.0, 0.0, 0.0, 0.0, 0.0, 0.0, 1.6541738173947785E9, 0.0, 2022-06-02 14:43:37.394
123.0, -8328.08117009177, 8852.743667691191, -46000.985324500245, -38405.57198590899, -23265.170844217642, -21552.669591029837, -9570.815810062386, -10100.23922923079, 0.018000000000000002, 0.912, 0.468, 192.0, 0.0, 0.0, 0.0, 0.0, 0.0, 0.0, 0.0, 0.0, 0.0, 1.654173817394788E9, 0.0, 2022-06-02 14:43:37.394
124.0, -8327.500024735931, 8857.348127048985, -45996.649086075915, -38406.48840743165, -23266.444893651595, -21549.562698550548, -9558.544702356423, -10070.511409105231, 0.018000000000000002, 0.912, 0.468, 192.0, 0.0, 0.0, 0.0, 0.0, 0.0, 0.0, 0.0, 0.0, 0.0, 1.6541738173947935E9, 0.0, 2022-06-02 14:43:37.394
125.0, -8362.100525152746, 8823.753455132659, -46037.44101970685, -38451.5271725091, -23311.12603081775, -21595.0484985171, -9604.343426745347, -10131.554023212675, 0.018000000000000002, 0.912, 0.468, 192.0, 0.0, 0.0, 0.0, 0.0, 0.0, 0.0, 0.0, 0.0, 0.0, 1.654173817394799E9, 0.0, 2022-06-02 14:43:37.394
126.0, -8385.636912064185, 8796.685492597282, -46071.90740965693, -38485.83710024799, -23347.46996730208, -21628.71022566679, -9637.222842839104, -10154.352802557089, 0.018000000000000002, 0.912, 0.468, 192.0, 0.0, 0.0, 0.0, 0.0, 0.0, 0.0, 0.0, 0.0, 0.0, 1.6541738173948057E9, 0.0, 2022-06-02 14:43:37.394
127.0, -8368.113144411223, 8813.806928850046, -46052.88607512547, -38461.25018134715, -23324.85000191331, -21601.396393942403, -9627.410427023224, -10110.610438658052, 0.016, 0.906, 0.47200000000000003, 192.0, 0.0, 128.0, 28.0, 80.0, 14.0, 192.0, 0.0, 0.0, 0.0, 1.6541738173948116E9, 0.0, 2022-06-02 14:43:37.394
128.0, -8337.871234163194, 8848.56389147805, -45996.55967909809, -38413.05982030151, -23275.519701900448, -21553.898936974878, -9597.481441197568, -10075.2276271853, 0.016, 0.906, 0.47200000000000003, 192.0, 0.0, 0.0, 0.0, 0.0, 0.0, 0.0, 0.0, 0.0, 0.0, 1.6541738173948293E9, 0.0, 2022-06-02 14:43:37.394
129.0, -8342.654507476629, 8841.970126863735, -46001.36530415599, -38425.55444545203, -23284.907434571676, -21565.968878980744, -9606.600952935332, -10096.484136162298, 0.016, 0.906, 0.47200000000000003, 192.0, 0.0, 0.0, 0.0, 0.0, 0.0, 0.0, 0.0, 0.0, 0.0, 1.6541738173948348E9, 0.0, 2022-06-02 14:43:37.394
130.0, -8369.94598745656, 8808.88954506988, -46046.269958766694, -38479.35509435595, -23330.84026942733, -21617.24378076122, -9638.42983703969, -10143.378096029532, 0.016, 0.906, 0.47200000000000003, 192.0, 0.0, 0.0, 0.0, 0.0, 0.0, 0.0, 0.0, 0.0, 0.0, 1.65417381739484E9, 0.0, 2022-06-02 14:43:37.394
131.0, -8361.049993163348, 8813.225783494208, -46047.56635994511, -38479.444501333775, -23332.695464217122, -21616.03678656063, -9619.162633319216, -10162.06415439417, 0.016, 0.906, 0.47200000000000003, 192.0, 0.0, 0.0, 0.0, 0.0, 0.0, 0.0, 0.0, 0.0, 0.0, 1.6541738173948457E9, 0.0, 2022-06-02 14:43:37.394
132.0, -8337.915937652104, 8836.471597727728, -46015.55866188511, -38430.293015276555, -23299.681937656635, -21584.99021351221, -9580.941150300641, -10131.352857512577, 0.016, 0.906, 0.47200000000000003, 192.0, 0.0, 0.0, 0.0, 0.0, 0.0, 0.0, 0.0, 0.0, 0.0, 1.6541738173948517E9, 0.0, 2022-06-02 14:43:37.394
133.0, -8328.014114858403, 8858.018679382645, -45983.5509638251, -38393.32322994748, -23267.048390751886, -21545.673495015322, -9559.550530856912, -10078.669795831418, 0.016, 0.906, 0.47200000000000003, 192.0, 0.0, 0.0, 0.0, 0.0, 0.0, 0.0, 0.0, 0.0, 0.0, 1.6541738173948617E9, 0.0, 2022-06-02 14:43:37.394
134.0, -8339.279394063878, 8849.614423467448, -46001.16413845589, -38407.717753376695, -23287.47788518404, -21555.620021297935, -9606.086862812861, -10080.122659221013, 0.016, 0.906, 0.47200000000000003, 192.0, 0.0, 0.0, 0.0, 0.0, 0.0, 0.0, 0.0, 0.0, 0.0, 1.6541738173948672E9, 0.0, 2022-06-02 14:43:37.394
135.0, -8354.478580293488, 8831.151882547365, -46032.59069116005, -38444.12874509439, -23320.893743144723, -21594.42264967235, -9636.038200382973, -10119.126453295525, 0.016, 0.906, 0.47200000000000003, 192.0, 0.0, 0.0, 0.0, 0.0, 0.0, 0.0, 0.0, 0.0, 0.0, 1.6541738173948753E9, 0.0, 2022-06-02 14:43:37.394
136.0, -8371.778830501895, 8807.235515980186, -46064.26311305322, -38481.90319322386, -23353.348476093826, -21631.41478674588, -9646.185892365682, -10170.736631242828, 0.016, 0.906, 0.47200000000000003, 192.0, 0.0, 0.0, 0.0, 0.0, 0.0, 0.0, 0.0, 0.0, 0.0, 1.6541738173948877E9, 0.0, 2022-06-02 14:43:37.394
137.0, -8366.973205444003, 8820.288934742086, -46042.44781046484, -38458.813841201525, -23327.71102520359, -21607.14079226742, -9608.52320295849, -10148.049610620692, 0.012, 0.91, 0.468, 192.0, 0.0, 96.0, 28.0, 112.0, 14.0, 160.0, 0.0, 0.0, 0.0, 1.654173817394897E9, 0.0, 2022-06-02 14:43:37.394
138.0, -8328.058818347314, 8854.17417933633, -45991.99992322921, -38408.1647882658, -23275.69851585609, -21555.485910831205, -9561.94216751363, -10098.987531541292, 0.012, 0.91, 0.468, 192.0, 0.0, 0.0, 0.0, 0.0, 0.0, 0.0, 0.0, 0.0, 0.0, 1.654173817394907E9, 0.0, 2022-06-02 14:43:37.394
139.0, -8323.588469456252, 8857.839865427002, -45991.53053659565, -38412.88100634587, -23277.307841456874, -21556.15646316486, -9570.838161806842, -10090.04683375917, 0.012, 0.91, 0.468, 192.0, 0.0, 0.0, 0.0, 0.0, 0.0, 0.0, 0.0, 0.0, 0.0, 1.654173817394916E9, 0.0, 2022-06-02 14:43:37.394
140.0, -8354.903263438138, 8828.626135423916, -46030.95901381481, -38456.33279756699, -23316.065766342374, -21599.965882297263, -9606.71271165761, -10132.448092990888, 0.012, 0.91, 0.468, 192.0, 0.0, 0.0, 0.0, 0.0, 0.0, 0.0, 0.0, 0.0, 0.0, 1.6541738173949246E9, 0.0, 2022-06-02 14:43:37.394
141.0, -8366.727336254995, 8808.286047969586, -46058.7198804283, -38481.14323391238, -23340.406816054205, -21632.04063559063, -9635.613517238322, -10187.053404695202, 0.012, 0.91, 0.468, 192.0, 0.0, 0.0, 0.0, 0.0, 0.0, 0.0, 0.0, 0.0, 0.0, 1.654173817394935E9, 0.0, 2022-06-02 14:43:37.394
142.0, -8360.245330362955, 8815.282143984097, -46044.951205843834, -38465.16173662683, -23325.252333313507, -21614.60627491549, -9622.00130486504, -10151.268261822255, 0.012, 0.91, 0.468, 192.0, 0.0, 0.0, 0.0, 0.0, 0.0, 0.0, 0.0, 0.0, 0.0, 1.6541738173949428E9, 0.0, 2022-06-02 14:43:37.394
