%OpenBCI Raw EEG Data
%Number of channels = 8
%Sample Rate = 250 Hz
%Board = OpenBCI_GUI$BoardCytonSerial
Sample Index, EXG Channel 0, EXG Channel 1, EXG Channel 2, EXG Channel 3, EXG Channel 4, EXG Channel 5, EXG Channel 6, EXG Channel 7, Accel Channel 0, Accel Channel 1, Accel Channel 2, Other, Other, Other, Other, Other, Other, Other, Analog Channel 0, Analog Channel 1, Analog Channel 2, Timestamp, Other, Timestamp (Formatted)
0.0, 0.0, 0.0, 0.0, 0.0, 0.0, 0.0, 0.0, 0.0, 0.0, 0.0, 0.0, 192.0, 0.0, 0.0, 0.0, 0.0, 0.0, 0.0, 0.0, 0.0, 0.0, 1.6541552820877476E9, 0.0, 2022-06-02 09:34:42.087
1.0, 23878.01097369325, -7658.802885866509, -62689.98237728863, -28967.458482677757, -13870.1738560407, -38282.369170471335, -7252.3587646912065, -28985.339878242004, -0.032, 0.914, 0.464, 192.0, 255.0, 0.0, 28.0, 144.0, 14.0, 128.0, 0.0, 0.0, 0.0, 1.654155282569432E9, 0.0, 2022-06-02 09:34:42.569
2.0, 23868.600889277564, -7672.929188362264, -62706.34385422991, -28983.618793918944, -13879.919216623213, -38297.456597978664, -7271.20128526703, -28995.465218480258, -0.032, 0.914, 0.464, 192.0, 0.0, 0.0, 0.0, 0.0, 0.0, 0.0, 0.0, 0.0, 0.0, 1.6541552825694492E9, 0.0, 2022-06-02 09:34:42.569
3.0, 23845.466833766324, -7699.594819497445, -62736.8092819225, -29009.390355275915, -13906.786013458493, -38323.20580759118, -7296.861087901722, -29016.609968734978, -0.032, 0.914, 0.464, 192.0, 0.0, 0.0, 0.0, 0.0, 0.0, 0.0, 0.0, 0.0, 0.0, 1.6541552825694633E9, 0.0, 2022-06-02 09:34:42.569
4.0, 23841.331761042093, -7701.159441609317, -62738.93269764575, -29011.06673611006, -13909.021187904023, -38325.61979599235, -7274.4869917019605, -29032.055024153597, -0.032, 0.914, 0.464, 192.0, 0.0, 0.0, 0.0, 0.0, 0.0, 0.0, 0.0, 0.0, 0.0, 1.654155282569477E9, 0.0, 2022-06-02 09:34:42.569
5.0, 23844.7292261993, -7689.3130170480035, -62717.11739505737, -28991.911291111865, -13896.861838920337, -38306.10672308287, -7261.567683406793, -28994.146465557395, -0.032, 0.914, 0.464, 192.0, 0.0, 0.0, 0.0, 0.0, 0.0, 0.0, 0.0, 0.0, 0.0, 1.654155282569491E9, 0.0, 2022-06-02 09:34:42.569
6.0, 23858.877880439508, -7671.94571160623, -62698.87837158184, -28972.599383902478, -13879.047498589456, -38288.85117636337, -7258.3490322052285, -28983.842311363496, -0.032, 0.914, 0.464, 192.0, 0.0, 0.0, 0.0, 0.0, 0.0, 0.0, 0.0, 0.0, 0.0, 1.6541552825695047E9, 0.0, 2022-06-02 09:34:42.569
7.0, 23872.087761412593, -7668.972929593674, -62698.11841227036, -28972.152349013373, -13873.101934564345, -38288.96293508565, -7262.618215396192, -29004.11534358446, -0.032, 0.914, 0.464, 192.0, 0.0, 0.0, 0.0, 0.0, 0.0, 0.0, 0.0, 0.0, 0.0, 1.6541552825695183E9, 0.0, 2022-06-02 09:34:42.569
8.0, 23869.941993944885, -7681.646368699833, -62715.46336596768, -28988.893805610398, -13890.46924000612, -38305.72674342713, -7275.358709735717, -29002.43896275031, -0.024, 0.91, 0.47400000000000003, 192.0, 255.0, 64.0, 28.0, 112.0, 14.0, 208.0, 0.0, 0.0, 0.0, 1.6541552825695324E9, 0.0, 2022-06-02 09:34:42.569
9.0, 23849.825423935108, -7700.265371831104, -62739.42443602377, -29009.792686676108, -13918.543031041985, -38323.85400818038, -7313.44608228756, -29008.943320386807, -0.024, 0.91, 0.47400000000000003, 192.0, 0.0, 0.0, 0.0, 0.0, 0.0, 0.0, 0.0, 0.0, 0.0, 1.6541552825695467E9, 0.0, 2022-06-02 09:34:42.569
10.0, 23841.28705755318, -7700.153613108828, -62734.060017354495, -29004.56237847357, -13914.787937973493, -38318.48958951111, -7292.189573310563, -29006.35051802999, -0.024, 0.91, 0.47400000000000003, 192.0, 0.0, 0.0, 0.0, 0.0, 0.0, 0.0, 0.0, 0.0, 0.0, 1.6541552825695603E9, 0.0, 2022-06-02 09:34:42.569
11.0, 23864.219947364327, -7669.084688315951, -62699.01248204857, -28973.269936236138, -13875.426515987698, -38288.40414147427, -7234.38796214914, -28973.761674614154, -0.024, 0.91, 0.47400000000000003, 192.0, 0.0, 0.0, 0.0, 0.0, 0.0, 0.0, 0.0, 0.0, 0.0, 1.6541552825695744E9, 0.0, 2022-06-02 09:34:42.569
12.0, 23864.555223531155, -7672.437449984247, -62703.66164489528, -28981.31656424005, -13874.778315398493, -38298.70829566816, -7249.900072801122, -28979.126093283427, -0.024, 0.91, 0.47400000000000003, 192.0, 0.0, 0.0, 0.0, 0.0, 0.0, 0.0, 0.0, 0.0, 0.0, 1.654155282569588E9, 0.0, 2022-06-02 09:34:42.569
13.0, 23863.214118863838, -7685.893200146342, -62715.77629039005, -28999.15325631538, -13888.479934749597, -38319.22719707814, -7263.288767729851, -29001.25432029418, -0.024, 0.91, 0.47400000000000003, 192.0, 0.0, 0.0, 0.0, 0.0, 0.0, 0.0, 0.0, 0.0, 0.0, 1.654155282569602E9, 0.0, 2022-06-02 09:34:42.569
14.0, 23839.05188310765, -7714.838709215965, -62742.307811058505, -29029.46222179678, -13919.168879886733, -38348.59738929241, -7303.276038560395, -29045.242553382228, -0.024, 0.91, 0.47400000000000003, 192.0, 0.0, 0.0, 0.0, 0.0, 0.0, 0.0, 0.0, 0.0, 0.0, 1.6541552825696163E9, 0.0, 2022-06-02 09:34:42.569
15.0, 23838.649551707455, -7704.020464899596, -62735.1552528328, -29021.5497042596, -13918.90065895327, -38341.31072059998, -7317.938782923077, -29044.527297559656, -0.024, 0.91, 0.47400000000000003, 192.0, 0.0, 0.0, 0.0, 0.0, 0.0, 0.0, 0.0, 0.0, 0.0, 1.6541552825696301E9, 0.0, 2022-06-02 09:34:42.569
16.0, 23851.613563491534, -7683.121583833884, -62712.33412174394, -29001.07550633854, -13897.666501720727, -38321.037688379016, -7283.2935790173515, -29014.285387311626, -0.024, 0.91, 0.47400000000000003, 192.0, 0.0, 0.0, 0.0, 0.0, 0.0, 0.0, 0.0, 0.0, 0.0, 1.6541552825696437E9, 0.0, 2022-06-02 09:34:42.569
17.0, 23860.062522895638, -7681.422851255281, -62704.89099084032, -28997.007488847674, -13885.238931803577, -38319.406011033774, -7247.57549137777, -28979.751942128176, -0.024, 0.91, 0.47400000000000003, 192.0, 0.0, 0.0, 0.0, 0.0, 0.0, 0.0, 0.0, 0.0, 0.0, 1.6541552825696576E9, 0.0, 2022-06-02 09:34:42.569
18.0, 23856.82151994962, -7695.169174095295, -62723.17471780476, -29012.6984134553, -13897.778260443005, -38336.616854264365, -7277.34801499224, -29016.162933845873, -0.016, 0.906, 0.482, 192.0, 255.0, 128.0, 28.0, 80.0, 15.0, 16.0, 0.0, 0.0, 0.0, 1.6541552825696712E9, 0.0, 2022-06-02 09:34:42.569
19.0, 23854.854566437552, -7699.0583776305175, -62728.69559868522, -29015.40297453439, -13909.512926282041, -38334.91812168576, -7290.177916309585, -29041.219239380272, -0.016, 0.906, 0.482, 192.0, 0.0, 0.0, 0.0, 0.0, 0.0, 0.0, 0.0, 0.0, 0.0, 1.6541552825697E9, 0.0, 2022-06-02 09:34:42.569
20.0, 23857.559127516644, -7689.290665303549, -62715.21749677867, -29004.808247662575, -13902.583885500895, -38324.166932602755, -7275.403413224628, -29013.301910555594, -0.016, 0.906, 0.482, 192.0, 0.0, 0.0, 0.0, 0.0, 0.0, 0.0, 0.0, 0.0, 0.0, 1.654155282569726E9, 0.0, 2022-06-02 09:34:42.569
21.0, 23856.463892038333, -7682.205162311217, -62706.47796469665, -28997.700392925788, -13894.090222607878, -38318.13196159982, -7269.681366644069, -29010.284425054127, -0.016, 0.906, 0.482, 192.0, 0.0, 0.0, 0.0, 0.0, 0.0, 0.0, 0.0, 0.0, 0.0, 1.65415528256974E9, 0.0, 2022-06-02 09:34:42.569
22.0, 23872.423037579425, -7668.302377260015, -62700.04066229352, -28986.301003253582, -13881.685004435183, -38307.87251089484, -7263.668747385592, -28995.6440324359, -0.016, 0.906, 0.482, 192.0, 0.0, 0.0, 0.0, 0.0, 0.0, 0.0, 0.0, 0.0, 0.0, 1.6541552825697627E9, 0.0, 2022-06-02 09:34:42.569
23.0, 23876.267537625736, -7670.828124383465, -62715.5527729455, -28994.392334746404, -13891.095088850867, -38315.650917965286, -7285.193477296052, -29013.36896578896, -0.016, 0.906, 0.482, 192.0, 0.0, 0.0, 0.0, 0.0, 0.0, 0.0, 0.0, 0.0, 0.0, 1.6541552825697768E9, 0.0, 2022-06-02 09:34:42.569
24.0, 23861.604793263054, -7686.831973413465, -62739.24562206813, -29015.470029767755, -13915.61495251834, -38335.96865367516, -7309.8250996858005, -29043.141489403428, -0.016, 0.906, 0.482, 192.0, 0.0, 0.0, 0.0, 0.0, 0.0, 0.0, 0.0, 0.0, 0.0, 1.6541552825698032E9, 0.0, 2022-06-02 09:34:42.569
25.0, 23863.459988052844, -7676.572522708479, -62726.46042423969, -29004.87530289594, -13906.964827414135, -38326.558569259476, -7295.5646867233145, -29016.02882337914, -0.016, 0.906, 0.482, 192.0, 0.0, 0.0, 0.0, 0.0, 0.0, 0.0, 0.0, 0.0, 0.0, 1.6541552825698168E9, 0.0, 2022-06-02 09:34:42.569
26.0, 23873.518273057733, -7660.367507978382, -62709.31663624247, -28985.429285219823, -13884.79189691447, -38307.62664170583, -7255.063325770298, -28991.576014945033, -0.016, 0.906, 0.482, 192.0, 0.0, 0.0, 0.0, 0.0, 0.0, 0.0, 0.0, 0.0, 0.0, 1.654155282569831E9, 0.0, 2022-06-02 09:34:42.569
27.0, 23872.400685834968, -7666.80481038151, -62708.31080774198, -28987.172721287337, -13883.003757358047, -38308.520711484045, -7251.7105641020025, -28992.335974256515, -0.008, 0.904, 0.48, 192.0, 255.0, 192.0, 28.0, 64.0, 15.0, 0.0, 0.0, 0.0, 0.0, 1.6541552825698445E9, 0.0, 2022-06-02 09:34:42.569
28.0, 23870.456084067355, -7679.634711698856, -62720.58191544795, -28998.281538281626, -13891.60917897334, -38317.64022322181, -7287.96509360851, -29019.69450946981, -0.008, 0.904, 0.48, 192.0, 0.0, 0.0, 0.0, 0.0, 0.0, 0.0, 0.0, 0.0, 0.0, 1.6541552825698662E9, 0.0, 2022-06-02 09:34:42.569
29.0, 23863.77291247522, -7690.430604270769, -62737.03279936705, -29012.854875666486, -13907.680083236704, -38332.16885711776, -7296.68227394608, -29033.93257068784, -0.008, 0.904, 0.48, 192.0, 0.0, 0.0, 0.0, 0.0, 0.0, 0.0, 0.0, 0.0, 0.0, 1.6541552825698805E9, 0.0, 2022-06-02 09:34:42.569
30.0, 23861.694200240876, -7680.953464621719, -62721.185412548235, -28997.16395105886, -13905.288446579987, -38312.92400514174, -7277.839753370256, -28998.885035381918, -0.008, 0.904, 0.48, 192.0, 0.0, 0.0, 0.0, 0.0, 0.0, 0.0, 0.0, 0.0, 0.0, 1.654155282569894E9, 0.0, 2022-06-02 09:34:42.569
31.0, 23865.47164505382, -7669.688185416244, -62705.31567398497, -28978.567299672046, -13894.760774941538, -38293.09800780988, -7282.5336197058705, -28983.082352052017, -0.008, 0.904, 0.48, 192.0, 0.0, 0.0, 0.0, 0.0, 0.0, 0.0, 0.0, 0.0, 0.0, 1.6541552825699074E9, 0.0, 2022-06-02 09:34:42.569
32.0, 23882.52602607322, -7659.495789944624, -62699.92890357124, -28971.280630979614, -13882.154391068745, -38287.01833331804, -7254.526883903371, -28978.433189205312, -0.008, 0.904, 0.48, 192.0, 0.0, 0.0, 0.0, 0.0, 0.0, 0.0, 0.0, 0.0, 0.0, 1.6541552825699208E9, 0.0, 2022-06-02 09:34:42.569
33.0, 23880.983755705805, -7672.258636028605, -62711.37299673236, -28985.78691313111, -13888.926969638702, -38307.291365539, -7258.930177561067, -29010.910273898873, -0.008, 0.904, 0.48, 192.0, 0.0, 0.0, 0.0, 0.0, 0.0, 0.0, 0.0, 0.0, 0.0, 1.6541552825699341E9, 0.0, 2022-06-02 09:34:42.569
34.0, 23866.835101465596, -7687.18960132475, -62724.068787582975, -29003.757715673175, -13908.015359403535, -38326.133886114825, -7292.837773899767, -29035.18426837734, -0.008, 0.904, 0.48, 192.0, 0.0, 0.0, 0.0, 0.0, 0.0, 0.0, 0.0, 0.0, 0.0, 1.6541552825699475E9, 0.0, 2022-06-02 09:34:42.569
35.0, 23869.40555207796, -7671.56573195049, -62706.00857806308, -28986.703334653776, -13901.511001767041, -38302.86572013685, -7296.414053012616, -29015.335919301026, -0.008, 0.904, 0.48, 192.0, 0.0, 0.0, 0.0, 0.0, 0.0, 0.0, 0.0, 0.0, 0.0, 1.6541552825699613E9, 0.0, 2022-06-02 09:34:42.569
36.0, 23866.388066576492, -7669.107040060407, -62699.861848337874, -28982.74707588519, -13893.643187718772, -38293.76856014354, -7286.5792854522815, -28987.709163154264, -0.008, 0.904, 0.48, 192.0, 0.0, 0.0, 0.0, 0.0, 0.0, 0.0, 0.0, 0.0, 0.0, 1.654155282569975E9, 0.0, 2022-06-02 09:34:42.569
37.0, 23859.123749628514, -7680.2158570546935, -62709.20487752019, -28996.202826047283, -13891.072737106411, -38306.75492367207, -7269.703718388524, -28995.576977202534, -0.008, 0.904, 0.48, 192.0, 255.0, 192.0, 28.0, 64.0, 15.0, 0.0, 0.0, 0.0, 0.0, 1.654155282569988E9, 0.0, 2022-06-02 09:34:42.569
38.0, 23859.95076417336, -7687.9048571473195, -62717.631485179845, -29005.59055871851, -13893.03969061848, -38313.885130153314, -7277.057442314321, -29013.83835242252, -0.008, 0.904, 0.48, 192.0, 0.0, 0.0, 0.0, 0.0, 0.0, 0.0, 0.0, 0.0, 0.0, 1.6541552825700011E9, 0.0, 2022-06-02 09:34:42.570
39.0, 23856.218022849327, -7699.505412519624, -62728.09210158493, -29016.051175123594, -13906.227219847111, -38324.3457465584, -7293.933009378077, -29029.819849708063, -0.008, 0.904, 0.48, 192.0, 0.0, 0.0, 0.0, 0.0, 0.0, 0.0, 0.0, 0.0, 0.0, 1.6541552825700145E9, 0.0, 2022-06-02 09:34:42.570
40.0, 23862.029476407704, -7686.407290268814, -62709.42839496474, -29001.45548599428, -13894.380795285797, -38313.72866794213, -7271.871837600689, -29035.18426837734, -0.008, 0.904, 0.48, 192.0, 0.0, 0.0, 0.0, 0.0, 0.0, 0.0, 0.0, 0.0, 0.0, 1.654155282570028E9, 0.0, 2022-06-02 09:34:42.570
41.0, 23868.734999744298, -7673.599740695923, -62687.21076097617, -28982.92588984083, -13871.93964385267, -38294.52851945502, -7242.747514575424, -28984.870491608443, -0.008, 0.904, 0.48, 192.0, 0.0, 0.0, 0.0, 0.0, 0.0, 0.0, 0.0, 0.0, 0.0, 1.6541552825700417E9, 0.0, 2022-06-02 09:34:42.570
42.0, 23879.799113249675, -7669.084688315951, -62683.61213011887, -28975.79568335959, -13868.229254273088, -38286.079560050915, -7252.62698562467, -28967.011447788653, -0.008, 0.904, 0.48, 192.0, 0.0, 0.0, 0.0, 0.0, 0.0, 0.0, 0.0, 0.0, 0.0, 1.654155282570055E9, 0.0, 2022-06-02 09:34:42.570
43.0, 23873.47356956882, -7685.736737935154, -62703.37107221736, -28993.945299857296, -13889.172838827712, -38307.112551583356, -7276.118669047198, -29008.920968642353, -0.008, 0.904, 0.48, 192.0, 0.0, 0.0, 0.0, 0.0, 0.0, 0.0, 0.0, 0.0, 0.0, 1.6541552825700707E9, 0.0, 2022-06-02 09:34:42.570
44.0, 23863.080008397104, -7695.57150549549, -62716.93858110173, -29008.563340731067, -13908.41769080373, -38320.9929848901, -7283.427689484083, -29043.81204173709, -0.008, 0.904, 0.48, 192.0, 0.0, 0.0, 0.0, 0.0, 0.0, 0.0, 0.0, 0.0, 0.0, 1.6541552825700843E9, 0.0, 2022-06-02 09:34:42.570
45.0, 23865.583403776098, -7679.657063443311, -62702.18642976123, -28993.274747523636, -13896.504211009053, -38303.066885836946, -7268.943759077044, -29004.94235812931, -0.008, 0.904, 0.48, 192.0, 0.0, 0.0, 0.0, 0.0, 0.0, 0.0, 0.0, 0.0, 0.0, 1.6541552825700977E9, 0.0, 2022-06-02 09:34:42.570
46.0, 23868.48913055529, -7671.230455783661, -62694.94446455771, -28980.802474117576, -13885.887132392781, -38292.5392141985, -7256.985575793455, -28980.757770628665, -0.008, 0.904, 0.48, 192.0, 0.0, 0.0, 0.0, 0.0, 0.0, 0.0, 0.0, 0.0, 0.0, 1.6541552825701108E9, 0.0, 2022-06-02 09:34:42.570
47.0, 23879.597947549577, -7667.788287137543, -62698.92307507075, -28976.01920080414, -13882.623777702305, -38292.60626943186, -7256.806761837812, -29008.65274770889, -0.008, 0.902, 0.484, 192.0, 255.0, 192.0, 28.0, 48.0, 15.0, 32.0, 0.0, 0.0, 0.0, 1.6541552825701241E9, 0.0, 2022-06-02 09:34:42.570
48.0, 23875.95461320336, -7678.986511109652, -62715.06103456749, -28990.92781435583, -13898.515868010028, -38309.3924295178, -7284.67938717358, -29015.89471291241, -0.008, 0.902, 0.484, 192.0, 0.0, 0.0, 0.0, 0.0, 0.0, 0.0, 0.0, 0.0, 0.0, 1.65415528257014E9, 0.0, 2022-06-02 09:34:42.570
49.0, 23875.52993005871, -7680.461726243702, -62715.3516072454, -28994.146465557395, -13912.642170505784, -38313.70631619768, -7302.761948437924, -29012.98898613322, -0.008, 0.902, 0.484, 192.0, 0.0, 0.0, 0.0, 0.0, 0.0, 0.0, 0.0, 0.0, 0.0, 1.6541552825701532E9, 0.0, 2022-06-02 09:34:42.570
50.0, 23870.970174189828, -7672.482153473157, -62704.354548973395, -28979.81899736154, -13901.75687095605, -38298.90946136826, -7275.7833928803675, -29003.154218572883, -0.008, 0.902, 0.484, 192.0, 0.0, 0.0, 0.0, 0.0, 0.0, 0.0, 0.0, 0.0, 0.0, 1.6541552825701663E9, 0.0, 2022-06-02 09:34:42.570
51.0, 23881.11786617254, -7655.338365475937, -62684.72971734163, -28957.7354738397, -13881.372080012809, -38273.94256281168, -7260.159523506109, -28991.531311456125, -0.008, 0.902, 0.484, 192.0, 0.0, 0.0, 0.0, 0.0, 0.0, 0.0, 0.0, 0.0, 0.0, 1.6541552825701797E9, 0.0, 2022-06-02 09:34:42.570
52.0, 23882.816598751142, -7658.3782027218585, -62690.429412177735, -28960.90942155235, -13881.103859079345, -38276.11068202385, -7249.140113489642, -28979.327258983525, -0.008, 0.902, 0.484, 192.0, 0.0, 0.0, 0.0, 0.0, 0.0, 0.0, 0.0, 0.0, 0.0, 1.6541552825701928E9, 0.0, 2022-06-02 09:34:42.570
53.0, 23871.01487767874, -7679.008862854107, -62711.21653452117, -28982.277689251627, -13900.818097688925, -38301.36815325834, -7276.811573125312, -28990.50313121118, -0.008, 0.902, 0.484, 192.0, 0.0, 0.0, 0.0, 0.0, 0.0, 0.0, 0.0, 0.0, 0.0, 1.654155282570206E9, 0.0, 2022-06-02 09:34:42.570
54.0, 23866.142197387482, -7687.368415280393, -62721.341874759426, -28993.699430668286, -13913.491536795085, -38312.7451911861, -7293.418919255605, -29012.94428264431, -0.008, 0.902, 0.484, 192.0, 0.0, 0.0, 0.0, 0.0, 0.0, 0.0, 0.0, 0.0, 0.0, 1.6541552825702195E9, 0.0, 2022-06-02 09:34:42.570
55.0, 23867.505653799257, -7676.170191308283, -62711.10477579889, -28985.719857897744, -13909.870554193325, -38304.27388003754, -7280.387852238161, -29023.40489904939, -0.008, 0.902, 0.484, 192.0, 0.0, 0.0, 0.0, 0.0, 0.0, 0.0, 0.0, 0.0, 0.0, 1.6541552825702329E9, 0.0, 2022-06-02 09:34:42.570
56.0, 23876.62516553702, -7657.148856776817, -62692.396365689805, -28965.87150882143, -13888.41287951623, -38285.67722865072, -7266.999157309432, -28995.040535335607, -0.008, 0.902, 0.484, 192.0, 0.0, 0.0, 0.0, 0.0, 0.0, 0.0, 0.0, 0.0, 0.0, 1.6541552825702462E9, 0.0, 2022-06-02 09:34:42.570
57.0, 23871.573671290123, -7665.441353969736, -62702.655816394785, -28975.415703703846, -13891.028033617502, -38294.30500201047, -7263.0428985408425, -28986.189244531306, -0.006, 0.902, 0.486, 192.0, 255.0, 208.0, 28.0, 48.0, 15.0, 48.0, 0.0, 0.0, 0.0, 1.6541552825702596E9, 0.0, 2022-06-02 09:34:42.570
58.0, 23871.528967801212, -7677.935979120252, -62716.17862179025, -28989.340840499503, -13903.209734345644, -38309.839464406905, -7271.782430622868, -29008.27276805315, -0.006, 0.902, 0.486, 192.0, 0.0, 0.0, 0.0, 0.0, 0.0, 0.0, 0.0, 0.0, 0.0, 1.6541552825702727E9, 0.0, 2022-06-02 09:34:42.570
59.0, 23872.892424212983, -7679.522952976579, -62716.67036016827, -28993.140637056906, -13907.747138470071, -38310.465313251654, -7288.836811642267, -29002.103686583483, -0.006, 0.902, 0.486, 192.0, 0.0, 0.0, 0.0, 0.0, 0.0, 0.0, 0.0, 0.0, 0.0, 1.6541552825702865E9, 0.0, 2022-06-02 09:34:42.570
60.0, 23865.985735176295, -7675.90197037482, -62710.568333931966, -28990.592538189, -13904.617894246328, -38302.59749920339, -7284.388814495661, -29007.803381419588, -0.006, 0.902, 0.486, 192.0, 0.0, 0.0, 0.0, 0.0, 0.0, 0.0, 0.0, 0.0, 0.0, 1.6541552825702996E9, 0.0, 2022-06-02 09:34:42.570
61.0, 23863.750560730765, -7669.308205760504, -62700.48769718262, -28983.68584915231, -13891.944455140168, -38290.95224034217, -7268.943759077044, -29004.629433706934, -0.006, 0.902, 0.486, 192.0, 0.0, 0.0, 0.0, 0.0, 0.0, 0.0, 0.0, 0.0, 0.0, 1.6541552825703127E9, 0.0, 2022-06-02 09:34:42.570
62.0, 23868.39972357747, -7669.5317232050575, -62700.018310549065, -28980.221328761738, -13885.84242890387, -38288.180624029716, -7256.538540904348, -28981.92006134034, -0.006, 0.902, 0.486, 192.0, 0.0, 0.0, 0.0, 0.0, 0.0, 0.0, 0.0, 0.0, 0.0, 1.6541552825703263E9, 0.0, 2022-06-02 09:34:42.570
63.0, 23872.91477595744, -7676.170191308283, -62707.908476341785, -28984.53521544161, -13888.770507427516, -38298.730647412616, -7264.763982863901, -28981.651840406877, -0.006, 0.902, 0.486, 192.0, 0.0, 0.0, 0.0, 0.0, 0.0, 0.0, 0.0, 0.0, 0.0, 1.6541552825703404E9, 0.0, 2022-06-02 09:34:42.570
64.0, 23860.174281617914, -7692.174040338283, -62724.73933991663, -29001.70135518329, -13905.08728087989, -38318.13196159982, -7286.266361029907, -29025.349500817003, -0.006, 0.902, 0.486, 192.0, 0.0, 0.0, 0.0, 0.0, 0.0, 0.0, 0.0, 0.0, 0.0, 1.654155282570356E9, 0.0, 2022-06-02 09:34:42.570
65.0, 23858.363790317035, -7683.6803774452665, -62711.820031621464, -28992.15716030087, -13904.260266335043, -38304.050362592985, -7290.736709920969, -29016.677023968343, -0.006, 0.902, 0.486, 192.0, 0.0, 0.0, 0.0, 0.0, 0.0, 0.0, 0.0, 0.0, 0.0, 1.6541552825703692E9, 0.0, 2022-06-02 09:34:42.570
66.0, 23878.793284749187, -7661.261577756593, -62684.23797896362, -28968.218441989236, -13881.483838735085, -38279.19522275868, -7266.127439275675, -29005.456448251778, -0.006, 0.902, 0.486, 192.0, 0.0, 0.0, 0.0, 0.0, 0.0, 0.0, 0.0, 0.0, 0.0, 1.6541552825703824E9, 0.0, 2022-06-02 09:34:42.570
67.0, 23888.7398110318, -7662.714441146189, -62683.723888841145, -28971.01241004615, -13872.766658397515, -38286.30307749547, -7233.270374926374, -28989.027916077128, 0.002, 0.894, 0.488, 192.0, 0.0, 16.0, 27.0, 240.0, 15.0, 64.0, 0.0, 0.0, 0.0, 1.6541552825703957E9, 0.0, 2022-06-02 09:34:42.570
68.0, 23882.123694673028, -7680.908761132809, -62699.12424077085, -28987.485645709712, -13882.13203932429, -38306.77727541653, -7256.739706604446, -28984.714029397255, 0.002, 0.894, 0.488, 192.0, 0.0, 0.0, 0.0, 0.0, 0.0, 0.0, 0.0, 0.0, 0.0, 1.6541552825704093E9, 0.0, 2022-06-02 09:34:42.570
69.0, 23871.26074686775, -7692.598723482934, -62711.060072309985, -28999.42147724885, -13898.918199410225, -38320.36713604536, -7286.959265108021, -29008.742154686708, 0.002, 0.894, 0.488, 192.0, 0.0, 0.0, 0.0, 0.0, 0.0, 0.0, 0.0, 0.0, 0.0, 1.6541552825704224E9, 0.0, 2022-06-02 09:34:42.570
70.0, 23864.01878166423, -7690.7211769486885, -62707.95317983069, -28993.87824462393, -13902.807402945447, -38315.31564179846, -7279.516134204404, -29018.018128635664, 0.002, 0.894, 0.488, 192.0, 0.0, 0.0, 0.0, 0.0, 0.0, 0.0, 0.0, 0.0, 0.0, 1.6541552825704358E9, 0.0, 2022-06-02 09:34:42.570
71.0, 23884.44827609638, -7662.267406257082, -62677.73362132712, -28966.027971032618, -13880.522713723507, -38287.84534786289, -7259.86895082819, -28998.907387126375, 0.002, 0.894, 0.488, 192.0, 0.0, 0.0, 0.0, 0.0, 0.0, 0.0, 0.0, 0.0, 0.0, 1.654155282570449E9, 0.0, 2022-06-02 09:34:42.570
72.0, 23883.375392362523, -7662.110944045895, -62682.78511557402, -28966.385598943903, -13882.13203932429, -38285.230193761614, -7260.897131073133, -28985.83161662002, 0.002, 0.894, 0.488, 192.0, 0.0, 0.0, 0.0, 0.0, 0.0, 0.0, 0.0, 0.0, 0.0, 1.6541552825704625E9, 0.0, 2022-06-02 09:34:42.570
73.0, 23883.15187491797, -7670.09051681644, -62699.70538612669, -28976.60034615998, -13895.118402852822, -38291.95806884266, -7269.949587577533, -28997.96861385925, 0.002, 0.894, 0.488, 192.0, 0.0, 0.0, 0.0, 0.0, 0.0, 0.0, 0.0, 0.0, 0.0, 1.6541552825704753E9, 0.0, 2022-06-02 09:34:42.570
74.0, 23874.613508536044, -7685.7143861907, -62716.290380512524, -28992.02304983414, -13915.547897284974, -38309.66065045126, -7291.96605586601, -29021.572056004057, 0.002, 0.894, 0.488, 192.0, 0.0, 0.0, 0.0, 0.0, 0.0, 0.0, 0.0, 0.0, 0.0, 1.6541552825704887E9, 0.0, 2022-06-02 09:34:42.570
75.0, 23868.086799155095, -7684.842668156943, -62713.76463338907, -28988.290308510102, -13916.866650207836, -38303.17864455922, -7300.526773992393, -29006.015241863162, 0.002, 0.894, 0.488, 192.0, 0.0, 0.0, 0.0, 0.0, 0.0, 0.0, 0.0, 0.0, 0.0, 1.654155282570502E9, 0.0, 2022-06-02 09:34:42.570
76.0, 23873.87590096902, -7670.671662172278, -62699.526572171046, -28972.420569946837, -13904.394376801774, -38283.15148152727, -7284.478221473482, -28969.984229801208, 0.002, 0.894, 0.488, 192.0, 0.0, 0.0, 0.0, 0.0, 0.0, 0.0, 0.0, 0.0, 0.0, 1.6541552825705152E9, 0.0, 2022-06-02 09:34:42.570
77.0, 23887.421058108936, -7663.116772546384, -62688.86479006586, -28965.089197765494, -13889.150487083256, -38278.524670425024, -7238.612441851193, -28976.77916011562, 0.002, 0.894, 0.488, 192.0, 0.0, 0.0, 28.0, 80.0, 15.0, 64.0, 0.0, 0.0, 0.0, 1.6541552825705285E9, 0.0, 2022-06-02 09:34:42.570
78.0, 23886.705802286364, -7677.310130275504, -62699.1465925153, -28979.841349106, -13893.889056907781, -38293.142711298795, -7249.564796634293, -29002.43896275031, 0.002, 0.894, 0.488, 192.0, 0.0, 0.0, 0.0, 0.0, 0.0, 0.0, 0.0, 0.0, 0.0, 1.6541552825705416E9, 0.0, 2022-06-02 09:34:42.570
79.0, 23872.87007246853, -7690.698825204233, -62715.239848523124, -28998.035669092616, -13911.41282456074, -38309.92887138473, -7282.980654594977, -29013.771297189152, 0.002, 0.894, 0.488, 192.0, 0.0, 0.0, 0.0, 0.0, 0.0, 0.0, 0.0, 0.0, 0.0, 1.654155282570555E9, 0.0, 2022-06-02 09:34:42.570
80.0, 23864.86814795353, -7688.307188547515, -62713.563467688975, -28995.6440324359, -13918.543031041985, -38305.57028121594, -7293.955361122533, -29013.883055911432, 0.002, 0.894, 0.488, 192.0, 0.0, 0.0, 0.0, 0.0, 0.0, 0.0, 0.0, 0.0, 0.0, 1.6541552825705683E9, 0.0, 2022-06-02 09:34:42.570
81.0, 23870.567842789635, -7675.253769785616, -62700.1971245047, -28982.188282273804, -13905.400205302263, -38291.891013609296, -7281.304273760828, -28985.049305564084, 0.002, 0.894, 0.488, 192.0, 0.0, 0.0, 0.0, 0.0, 0.0, 0.0, 0.0, 0.0, 0.0, 1.6541552825705817E9, 0.0, 2022-06-02 09:34:42.570
82.0, 23887.778686020218, -7662.0215370680735, -62688.060127265475, -28970.341857712494, -13885.79772541496, -38280.93865882619, -7263.378174707673, -28982.88118635192, 0.002, 0.894, 0.488, 192.0, 0.0, 0.0, 0.0, 0.0, 0.0, 0.0, 0.0, 0.0, 0.0, 1.6541552825705955E9, 0.0, 2022-06-02 09:34:42.570
83.0, 23886.48228484181, -7674.292644774037, -62700.66651113827, -28987.798570132087, -13895.31956855292, -38299.51295846856, -7281.728956905479, -29006.283462796626, 0.002, 0.894, 0.488, 192.0, 0.0, 0.0, 0.0, 0.0, 0.0, 0.0, 0.0, 0.0, 0.0, 1.654155282570609E9, 0.0, 2022-06-02 09:34:42.570
84.0, 23877.34042135959, -7690.274142059582, -62716.13391830134, -29001.857817394477, -13914.653827506761, -38311.78406617452, -7297.598695468748, -29002.617776705956, 0.002, 0.894, 0.488, 192.0, 0.0, 0.0, 0.0, 0.0, 0.0, 0.0, 0.0, 0.0, 0.0, 1.6541552825706224E9, 0.0, 2022-06-02 09:34:42.570
85.0, 23872.154816645958, -7691.212915326705, -62711.84238336592, -28995.174645802337, -13914.94440018468, -38305.45852249367, -7258.505494416416, -28991.441904478303, 0.002, 0.894, 0.488, 192.0, 0.0, 0.0, 0.0, 0.0, 0.0, 0.0, 0.0, 0.0, 0.0, 1.6541552825706358E9, 0.0, 2022-06-02 09:34:42.570
86.0, 23882.48132258431, -7674.247941285127, -62690.47411566665, -28977.22619500473, -13893.151449340756, -38288.96293508565, -7249.251872211918, -29007.199884319292, 0.002, 0.894, 0.488, 192.0, 0.0, 0.0, 0.0, 0.0, 0.0, 0.0, 0.0, 0.0, 0.0, 1.6541552825706522E9, 0.0, 2022-06-02 09:34:42.570
87.0, 23891.53377908871, -7664.904912102808, -62687.702499354185, -28974.409875203357, -13883.942530625169, -38287.21949901814, -7272.229465511974, -28990.88311086692, -0.006, 0.906, 0.486, 192.0, 255.0, 208.0, 28.0, 80.0, 15.0, 48.0, 0.0, 0.0, 0.0, 1.6541552825706656E9, 0.0, 2022-06-02 09:34:42.570
88.0, 23886.638747053, -7677.198371553228, -62706.18739201873, -28989.854930621976, -13899.186420343689, -38300.80935964696, -7281.39368073865, -28978.3884857164, -0.006, 0.906, 0.486, 192.0, 0.0, 0.0, 0.0, 0.0, 0.0, 0.0, 0.0, 0.0, 0.0, 1.6541552825706866E9, 0.0, 2022-06-02 09:34:42.570
89.0, 23878.21213939335, -7685.133240834862, -62712.75880488859, -28994.280576024124, -13907.568324514428, -38302.373981758836, -7275.090488802253, -29013.190151833314, -0.006, 0.906, 0.486, 192.0, 0.0, 0.0, 0.0, 0.0, 0.0, 0.0, 0.0, 0.0, 0.0, 1.6541552825707011E9, 0.0, 2022-06-02 09:34:42.570
90.0, 23863.705857241854, -7688.083671102962, -62707.84142110842, -28992.78300914562, -13909.46822279313, -38295.221423533134, -7276.766869636402, -29005.59055871851, -0.006, 0.906, 0.486, 192.0, 0.0, 0.0, 0.0, 0.0, 0.0, 0.0, 0.0, 0.0, 0.0, 1.6541552825707266E9, 0.0, 2022-06-02 09:34:42.570
91.0, 23873.831197480107, -7668.570598193479, -62688.90949355478, -28975.326296726027, -13890.536295239484, -38277.85411809136, -7254.05749726981, -28997.052192336585, -0.006, 0.906, 0.486, 192.0, 0.0, 0.0, 0.0, 0.0, 0.0, 0.0, 0.0, 0.0, 0.0, 1.6541552825707405E9, 0.0, 2022-06-02 09:34:42.570
92.0, 23893.701898300875, -7651.538568918535, -62683.83564756342, -28964.038665776097, -13874.353632253842, -38269.494565665074, -7235.840825538734, -28979.327258983525, -0.006, 0.906, 0.486, 192.0, 0.0, 0.0, 0.0, 0.0, 0.0, 0.0, 0.0, 0.0, 0.0, 1.6541552825707545E9, 0.0, 2022-06-02 09:34:42.570
93.0, 23878.72622951582, -7672.951540106719, -62706.41090946328, -28985.921023597843, -13891.787992928981, -38291.44397872019, -7257.320851960284, -28994.772314402144, -0.006, 0.906, 0.486, 192.0, 0.0, 0.0, 0.0, 0.0, 0.0, 0.0, 0.0, 0.0, 0.0, 1.6541552825707684E9, 0.0, 2022-06-02 09:34:42.570
94.0, 23861.91771768543, -7695.280932817571, -62721.543040459524, -29003.780067417632, -13914.117385639835, -38308.76658067305, -7284.075890073287, -29007.915140141864, -0.006, 0.906, 0.486, 192.0, 0.0, 0.0, 0.0, 0.0, 0.0, 0.0, 0.0, 0.0, 0.0, 1.6541552825707817E9, 0.0, 2022-06-02 09:34:42.570
95.0, 23856.754464716254, -7692.7775374385765, -62722.258296282096, -29001.41078250537, -13918.006589175056, -38302.10576082537, -7288.8144598978115, -29017.101707112994, -0.006, 0.906, 0.486, 192.0, 0.0, 0.0, 0.0, 0.0, 0.0, 0.0, 0.0, 0.0, 0.0, 1.6541552825707953E9, 0.0, 2022-06-02 09:34:42.570
96.0, 23866.72334274332, -7677.623054697879, -62710.79185137652, -28985.563395686557, -13896.124231353311, -38285.54311818399, -7268.161448021108, -28995.73343941372, -0.006, 0.906, 0.486, 192.0, 0.0, 0.0, 0.0, 0.0, 0.0, 0.0, 0.0, 0.0, 0.0, 1.6541552825708098E9, 0.0, 2022-06-02 09:34:42.570
97.0, 23891.936110488907, -7656.344193976426, -62697.6490256368, -28967.279668722116, -13872.163161297221, -38273.204955244655, -7247.642546611136, -28987.329183498525, -0.008, 0.902, 0.486, 192.0, 255.0, 192.0, 28.0, 48.0, 15.0, 48.0, 0.0, 0.0, 0.0, 1.654155282570825E9, 0.0, 2022-06-02 09:34:42.570
98.0, 23887.66692729794, -7669.442316227236, -62715.86569736787, -28980.24368050619, -13886.490629493073, -38284.38082747231, -7258.8184188387895, -28993.475913223734, -0.008, 0.902, 0.486, 192.0, 0.0, 0.0, 0.0, 0.0, 0.0, 0.0, 0.0, 0.0, 0.0, 1.654155282570839E9, 0.0, 2022-06-02 09:34:42.570
99.0, 23872.020706179228, -7687.100194346928, -62739.20091857921, -28998.817980148553, -13905.288446579987, -38302.75396141457, -7266.149791020131, -29013.100744855496, -0.008, 0.902, 0.486, 192.0, 0.0, 0.0, 0.0, 0.0, 0.0, 0.0, 0.0, 0.0, 0.0, 1.654155282570853E9, 0.0, 2022-06-02 09:34:42.570
100.0, 23863.23647060829, -7684.127412334373, -62742.374866291866, -28996.761619658664, -13911.390472816287, -38297.34483925639, -7267.490895687449, -29002.12603832794, -0.008, 0.902, 0.486, 192.0, 0.0, 0.0, 0.0, 0.0, 0.0, 0.0, 0.0, 0.0, 0.0, 1.6541552825708668E9, 0.0, 2022-06-02 09:34:42.570
101.0, 23873.67473526892, -7661.03806031204, -62722.302999771004, -28977.44971244928, -13890.536295239484, -38277.25062099107, -7273.458811457016, -28992.82771263453, -0.008, 0.902, 0.486, 192.0, 0.0, 0.0, 0.0, 0.0, 0.0, 0.0, 0.0, 0.0, 0.0, 1.654155282570881E9, 0.0, 2022-06-02 09:34:42.570
102.0, 23879.62029929403, -7660.680432400755, -62726.23690679514, -28978.723761883233, -13888.301120793954, -38280.62573440382, -7265.121610775186, -28992.715953912255, -0.008, 0.902, 0.486, 192.0, 0.0, 0.0, 0.0, 0.0, 0.0, 0.0, 0.0, 0.0, 0.0, 1.6541552825708947E9, 0.0, 2022-06-02 09:34:42.570
103.0, 23867.34919158807, -7681.489906488647, -62746.42053203828, -28997.29806152559, -13906.741309969582, -38301.81518814745, -7272.900017845634, -29003.601253461988, -0.008, 0.902, 0.486, 192.0, 0.0, 0.0, 0.0, 0.0, 0.0, 0.0, 0.0, 0.0, 0.0, 1.6541552825709083E9, 0.0, 2022-06-02 09:34:42.570
104.0, 23871.23839512329, -7680.417022754792, -62746.19701459372, -28996.672212680845, -13909.512926282041, -38304.76561841555, -7281.572494694293, -29005.702317440788, -0.008, 0.902, 0.486, 192.0, 0.0, 0.0, 0.0, 0.0, 0.0, 0.0, 0.0, 0.0, 0.0, 1.6541552825709226E9, 0.0, 2022-06-02 09:34:42.570
105.0, 23872.62420327952, -7670.962234850197, -62736.56341273349, -28989.653764921877, -13904.595542501873, -38297.79187414549, -7282.15364005013, -29002.21544530576, -0.008, 0.902, 0.486, 192.0, 0.0, 0.0, 0.0, 0.0, 0.0, 0.0, 0.0, 0.0, 0.0, 1.6541552825709362E9, 0.0, 2022-06-02 09:34:42.570
106.0, 23881.855473739564, -7653.505522430602, -62717.81029913549, -28972.085293780005, -13885.596559714862, -38280.67043789273, -7247.754305333413, -28986.770389887144, -0.012, 0.896, 0.494, 192.0, 255.0, 160.0, 28.0, 0.0, 15.0, 112.0, 0.0, 0.0, 0.0, 1.6541552825709498E9, 0.0, 2022-06-02 09:34:42.570
107.0, 23893.120752945037, -7644.341307203926, -62709.02606356455, -28963.16694774234, -13872.297271763955, -38269.53926915399, -7226.967182989977, -28994.660555679868, -0.012, 0.896, 0.494, 192.0, 0.0, 0.0, 0.0, 0.0, 0.0, 0.0, 0.0, 0.0, 0.0, 1.6541552825709658E9, 0.0, 2022-06-02 09:34:42.570
108.0, 23888.382183120513, -7658.802885866509, -62727.756825418095, -28982.188282273804, -13883.070812591412, -38287.57712692942, -7248.000174522421, -29006.618738963454, -0.012, 0.896, 0.494, 192.0, 0.0, 0.0, 0.0, 0.0, 0.0, 0.0, 0.0, 0.0, 0.0, 1.6541552825709794E9, 0.0, 2022-06-02 09:34:42.570
109.0, 23868.95851718885, -7682.294569289037, -62752.790779208044, -29007.915140141864, -13909.311760581943, -38313.259281308565, -7281.483087716471, -29007.803381419588, -0.012, 0.896, 0.494, 192.0, 0.0, 0.0, 0.0, 0.0, 0.0, 0.0, 0.0, 0.0, 0.0, 1.6541552825709932E9, 0.0, 2022-06-02 09:34:42.570
110.0, 23861.090703140584, -7682.585141966956, -62742.82190118098, -29002.70718368378, -13909.423519304219, -38305.68203993822, -7270.977767822477, -28993.02887833463, -0.012, 0.896, 0.494, 192.0, 0.0, 0.0, 0.0, 0.0, 0.0, 0.0, 0.0, 0.0, 0.0, 1.654155282571007E9, 0.0, 2022-06-02 09:34:42.571
111.0, 23866.92450844342, -7667.408307481803, -62717.78794739103, -28982.657668907366, -13890.960978384135, -38285.00667631706, -7249.743610589935, -28988.245605021195, -0.012, 0.896, 0.494, 192.0, 0.0, 0.0, 0.0, 0.0, 0.0, 0.0, 0.0, 0.0, 0.0, 1.6541552825710208E9, 0.0, 2022-06-02 09:34:42.571
112.0, 23864.756389231254, -7671.230455783661, -62724.00173234961, -28988.290308510102, -13891.475068506608, -38289.47702520812, -7260.584206650759, -29001.969576116753, -0.012, 0.896, 0.494, 192.0, 0.0, 0.0, 0.0, 0.0, 0.0, 0.0, 0.0, 0.0, 0.0, 1.6541552825710368E9, 0.0, 2022-06-02 09:34:42.571
113.0, 23858.76612171723, -7687.435470513758, -62739.647953468324, -29006.685794196823, -13902.315664567432, -38308.028973106026, -7267.133267776164, -29017.83931468002, -0.012, 0.896, 0.494, 192.0, 0.0, 0.0, 0.0, 0.0, 0.0, 0.0, 0.0, 0.0, 0.0, 1.6541552825710511E9, 0.0, 2022-06-02 09:34:42.571
114.0, 23858.67671473941, -7694.275104317082, -62736.89868890032, -29015.291215812114, -13911.345769327376, -38316.61204297686, -7282.019529583398, -29016.386451290426, -0.012, 0.896, 0.494, 192.0, 0.0, 0.0, 0.0, 0.0, 0.0, 0.0, 0.0, 0.0, 0.0, 1.6541552825710654E9, 0.0, 2022-06-02 09:34:42.571
115.0, 23866.991563676784, -7678.964159365197, -62715.41866247877, -28997.566282459054, -13903.008568645546, -38302.776313159025, -7269.882532344167, -29009.859741909477, -0.012, 0.896, 0.494, 192.0, 0.0, 0.0, 0.0, 0.0, 0.0, 0.0, 0.0, 0.0, 0.0, 1.6541552825710793E9, 0.0, 2022-06-02 09:34:42.571
116.0, 23869.740828244787, -7663.429696968758, -62698.78896460402, -28980.86952935094, -13889.105783594345, -38288.605307174366, -7263.109953774208, -28997.633337692423, -0.014, 0.896, 0.486, 192.0, 255.0, 144.0, 28.0, 0.0, 15.0, 48.0, 0.0, 0.0, 0.0, 1.654155282571093E9, 0.0, 2022-06-02 09:34:42.571
117.0, 23874.97113644733, -7661.485095201147, -62701.42647044975, -28982.7917793741, -13883.786068413981, -38292.00277233157, -7269.6143114107035, -29003.6459569509, -0.014, 0.896, 0.486, 192.0, 0.0, 0.0, 0.0, 0.0, 0.0, 0.0, 0.0, 0.0, 0.0, 1.654155282571107E9, 0.0, 2022-06-02 09:34:42.571
118.0, 23874.121770158028, -7673.912665118297, -62721.63244743735, -28998.92973887083, -13899.633455232795, -38306.46435099415, -7269.927235833077, -28992.425381234334, -0.014, 0.896, 0.486, 192.0, 0.0, 0.0, 0.0, 0.0, 0.0, 0.0, 0.0, 0.0, 0.0, 1.6541552825711207E9, 0.0, 2022-06-02 09:34:42.571
119.0, 23872.735962001796, -7680.573484965978, -62729.81318590799, -29006.194055818803, -13906.338978569387, -38313.23692956411, -7269.636663155158, -29008.496285497702, -0.014, 0.896, 0.486, 192.0, 0.0, 0.0, 0.0, 0.0, 0.0, 0.0, 0.0, 0.0, 0.0, 1.654155282571135E9, 0.0, 2022-06-02 09:34:42.571
120.0, 23869.226738122314, -7677.533647720057, -62730.483738241644, -29001.522541227645, -13907.32245532542, -38309.34772602889, -7285.8193261408005, -29031.719747986765, -0.014, 0.896, 0.486, 192.0, 0.0, 0.0, 0.0, 0.0, 0.0, 0.0, 0.0, 0.0, 0.0, 1.6541552825711489E9, 0.0, 2022-06-02 09:34:42.571
121.0, 23884.82825575212, -7652.99143230813, -62710.25540950959, -28974.387523458903, -13886.669443448716, -38285.029028061515, -7272.162410278608, -28991.30779401157, -0.014, 0.896, 0.486, 192.0, 0.0, 0.0, 0.0, 0.0, 0.0, 0.0, 0.0, 0.0, 0.0, 1.6541552830501437E9, 0.0, 2022-06-02 09:34:43.050
122.0, 23888.270424398237, -7654.176074764261, -62714.74811014511, -28974.387523458903, -13883.093164335867, -38287.66653390724, -7250.078886756764, -28980.131921783915, -0.014, 0.896, 0.486, 192.0, 0.0, 0.0, 0.0, 0.0, 0.0, 0.0, 0.0, 0.0, 0.0, 1.6541552830502772E9, 0.0, 2022-06-02 09:34:43.050
123.0, 23879.39678184948, -7675.007900596607, -62738.19509007873, -28994.16881730185, -13905.199039602167, -38306.95608937217, -7259.086639772254, -29010.08325935403, -0.014, 0.896, 0.486, 192.0, 0.0, 0.0, 0.0, 0.0, 0.0, 0.0, 0.0, 0.0, 0.0, 1.6541552830502832E9, 0.0, 2022-06-02 09:34:43.050
124.0, 23882.123694673028, -7676.2819500305595, -62742.06194186949, -29001.187265060817, -13911.524583283019, -38312.94635688619, -7284.299407517839, -29027.249399095705, -0.014, 0.896, 0.486, 192.0, 0.0, 0.0, 0.0, 0.0, 0.0, 0.0, 0.0, 0.0, 0.0, 1.6541552830502899E9, 0.0, 2022-06-02 09:34:43.050
125.0, 23880.514369072243, -7668.861170871398, -62731.333104530946, -28994.772314402144, -13903.522658768017, -38303.64803119279, -7260.561854906304, -29005.50115174069, -0.014, 0.896, 0.486, 192.0, 0.0, 0.0, 0.0, 0.0, 0.0, 0.0, 0.0, 0.0, 0.0, 1.6541552830502958E9, 0.0, 2022-06-02 09:34:43.050
126.0, 23886.504636586265, -7656.143028276329, -62716.580953190445, -28980.6907153953, -13890.201019072656, -38286.79481587349, -7257.589072893748, -28988.200901532284, -0.008, 0.896, 0.484, 192.0, 255.0, 192.0, 28.0, 0.0, 15.0, 32.0, 0.0, 0.0, 0.0, 1.6541552830503013E9, 0.0, 2022-06-02 09:34:43.050
127.0, 23884.850607496574, -7658.936996333242, -62722.21359279318, -28982.92588984083, -13889.195190572167, -38288.89587985228, -7259.824247339278, -28979.126093283427, -0.008, 0.896, 0.484, 192.0, 0.0, 0.0, 0.0, 0.0, 0.0, 0.0, 0.0, 0.0, 0.0, 1.6541552830503075E9, 0.0, 2022-06-02 09:34:43.050
128.0, 23887.041078453196, -7667.028327826063, -62735.445825510724, -28989.78787538861, -13890.759812684038, -38301.189339302706, -7262.2829392293625, -28988.469122465747, -0.008, 0.896, 0.484, 192.0, 0.0, 0.0, 0.0, 0.0, 0.0, 0.0, 0.0, 0.0, 0.0, 1.6541552830503433E9, 0.0, 2022-06-02 09:34:43.050
129.0, 23878.458008582355, -7683.210990811705, -62748.63335473935, -29002.43896275031, -13906.98717915859, -38315.38269703182, -7281.505439460927, -29022.46612578227, -0.008, 0.896, 0.484, 192.0, 0.0, 0.0, 0.0, 0.0, 0.0, 0.0, 0.0, 0.0, 0.0, 1.6541552830503488E9, 0.0, 2022-06-02 09:34:43.050
130.0, 23880.804941750164, -7669.5317232050575, -62731.78013942005, -28988.73734339921, -13896.057176119946, -38300.87641488033, -7273.2576457569185, -29027.338806073527, -0.008, 0.896, 0.484, 192.0, 0.0, 0.0, 0.0, 0.0, 0.0, 0.0, 0.0, 0.0, 0.0, 1.6541552830503542E9, 0.0, 2022-06-02 09:34:43.050
131.0, 23883.084819684605, -7654.980737564652, -62717.58678169093, -28975.326296726027, -13879.181609056188, -38284.49258619459, -7260.763020606401, -28988.6926399103, -0.008, 0.896, 0.484, 192.0, 0.0, 0.0, 0.0, 0.0, 0.0, 0.0, 0.0, 0.0, 0.0, 1.6541552830503592E9, 0.0, 2022-06-02 09:34:43.050
132.0, 23878.34624986008, -7662.557978935001, -62726.147499817314, -28980.981288073217, -13884.255455047543, -38289.29821125248, -7257.76788684939, -28976.577994415522, -0.008, 0.896, 0.484, 192.0, 0.0, 0.0, 0.0, 0.0, 0.0, 0.0, 0.0, 0.0, 0.0, 1.6541552830503645E9, 0.0, 2022-06-02 09:34:43.050
133.0, 23879.19561614938, -7665.955444092208, -62723.286476527035, -28982.389447973903, -13883.808420158437, -38293.29917350998, -7254.973918792477, -28982.434151462814, -0.008, 0.896, 0.484, 192.0, 0.0, 0.0, 0.0, 0.0, 0.0, 0.0, 0.0, 0.0, 0.0, 1.6541552830503745E9, 0.0, 2022-06-02 09:34:43.050
134.0, 23872.937127701894, -7676.304301775015, -62731.84719465342, -28996.225177791737, -13897.577094742906, -38309.75005742908, -7272.140058534153, -29011.759640188175, -0.008, 0.896, 0.484, 192.0, 0.0, 0.0, 0.0, 0.0, 0.0, 0.0, 0.0, 0.0, 0.0, 1.65415528305038E9, 0.0, 2022-06-02 09:34:43.050
135.0, 23868.891461955485, -7674.113830818395, -62728.58383996294, -28995.576977202534, -13900.505173266552, -38306.66551669425, -7264.138134019153, -29013.97246288925, -0.008, 0.896, 0.484, 192.0, 0.0, 0.0, 0.0, 0.0, 0.0, 0.0, 0.0, 0.0, 0.0, 1.6541552830503862E9, 0.0, 2022-06-02 09:34:43.050
136.0, 23873.808845735653, -7662.84855161292, -62711.26123801008, -28982.68002065182, -13887.474106249108, -38292.092179309395, -7265.792163108846, -29007.78102967513, -0.006, 0.894, 0.482, 192.0, 255.0, 208.0, 27.0, 240.0, 15.0, 16.0, 0.0, 0.0, 0.0, 1.654155283050392E9, 0.0, 2022-06-02 09:34:43.050
137.0, 23883.129523173517, -7658.1993887662165, -62709.20487752019, -28980.6907153953, -13882.310853279932, -38291.37692348682, -7262.797029351835, -28997.141599314404, -0.006, 0.894, 0.482, 192.0, 0.0, 0.0, 0.0, 0.0, 0.0, 0.0, 0.0, 0.0, 0.0, 1.6541552830503988E9, 0.0, 2022-06-02 09:34:43.050
138.0, 23868.39972357747, -7682.607493711412, -62732.96478187619, -29004.651785451388, -13899.678158721705, -38314.95801388717, -7274.82226786879, -29010.664404709867, -0.006, 0.894, 0.482, 192.0, 0.0, 0.0, 0.0, 0.0, 0.0, 0.0, 0.0, 0.0, 0.0, 1.6541552830504067E9, 0.0, 2022-06-02 09:34:43.050
139.0, 23854.027551892705, -7701.070034631495, -62749.81799719549, -29022.756698460187, -13922.856917721858, -38334.672252496755, -7305.6006199837475, -29045.063739426583, -0.006, 0.894, 0.482, 192.0, 0.0, 0.0, 0.0, 0.0, 0.0, 0.0, 0.0, 0.0, 0.0, 1.6541552830504146E9, 0.0, 2022-06-02 09:34:43.050
140.0, 23863.839967708587, -7682.451031500224, -62730.81901440847, -29003.377736017435, -13911.70339723866, -38313.50515049758, -7300.616180970214, -29019.962730403273, -0.006, 0.894, 0.482, 192.0, 0.0, 0.0, 0.0, 0.0, 0.0, 0.0, 0.0, 0.0, 0.0, 1.6541552830504217E9, 0.0, 2022-06-02 09:34:43.050
141.0, 23875.127598658517, -7665.508409203102, -62712.110604299385, -28986.233948020217, -13891.18449582869, -38296.80839738946, -7253.744572847435, -28994.817017891055, -0.006, 0.894, 0.482, 192.0, 0.0, 0.0, 0.0, 0.0, 0.0, 0.0, 0.0, 0.0, 0.0, 1.654155283050428E9, 0.0, 2022-06-02 09:34:43.050
142.0, 23872.333630601603, -7671.275159272571, -62719.82195613647, -28993.40885799037, -13889.351652783353, -38305.3914672603, -7252.068192013287, -29001.857817394477, -0.006, 0.894, 0.482, 192.0, 0.0, 0.0, 0.0, 0.0, 0.0, 0.0, 0.0, 0.0, 0.0, 1.6541552830504336E9, 0.0, 2022-06-02 09:34:43.050
143.0, 23881.877825484018, -7671.94571160623, -62726.52747947306, -28995.12994231343, -13887.339995782375, -38307.738400428105, -7271.223637011485, -29005.07646859604, -0.006, 0.894, 0.482, 192.0, 0.0, 0.0, 0.0, 0.0, 0.0, 0.0, 0.0, 0.0, 0.0, 1.654155283050439E9, 0.0, 2022-06-02 09:34:43.050
144.0, 23872.959479446352, -7686.1390693353505, -62750.86852918489, -29014.598311734, -13912.262190850042, -38328.793743705006, -7301.689064704069, -29040.302817857602, -0.006, 0.894, 0.482, 192.0, 0.0, 0.0, 0.0, 0.0, 0.0, 0.0, 0.0, 0.0, 0.0, 1.6541552830504453E9, 0.0, 2022-06-02 09:34:43.050
145.0, 23860.77777871821, -7687.7260431916775, -62753.59544200843, -29015.738250701223, -13921.09112990989, -38326.51386577057, -7303.58896298277, -29018.353404802492, -0.006, 0.894, 0.482, 192.0, 0.0, 0.0, 0.0, 0.0, 0.0, 0.0, 0.0, 0.0, 0.0, 1.6541552830504513E9, 0.0, 2022-06-02 09:34:43.050
146.0, 23865.762217731743, -7671.073993572473, -62732.093063842425, -28996.605157447477, -13904.617894246328, -38306.15142657178, -7267.803820109823, -29003.55654997308, -0.008, 0.9, 0.482, 192.0, 255.0, 192.0, 28.0, 32.0, 15.0, 16.0, 0.0, 0.0, 0.0, 1.6541552830504568E9, 0.0, 2022-06-02 09:34:43.050
147.0, 23875.932261458907, -7660.859246356398, -62718.63731368033, -28985.295174753093, -13884.0766410919, -38299.289441024004, -7255.3538984482175, -29016.07352686805, -0.008, 0.9, 0.482, 192.0, 0.0, 0.0, 0.0, 0.0, 0.0, 0.0, 0.0, 0.0, 0.0, 1.6541552830504622E9, 0.0, 2022-06-02 09:34:43.050
148.0, 23878.68152602691, -7665.955444092208, -62723.37588350486, -28988.580881188023, -13885.954187626146, -38306.62081320534, -7277.325663247784, -29000.20378830478, -0.008, 0.9, 0.482, 192.0, 0.0, 0.0, 0.0, 0.0, 0.0, 0.0, 0.0, 0.0, 0.0, 1.6541552830504684E9, 0.0, 2022-06-02 09:34:43.050
149.0, 23868.936165444396, -7681.75812742211, -62739.156215090305, -29006.55168373009, -13905.824888446914, -38325.12805761433, -7285.6405121851585, -29017.68285246883, -0.008, 0.9, 0.482, 192.0, 0.0, 0.0, 0.0, 0.0, 0.0, 0.0, 0.0, 0.0, 0.0, 1.654155283050474E9, 0.0, 2022-06-02 09:34:43.050
150.0, 23867.595060777076, -7676.371357008381, -62728.62854345186, -28998.281538281626, -13907.076586136413, -38313.05811560847, -7272.743555634446, -29034.35725383249, -0.008, 0.9, 0.482, 192.0, 0.0, 0.0, 0.0, 0.0, 0.0, 0.0, 0.0, 0.0, 0.0, 1.6541552830504835E9, 0.0, 2022-06-02 09:34:43.050
151.0, 23868.869110211028, -7664.882560358354, -62714.72575840065, -28983.708200896766, -13896.995949387068, -38294.68498166621, -7260.315985717295, -28986.390410231405, -0.008, 0.9, 0.482, 192.0, 0.0, 0.0, 0.0, 0.0, 0.0, 0.0, 0.0, 0.0, 0.0, 1.6541552830504897E9, 0.0, 2022-06-02 09:34:43.050
152.0, 23873.92060445793, -7659.719307389178, -62706.34385422991, -28980.8918810954, -13884.478972492096, -38292.00277233157, -7256.739706604446, -28985.898671853385, -0.008, 0.9, 0.482, 192.0, 0.0, 0.0, 0.0, 0.0, 0.0, 0.0, 0.0, 0.0, 0.0, 1.6541552830504966E9, 0.0, 2022-06-02 09:34:43.050
153.0, 23873.71943875783, -7670.246979027627, -62712.04354906602, -28994.101762068483, -13889.284597549988, -38302.999830603585, -7270.575436422281, -28997.40982024787, -0.008, 0.9, 0.482, 192.0, 0.0, 0.0, 0.0, 0.0, 0.0, 0.0, 0.0, 0.0, 0.0, 1.6541552830505025E9, 0.0, 2022-06-02 09:34:43.050
154.0, 23860.3307438291, -7691.503488004624, -62734.46234875469, -29014.46420126727, -13911.993969916579, -38319.24954882259, -7283.114765061709, -29017.235817579727, -0.008, 0.9, 0.482, 192.0, 0.0, 0.0, 0.0, 0.0, 0.0, 0.0, 0.0, 0.0, 0.0, 1.6541552830505087E9, 0.0, 2022-06-02 09:34:43.050
155.0, 23861.358924074048, -7684.842668156943, -62727.354494017905, -29003.534198228623, -13910.116423382333, -38310.35355452938, -7275.7833928803675, -29029.395166563412, -0.008, 0.9, 0.482, 192.0, 0.0, 0.0, 0.0, 0.0, 0.0, 0.0, 0.0, 0.0, 0.0, 1.6541552830505152E9, 0.0, 2022-06-02 09:34:43.050
156.0, 23875.999316692272, -7663.921435346775, -62701.69469138321, -28982.34474448499, -13890.64805396176, -38293.50033921008, -7243.5521773758155, -29001.88016913893, -0.01, 0.902, 0.49, 192.0, 255.0, 176.0, 28.0, 48.0, 15.0, 80.0, 0.0, 0.0, 0.0, 1.654155283050529E9, 0.0, 2022-06-02 09:34:43.050
157.0, 23887.644575553488, -7657.171208521272, -62695.77147910256, -28978.5896514165, -13882.422612002209, -38287.755940885065, -7241.6746308415695, -28981.584785173513, -0.01, 0.902, 0.49, 192.0, 0.0, 0.0, 0.0, 0.0, 0.0, 0.0, 0.0, 0.0, 0.0, 1.6541552830505395E9, 0.0, 2022-06-02 09:34:43.050
158.0, 23881.229624894815, -7671.096345316929, -62714.99397933412, -28995.55462545808, -13894.716071452627, -38304.9891358601, -7259.556026405815, -28999.35442201548, -0.01, 0.902, 0.49, 192.0, 0.0, 0.0, 0.0, 0.0, 0.0, 0.0, 0.0, 0.0, 0.0, 1.6541552830505488E9, 0.0, 2022-06-02 09:34:43.050
159.0, 23868.869110211028, -7683.702729189722, -62730.66255219729, -29009.83739016502, -13911.65869374975, -38319.74128720061, -7284.8805528736775, -29017.25816932418, -0.01, 0.902, 0.49, 192.0, 0.0, 0.0, 0.0, 0.0, 0.0, 0.0, 0.0, 0.0, 0.0, 1.654155283050557E9, 0.0, 2022-06-02 09:34:43.050
160.0, 23863.39293281948, -7684.529743734568, -62730.483738241644, -29007.289291297115, -13917.55955428595, -38315.89678715429, -7291.7425384214575, -29019.761564703178, -0.01, 0.902, 0.49, 192.0, 0.0, 0.0, 0.0, 0.0, 0.0, 0.0, 0.0, 0.0, 0.0, 1.6541552830505724E9, 0.0, 2022-06-02 09:34:43.050
161.0, 23872.333630601603, -7668.727060404666, -62714.01050257809, -28986.45746546477, -13902.717995967627, -38297.41189448976, -7276.655110914125, -29007.132829085927, -0.01, 0.902, 0.49, 192.0, 0.0, 0.0, 0.0, 0.0, 0.0, 0.0, 0.0, 0.0, 0.0, 1.6541552830505948E9, 0.0, 2022-06-02 09:34:43.050
162.0, 23884.87295924103, -7658.154685277305, -62705.62859840735, -28978.41083746086, -13888.278769049499, -38290.86283336435, -7264.4510584415275, -29007.110477341474, -0.01, 0.902, 0.49, 192.0, 0.0, 0.0, 0.0, 0.0, 0.0, 0.0, 0.0, 0.0, 0.0, 1.6541552830506077E9, 0.0, 2022-06-02 09:34:43.050
163.0, 23886.81756100864, -7664.144952791328, -62713.54111594452, -28985.697506153287, -13889.262245805532, -38298.797702645985, -7265.635700897658, -28992.090105067506, -0.01, 0.902, 0.49, 192.0, 0.0, 0.0, 0.0, 0.0, 0.0, 0.0, 0.0, 0.0, 0.0, 1.6541552830506215E9, 0.0, 2022-06-02 09:34:43.050
164.0, 23882.034287695205, -7674.583217451956, -62731.28840104204, -28998.616814448455, -13909.915257682236, -38311.024106863035, -7278.085622559264, -29016.051175123594, -0.01, 0.902, 0.49, 192.0, 0.0, 0.0, 0.0, 0.0, 0.0, 0.0, 0.0, 0.0, 0.0, 1.6541552830506349E9, 0.0, 2022-06-02 09:34:43.050
165.0, 23874.814674236142, -7674.627920940867, -62736.853985411406, -29001.07550633854, -13916.12904264081, -38312.94635688619, -7280.901942360633, -29024.097803127504, -0.01, 0.902, 0.49, 192.0, 0.0, 0.0, 0.0, 0.0, 0.0, 0.0, 0.0, 0.0, 0.0, 1.654155283050646E9, 0.0, 2022-06-02 09:34:43.050
166.0, 23886.4375813529, -7653.37141196387, -62720.31369451448, -28981.31656424005, -13891.966806884624, -38294.170891543734, -7265.099259030731, -28997.655689436877, -0.012, 0.902, 0.488, 192.0, 255.0, 160.0, 28.0, 48.0, 15.0, 64.0, 0.0, 0.0, 0.0, 1.6541552830506527E9, 0.0, 2022-06-02 09:34:43.050
167.0, 23896.451162868878, -7646.665888627278, -62710.85890660989, -28971.280630979614, -13879.785106156482, -38282.14565302678, -7243.887453542645, -28995.06288708006, -0.012, 0.902, 0.488, 192.0, 0.0, 0.0, 0.0, 0.0, 0.0, 0.0, 0.0, 0.0, 0.0, 1.65415528305066E9, 0.0, 2022-06-02 09:34:43.050
168.0, 23888.650404053977, -7667.408307481803, -62732.33893303144, -28993.02887833463, -13895.900713908759, -38304.07271433744, -7254.281014714363, -29008.742154686708, -0.012, 0.902, 0.488, 192.0, 0.0, 0.0, 0.0, 0.0, 0.0, 0.0, 0.0, 0.0, 0.0, 1.654155283050666E9, 0.0, 2022-06-02 09:34:43.050
169.0, 23880.29085162769, -7681.869886144386, -62749.88505242885, -29011.871398910454, -13914.139737384288, -38325.88801692582, -7292.055462843831, -29018.956901902784, -0.012, 0.902, 0.488, 192.0, 0.0, 0.0, 0.0, 0.0, 0.0, 0.0, 0.0, 0.0, 0.0, 1.6541552830506716E9, 0.0, 2022-06-02 09:34:43.050
170.0, 23885.275290641224, -7665.75427839211, -62732.875374898365, -28994.280576024124, -13903.902638423759, -38308.5430632285, -7285.171125551597, -29024.947169416806, -0.012, 0.902, 0.488, 192.0, 0.0, 0.0, 0.0, 0.0, 0.0, 0.0, 0.0, 0.0, 0.0, 1.6541552830506773E9, 0.0, 2022-06-02 09:34:43.050
171.0, 23891.82435176663, -7649.213987495183, -62712.378825232845, -28972.755846113665, -13884.098992836356, -38288.04651356298, -7263.601692152226, -29009.591520976013, -0.012, 0.902, 0.488, 192.0, 0.0, 0.0, 0.0, 0.0, 0.0, 0.0, 0.0, 0.0, 0.0, 1.6541552830506897E9, 0.0, 2022-06-02 09:34:43.050
172.0, 23900.273311170735, -7644.117789759373, -62704.98039781814, -28966.586764644002, -13872.69960316415, -38283.57616467192, -7251.732915846457, -28989.139674799404, -0.012, 0.902, 0.488, 192.0, 0.0, 0.0, 0.0, 0.0, 0.0, 0.0, 0.0, 0.0, 0.0, 1.654155283050696E9, 0.0, 2022-06-02 09:34:43.050
173.0, 23883.285985384704, -7670.314034260993, -62731.48956674214, -28994.45938997977, -13894.64901621926, -38313.5945574754, -7266.373308464684, -29008.183361075327, -0.012, 0.902, 0.488, 192.0, 0.0, 0.0, 0.0, 0.0, 0.0, 0.0, 0.0, 0.0, 0.0, 1.6541552830507019E9, 0.0, 2022-06-02 09:34:43.050
174.0, 23870.299621856168, -7687.167249580294, -62752.07552338547, -29015.157105345384, -13917.716016497137, -38332.37002281786, -7289.01562559791, -29034.51371604368, -0.012, 0.902, 0.488, 192.0, 0.0, 0.0, 0.0, 0.0, 0.0, 0.0, 0.0, 0.0, 0.0, 1.654155283050707E9, 0.0, 2022-06-02 09:34:43.050
175.0, 23873.071238168628, -7676.885447130853, -62741.43609302475, -29005.232930807226, -13909.110594881844, -38319.24954882259, -7281.661901672113, -29030.758622975187, -0.012, 0.902, 0.488, 192.0, 0.0, 0.0, 0.0, 0.0, 0.0, 0.0, 0.0, 0.0, 0.0, 1.6541552830507133E9, 0.0, 2022-06-02 09:34:43.050
176.0, 23881.184921405904, -7657.081801543451, -62720.917191614775, -28986.569224187046, -13888.010548116035, -38297.63541193431, -7270.597788166737, -29015.31356755657, -0.012, 0.898, 0.49, 192.0, 255.0, 160.0, 28.0, 16.0, 15.0, 80.0, 0.0, 0.0, 0.0, 1.6541552830507193E9, 0.0, 2022-06-02 09:34:43.050
177.0, 23894.05952621216, -7643.424885681258, -62702.20878150568, -28973.49345368069, -13873.280748519988, -38281.98919081559, -7256.069154270787, -28989.989041088706, -0.012, 0.898, 0.49, 192.0, 0.0, 0.0, 0.0, 0.0, 0.0, 0.0, 0.0, 0.0, 0.0, 1.654155283050726E9, 0.0, 2022-06-02 09:34:43.050
178.0, 23893.321918645135, -7654.488999186636, -62710.903610098794, -28984.490511952703, -13879.829809645393, -38293.120359554334, -7241.451113397016, -28983.037648563106, -0.012, 0.898, 0.49, 192.0, 0.0, 0.0, 0.0, 0.0, 0.0, 0.0, 0.0, 0.0, 0.0, 1.6541552830507324E9, 0.0, 2022-06-02 09:34:43.050
179.0, 23879.19561614938, -7677.399537253325, -62731.5566219755, -29009.680927953832, -13907.121289625322, -38322.13292385732, -7278.800878381834, -29022.711994971276, -0.012, 0.898, 0.49, 192.0, 0.0, 0.0, 0.0, 0.0, 0.0, 0.0, 0.0, 0.0, 0.0, 1.6541552830507376E9, 0.0, 2022-06-02 09:34:43.050
180.0, 23876.20048239237, -7676.952502364219, -62728.740302174134, -29006.93166338583, -13914.050330406468, -38315.53915924301, -7289.596770953748, -29009.07743085354, -0.012, 0.898, 0.49, 192.0, 0.0, 0.0, 0.0, 0.0, 0.0, 0.0, 0.0, 0.0, 0.0, 1.654155283050743E9, 0.0, 2022-06-02 09:34:43.050
181.0, 23884.604738307567, -7656.455952698702, -62703.52753442855, -28983.30586949657, -13892.41384177373, -38290.125225797325, -7263.5122851744045, -28991.866587622953, -0.012, 0.898, 0.49, 192.0, 0.0, 0.0, 0.0, 0.0, 0.0, 0.0, 0.0, 0.0, 0.0, 1.6541552830507493E9, 0.0, 2022-06-02 09:34:43.050
182.0, 23887.10813368656, -7654.712516631189, -62701.046490794004, -28981.987116573706, -13885.46244924813, -38292.20393803167, -7256.426782182072, -29012.92193089985, -0.012, 0.898, 0.49, 192.0, 0.0, 0.0, 0.0, 0.0, 0.0, 0.0, 0.0, 0.0, 0.0, 1.6541552830507543E9, 0.0, 2022-06-02 09:34:43.050
183.0, 23895.266520412748, -7656.411249209792, -62702.36524371687, -28984.714029397255, -13880.433306745686, -38299.20003404618, -7248.223691966974, -29007.22223606375, -0.012, 0.898, 0.49, 192.0, 0.0, 0.0, 0.0, 0.0, 0.0, 0.0, 0.0, 0.0, 0.0, 1.6541552830507605E9, 0.0, 2022-06-02 09:34:43.050
184.0, 23889.72328778783, -7669.241150527138, -62716.849174123905, -29001.58959646101, -13899.119365110322, -38315.56151098746, -7268.049689298831, -29019.023957136153, -0.012, 0.898, 0.49, 192.0, 0.0, 0.0, 0.0, 0.0, 0.0, 0.0, 0.0, 0.0, 0.0, 1.654155283050766E9, 0.0, 2022-06-02 09:34:43.050
185.0, 23882.235453395304, -7670.828124383465, -62723.24177303813, -29006.015241863162, -13913.603295517361, -38319.406011033774, -7289.619122698203, -29015.26886406766, -0.012, 0.898, 0.49, 192.0, 0.0, 0.0, 0.0, 0.0, 0.0, 0.0, 0.0, 0.0, 0.0, 1.6541552830507717E9, 0.0, 2022-06-02 09:34:43.050
186.0, 23886.86226449755, -7655.874807342864, -62706.27679899655, -28987.418590476347, -13897.912370909737, -38298.26126077906, -7285.931084863078, -29004.092991840007, -0.01, 0.896, 0.492, 192.0, 255.0, 176.0, 28.0, 0.0, 15.0, 96.0, 0.0, 0.0, 0.0, 1.6541552830507772E9, 0.0, 2022-06-02 09:34:43.050
187.0, 23890.17032267694, -7652.99143230813, -62704.354548973395, -28982.858834607465, -13890.245722561565, -38293.05330432097, -7265.479238686471, -28995.040535335607, -0.01, 0.896, 0.492, 192.0, 0.0, 0.0, 0.0, 0.0, 0.0, 0.0, 0.0, 0.0, 0.0, 1.654155283050783E9, 0.0, 2022-06-02 09:34:43.050
188.0, 23890.72911628832, -7662.937958590742, -62716.67036016827, -28991.710125411766, -13894.26903656352, -38300.3399730134, -7255.219787981486, -28995.711087669264, -0.01, 0.896, 0.492, 192.0, 0.0, 0.0, 0.0, 0.0, 0.0, 0.0, 0.0, 0.0, 0.0, 1.6541552830507884E9, 0.0, 2022-06-02 09:34:43.050
189.0, 23886.929319730916, -7672.884484873353, -62731.98130512015, -29004.07064009555, -13901.80157444496, -38315.092124353905, -7278.48795395946, -29029.261056096682, -0.01, 0.896, 0.492, 192.0, 0.0, 0.0, 0.0, 0.0, 0.0, 0.0, 0.0, 0.0, 0.0, 1.6541552830507941E9, 0.0, 2022-06-02 09:34:43.050
190.0, 23871.23839512329, -7679.90293263232, -62739.06680811248, -29012.4972477552, -13918.140699641788, -38321.1941505902, -7289.641474442658, -29026.489439784225, -0.01, 0.896, 0.492, 192.0, 0.0, 0.0, 0.0, 0.0, 0.0, 0.0, 0.0, 0.0, 0.0, 1.6541552830508003E9, 0.0, 2022-06-02 09:34:43.050
191.0, 23874.09941841357, -7669.330557504959, -62723.86762188288, -28997.141599314404, -13909.423519304219, -38302.30692652547, -7274.598750424237, -29009.971500631753, -0.01, 0.896, 0.492, 192.0, 0.0, 0.0, 0.0, 0.0, 0.0, 0.0, 0.0, 0.0, 0.0, 1.6541552830508056E9, 0.0, 2022-06-02 09:34:43.050
192.0, 23886.996374964285, -7656.99239456563, -62714.99397933412, -28984.714029397255, -13893.397318529764, -38290.46050196415, -7259.511322916905, -29009.233893064727, -0.01, 0.896, 0.492, 192.0, 0.0, 0.0, 0.0, 0.0, 0.0, 0.0, 0.0, 0.0, 0.0, 1.654155283050816E9, 0.0, 2022-06-02 09:34:43.050
193.0, 23887.979851720316, -7664.681394658255, -62722.995903849114, -28994.03470683512, -13898.56057149894, -38303.37981025932, -7269.994291066443, -29007.333994786026, -0.01, 0.896, 0.492, 192.0, 0.0, 0.0, 0.0, 0.0, 0.0, 0.0, 0.0, 0.0, 0.0, 1.654155283050824E9, 0.0, 2022-06-02 09:34:43.050
194.0, 23883.4871510848, -7674.918493618786, -62732.875374898365, -29006.41757326336, -13909.959961171147, -38318.31077555547, -7287.24983778594, -29031.563285775577, -0.01, 0.896, 0.492, 192.0, 0.0, 0.0, 0.0, 0.0, 0.0, 0.0, 0.0, 0.0, 0.0, 1.6541552830508296E9, 0.0, 2022-06-02 09:34:43.050
195.0, 23880.134389416504, -7671.431621483758, -62728.49443298512, -29000.472009238245, -13911.971618172123, -38307.470179494645, -7298.269247802406, -29011.402012276892, -0.008, 0.898, 0.48, 192.0, 255.0, 192.0, 28.0, 16.0, 15.0, 0.0, 0.0, 0.0, 0.0, 1.6541552830508351E9, 0.0, 2022-06-02 09:34:43.050
196.0, 23890.706764543866, -7652.119714274373, -62706.41090946328, -28978.522596183135, -13892.726766196105, -38284.09025479439, -7264.7416311194465, -28990.637241677912, -0.008, 0.898, 0.48, 192.0, 0.0, 0.0, 0.0, 0.0, 0.0, 0.0, 0.0, 0.0, 0.0, 1.6541552830508416E9, 0.0, 2022-06-02 09:34:43.050
197.0, 23894.752430290275, -7647.17997874975, -62697.8501913369, -28970.364209456948, -13880.41095500123, -38279.59755415888, -7244.021564009377, -28989.631413177423, -0.008, 0.898, 0.48, 192.0, 0.0, 0.0, 0.0, 0.0, 0.0, 0.0, 0.0, 0.0, 0.0, 1.6541552830508473E9, 0.0, 2022-06-02 09:34:43.050
198.0, 23886.079953441615, -7661.149819034317, -62711.37299673236, -28983.55173868558, -13888.569341727418, -38298.70829566816, -7261.232407239963, -29002.26014879467, -0.008, 0.898, 0.48, 192.0, 0.0, 0.0, 0.0, 0.0, 0.0, 0.0, 0.0, 0.0, 0.0, 1.6541552830508533E9, 0.0, 2022-06-02 09:34:43.050
199.0, 23873.406514335456, -7674.024423840574, -62725.29813352801, -28997.812151648064, -13901.265132578032, -38317.64022322181, -7276.900980103133, -29036.12304164446, -0.008, 0.898, 0.48, 192.0, 0.0, 0.0, 0.0, 0.0, 0.0, 0.0, 0.0, 0.0, 0.0, 1.65415528305086E9, 0.0, 2022-06-02 09:34:43.050
200.0, 23871.43956082339, -7667.788287137543, -62720.47015672567, -28994.101762068483, -13904.595542501873, -38310.93469988521, -7284.210000540019, -29038.805250979098, -0.008, 0.898, 0.48, 192.0, 0.0, 0.0, 0.0, 0.0, 0.0, 0.0, 0.0, 0.0, 0.0, 1.6541552830508657E9, 0.0, 2022-06-02 09:34:43.050
201.0, 23880.782590005707, -7653.058487541496, -62705.0027495626, -28975.72862812622, -13893.822001674414, -38287.24185076259, -7271.916541089599, -29004.11534358446, -0.008, 0.898, 0.48, 192.0, 0.0, 0.0, 0.0, 0.0, 0.0, 0.0, 0.0, 0.0, 0.0, 1.6541552830508711E9, 0.0, 2022-06-02 09:34:43.050
202.0, 23890.125619188027, -7648.565786905979, -62696.91141806977, -28969.11251176745, -13879.494533478563, -38280.87160359283, -7247.106104744209, -28970.341857712494, -0.008, 0.898, 0.48, 192.0, 0.0, 0.0, 0.0, 0.0, 0.0, 0.0, 0.0, 0.0, 0.0, 1.6541552830508776E9, 0.0, 2022-06-02 09:34:43.050
203.0, 23883.755372018262, -7661.149819034317, -62711.57416243246, -28982.657668907366, -13886.825905659904, -38296.406065989264, -7262.171180507086, -28997.87920688143, -0.008, 0.898, 0.48, 192.0, 0.0, 0.0, 0.0, 0.0, 0.0, 0.0, 0.0, 0.0, 0.0, 1.6541552830508835E9, 0.0, 2022-06-02 09:34:43.050
204.0, 23864.756389231254, -7684.373281523381, -62736.11637784438, -29006.506980241178, -13910.161126871244, -38324.36809830285, -7280.834887127267, -29033.50788754319, -0.008, 0.898, 0.48, 192.0, 0.0, 0.0, 0.0, 0.0, 0.0, 0.0, 0.0, 0.0, 0.0, 1.6541552830508907E9, 0.0, 2022-06-02 09:34:43.050
205.0, 23862.20829036335, -7683.993301867641, -62730.19316556372, -29004.07064009555, -13914.005626917557, -38321.41766803475, -7289.932047120577, -29025.08127988354, -0.012, 0.9, 0.48, 192.0, 255.0, 160.0, 28.0, 32.0, 15.0, 0.0, 0.0, 0.0, 0.0, 1.6541552830508971E9, 0.0, 2022-06-02 09:34:43.050
206.0, 23869.40555207796, -7670.828124383465, -62712.870563610864, -28986.5915759315, -13904.304969823954, -38300.25056603558, -7284.813497640312, -29021.639111237422, -0.012, 0.9, 0.48, 192.0, 0.0, 0.0, 0.0, 0.0, 0.0, 0.0, 0.0, 0.0, 0.0, 1.654155283050907E9, 0.0, 2022-06-02 09:34:43.050
207.0, 23885.63291855251, -7659.205217266705, -62705.89681934081, -28976.64504964889, -13886.736498682083, -38290.08052230842, -7260.2265787394745, -29007.557512230578, -0.012, 0.9, 0.48, 192.0, 0.0, 0.0, 0.0, 0.0, 0.0, 0.0, 0.0, 0.0, 0.0, 1.6541552830509145E9, 0.0, 2022-06-02 09:34:43.050
208.0, 23891.15379943297, -7664.6590429138005, -62714.301075256, -28987.575052687534, -13887.787030671481, -38298.77535090153, -7262.774677607379, -29005.5458552296, -0.012, 0.9, 0.48, 192.0, 0.0, 0.0, 0.0, 0.0, 0.0, 0.0, 0.0, 0.0, 0.0, 1.6541552830509212E9, 0.0, 2022-06-02 09:34:43.050
209.0, 23886.25876739726, -7675.656101185811, -62724.471118983165, -29001.723706927743, -13904.863763435336, -38314.82390342044, -7267.53559917636, -29040.41457657988, -0.012, 0.9, 0.48, 192.0, 0.0, 0.0, 0.0, 0.0, 0.0, 0.0, 0.0, 0.0, 0.0, 1.6541552830509267E9, 0.0, 2022-06-02 09:34:43.050
210.0, 23878.949746960374, -7678.204200053716, -62727.42154925127, -29002.327204028035, -13914.340903084387, -38315.092124353905, -7279.7172999045015, -29022.98021590474, -0.012, 0.9, 0.48, 192.0, 0.0, 0.0, 0.0, 0.0, 0.0, 0.0, 0.0, 0.0, 0.0, 1.654155283050933E9, 0.0, 2022-06-02 09:34:43.050
211.0, 23890.125619188027, -7659.629900411356, -62708.37786297535, -28980.154273528373, -13897.711205209638, -38287.77829262952, -7274.397584724139, -29005.724669185245, -0.012, 0.9, 0.48, 192.0, 0.0, 0.0, 0.0, 0.0, 0.0, 0.0, 0.0, 0.0, 0.0, 1.6541552830509388E9, 0.0, 2022-06-02 09:34:43.050
212.0, 23900.02744198173, -7651.113885773884, -62702.07467103895, -28973.158177513862, -13887.228237060099, -38278.70348438066, -7275.693985902547, -28999.8461603935, -0.012, 0.9, 0.48, 192.0, 0.0, 0.0, 0.0, 0.0, 0.0, 0.0, 0.0, 0.0, 0.0, 1.6541552830509453E9, 0.0, 2022-06-02 09:34:43.050
213.0, 23898.865151270053, -7661.641557412334, -62717.36326424638, -28989.027916077128, -13896.280693564499, -38293.790911888, -7282.444212728049, -28995.398163246893, -0.012, 0.9, 0.48, 192.0, 0.0, 0.0, 0.0, 0.0, 0.0, 0.0, 0.0, 0.0, 0.0, 1.6541552830509515E9, 0.0, 2022-06-02 09:34:43.050
214.0, 23881.386087106002, -7681.109926832906, -62737.27866855606, -29007.73632618622, -13915.033807162501, -38312.991060375105, -7282.690081917058, -29016.83348617953, -0.012, 0.9, 0.48, 192.0, 0.0, 0.0, 0.0, 0.0, 0.0, 0.0, 0.0, 0.0, 0.0, 1.6541552830509686E9, 0.0, 2022-06-02 09:34:43.050
215.0, 23864.5328717867, -7685.580275723967, -62738.08333135645, -29009.63622446492, -13919.191231631188, -38314.332165042426, -7282.265398772407, -29032.479707298247, -0.006, 0.902, 0.482, 192.0, 255.0, 208.0, 28.0, 48.0, 15.0, 16.0, 0.0, 0.0, 0.0, 1.6541552830509744E9, 0.0, 2022-06-02 09:34:43.050
216.0, 23866.499825298768, -7672.28098777306, -62721.69950267071, -28993.16298880136, -13901.823926189414, -38298.06009507896, -7254.616290881192, -29012.40784077738, -0.006, 0.902, 0.482, 192.0, 0.0, 0.0, 0.0, 0.0, 0.0, 0.0, 0.0, 0.0, 0.0, 1.6541552830509796E9, 0.0, 2022-06-02 09:34:43.050
217.0, 23874.47939806931, -7663.832028368954, -62711.99884557711, -28986.88214860942, -13892.32443479591, -38293.65680142126, -7258.326680460773, -28997.45452373678, -0.006, 0.902, 0.482, 192.0, 0.0, 0.0, 0.0, 0.0, 0.0, 0.0, 0.0, 0.0, 0.0, 1.6541552830509863E9, 0.0, 2022-06-02 09:34:43.050
218.0, 23875.97696494782, -7671.655138928311, -62720.04547358102, -29001.477837738734, -13897.75590869855, -38308.45365625068, -7270.642491655647, -29023.918989171863, -0.006, 0.902, 0.482, 192.0, 0.0, 0.0, 0.0, 0.0, 0.0, 0.0, 0.0, 0.0, 0.0, 1.6541552830509925E9, 0.0, 2022-06-02 09:34:43.050
219.0, 23865.49399679828, -7688.307188547515, -62739.69265695723, -29023.091974627016, -13913.200964117166, -38333.80053446299, -7293.0389395998645, -29029.79749796361, -0.006, 0.902, 0.482, 192.0, 0.0, 0.0, 0.0, 0.0, 0.0, 0.0, 0.0, 0.0, 0.0, 1.654155283050999E9, 0.0, 2022-06-02 09:34:43.050
220.0, 23858.028514150206, -7693.00105488313, -62742.151348847314, -29023.159029860384, -13922.365179343842, -38327.877322182336, -7306.181765339586, -29007.915140141864, -0.006, 0.902, 0.482, 192.0, 0.0, 0.0, 0.0, 0.0, 0.0, 0.0, 0.0, 0.0, 0.0, 1.6541552830510042E9, 0.0, 2022-06-02 09:34:43.051
221.0, 23872.132464901504, -7674.404403496314, -62716.62565667935, -29001.053154594083, -13899.119365110322, -38305.3914672603, -7263.311119474307, -29007.132829085927, -0.006, 0.902, 0.482, 192.0, 0.0, 0.0, 0.0, 0.0, 0.0, 0.0, 0.0, 0.0, 0.0, 1.6541552830510092E9, 0.0, 2022-06-02 09:34:43.051
222.0, 23882.30250862867, -7664.793153380532, -62704.756880373585, -28993.140637056906, -13883.875475391804, -38301.25639453607, -7248.983651278455, -29015.380622789937, -0.006, 0.902, 0.482, 192.0, 0.0, 0.0, 0.0, 0.0, 0.0, 0.0, 0.0, 0.0, 0.0, 1.654155283051015E9, 0.0, 2022-06-02 09:34:43.051
223.0, 23874.30058411367, -7678.561827965002, -62718.34674100242, -29010.55264598759, -13896.615969731329, -38318.802513933486, -7268.9661108215, -29023.717823471765, -0.006, 0.902, 0.482, 192.0, 0.0, 0.0, 0.0, 0.0, 0.0, 0.0, 0.0, 0.0, 0.0, 1.65415528305102E9, 0.0, 2022-06-02 09:34:43.051
224.0, 23866.72334274332, -7692.6657787163, -62734.73056968815, -29028.07641364055, -13909.89290593778, -38335.40986006378, -7275.358709735717, -29018.196942591305, -0.006, 0.902, 0.482, 192.0, 0.0, 0.0, 0.0, 0.0, 0.0, 0.0, 0.0, 0.0, 0.0, 1.6541552830510256E9, 0.0, 2022-06-02 09:34:43.051
225.0, 23858.833176950597, -7697.851383429931, -62739.89382265733, -29029.12694562995, -13919.302990353464, -38333.84523795191, -7283.450041228538, -29032.7032247428, -0.01, 0.91, 0.484, 192.0, 255.0, 176.0, 28.0, 112.0, 15.0, 32.0, 0.0, 0.0, 0.0, 1.654155283051031E9, 0.0, 2022-06-02 09:34:43.051
226.0, 23869.785531733698, -7681.713423933199, -62714.79281363402, -29009.747983187197, -13902.628588989806, -38313.79572317549, -7281.103108060731, -29014.665366967365, -0.01, 0.91, 0.484, 192.0, 0.0, 0.0, 0.0, 0.0, 0.0, 0.0, 0.0, 0.0, 0.0, 1.6541552830510366E9, 0.0, 2022-06-02 09:34:43.051
227.0, 23881.564901061643, -7665.7766301365655, -62706.38855771883, -29006.328166285537, -13890.670405706216, -38308.07367659493, -7258.572549649782, -29014.374794289448, -0.01, 0.91, 0.484, 192.0, 0.0, 0.0, 0.0, 0.0, 0.0, 0.0, 0.0, 0.0, 0.0, 1.6541552830510428E9, 0.0, 2022-06-02 09:34:43.051
228.0, 23877.474531826323, -7675.611397696901, -62719.307866013994, -29018.912198413873, -13897.107708109344, -38321.21650233466, -7262.707622374013, -29030.870381697463, -0.01, 0.91, 0.484, 192.0, 0.0, 0.0, 0.0, 0.0, 0.0, 0.0, 0.0, 0.0, 0.0, 1.654155283051048E9, 0.0, 2022-06-02 09:34:43.051
229.0, 23858.654362994956, -7700.421834042291, -62740.11734010188, -29037.665312011875, -13915.279676351509, -38341.668348511266, -7294.804727411834, -29036.41361432238, -0.01, 0.91, 0.484, 192.0, 0.0, 0.0, 0.0, 0.0, 0.0, 0.0, 0.0, 0.0, 0.0, 1.6541552830510535E9, 0.0, 2022-06-02 09:34:43.051
230.0, 23857.760293216743, -7694.968008395196, -62736.13872958884, -29028.344634574016, -13914.676179251217, -38328.3467088159, -7289.663826187114, -29019.895675169908, -0.01, 0.91, 0.484, 192.0, 0.0, 0.0, 0.0, 0.0, 0.0, 0.0, 0.0, 0.0, 0.0, 1.6541552830510592E9, 0.0, 2022-06-02 09:34:43.051
231.0, 23862.25299385226, -7681.087575088451, -62718.682017169245, -29006.64109070791, -13900.527525011006, -38305.235005049115, -7282.377157494683, -29017.21346583527, -0.01, 0.91, 0.484, 192.0, 0.0, 0.0, 0.0, 0.0, 0.0, 0.0, 0.0, 0.0, 0.0, 1.6541552830510678E9, 0.0, 2022-06-02 09:34:43.051
232.0, 23866.879804954508, -7681.087575088451, -62719.7549009031, -29005.99289011871, -13893.151449340756, -38304.49739748209, -7280.276093515885, -29015.961768145775, -0.01, 0.91, 0.484, 192.0, 0.0, 0.0, 0.0, 0.0, 0.0, 0.0, 0.0, 0.0, 0.0, 1.6541552830510745E9, 0.0, 2022-06-02 09:34:43.051
233.0, 23856.39683680497, -7697.806679941021, -62742.41956978078, -29025.46125953928, -13906.383682058298, -38325.46333378117, -7277.102145803231, -29036.41361432238, -0.01, 0.91, 0.484, 192.0, 0.0, 0.0, 0.0, 0.0, 0.0, 0.0, 0.0, 0.0, 0.0, 1.6541552830510807E9, 0.0, 2022-06-02 09:34:43.051
234.0, 23852.798205947664, -7704.422796299791, -62753.0142966526, -29038.04529166762, -13916.732539741104, -38345.557552046484, -7270.374270722184, -29052.976256963764, -0.01, 0.91, 0.484, 192.0, 0.0, 0.0, 0.0, 0.0, 0.0, 0.0, 0.0, 0.0, 0.0, 1.654155283051086E9, 0.0, 2022-06-02 09:34:43.051
235.0, 23850.317162313124, -7699.95244740873, -62751.1591018628, -29039.341692846025, -13922.298124110475, -38347.41274683628, -7296.481108245982, -29048.237687139237, -0.012, 0.906, 0.48, 192.0, 255.0, 160.0, 28.0, 80.0, 15.0, 0.0, 0.0, 0.0, 0.0, 1.6541552830510936E9, 0.0, 2022-06-02 09:34:43.051
236.0, 23860.621316507022, -7684.9097233903085, -62736.22813656666, -29018.75573620269, -13911.211658860644, -38323.116400613355, -7293.9777128669875, -29008.518637242156, -0.012, 0.906, 0.48, 192.0, 0.0, 0.0, 0.0, 0.0, 0.0, 0.0, 0.0, 0.0, 0.0, 1.6541552830510988E9, 0.0, 2022-06-02 09:34:43.051
237.0, 23874.322935858123, -7676.550170964024, -62725.544002717026, -29004.383564517924, -13899.856972677348, -38309.280670795524, -7277.213904525507, -29003.958881373273, -0.012, 0.906, 0.48, 192.0, 0.0, 0.0, 0.0, 0.0, 0.0, 0.0, 0.0, 0.0, 0.0, 1.654155283051104E9, 0.0, 2022-06-02 09:34:43.051
238.0, 23879.575595805123, -7681.579313466467, -62729.6567236968, -29009.27859655364, -13906.473089036119, -38319.47306626714, -7282.891247617155, -29033.50788754319, -0.012, 0.906, 0.48, 192.0, 0.0, 0.0, 0.0, 0.0, 0.0, 0.0, 0.0, 0.0, 0.0, 1.6541552830511098E9, 0.0, 2022-06-02 09:34:43.051
239.0, 23882.01193595075, -7683.322749533982, -62736.719874944676, -29016.341747801514, -13919.191231631188, -38327.00560414858, -7298.179840824586, -29034.826640466054, -0.012, 0.906, 0.48, 192.0, 0.0, 0.0, 0.0, 0.0, 0.0, 0.0, 0.0, 0.0, 0.0, 1.6541552830511177E9, 0.0, 2022-06-02 09:34:43.051
240.0, 23879.553244060666, -7676.684281430756, -62728.76265391859, -29010.150314587394, -13920.353522342864, -38322.82582793544, -7290.624951198692, -29026.17651536185, -0.012, 0.906, 0.48, 192.0, 0.0, 0.0, 0.0, 0.0, 0.0, 0.0, 0.0, 0.0, 0.0, 1.654155283051124E9, 0.0, 2022-06-02 09:34:43.051
241.0, 23887.778686020218, -7660.635728911845, -62708.24375250861, -28994.280576024124, -13900.75104245556, -38307.91721438375, -7262.819381096289, -29025.997701406206, -0.012, 0.906, 0.48, 192.0, 0.0, 0.0, 0.0, 0.0, 0.0, 0.0, 0.0, 0.0, 0.0, 1.6541552835289102E9, 0.0, 2022-06-02 09:34:43.528
242.0, 23887.085781942103, -7663.496752202124, -62711.52945894354, -28997.83450339252, -13895.945417397668, -38309.23596730661, -7274.308177746318, -29015.291215812114, -0.012, 0.906, 0.48, 192.0, 0.0, 0.0, 0.0, 0.0, 0.0, 0.0, 0.0, 0.0, 0.0, 1.6541552835291045E9, 0.0, 2022-06-02 09:34:43.529
243.0, 23886.61639530854, -7666.8942173593305, -62712.64704616631, -29006.55168373009, -13892.592655729373, -38317.84138892191, -7271.760078878413, -29014.486553011724, -0.012, 0.906, 0.48, 192.0, 0.0, 0.0, 0.0, 0.0, 0.0, 0.0, 0.0, 0.0, 0.0, 1.6541552835291135E9, 0.0, 2022-06-02 09:34:43.529
244.0, 23876.78162774821, -7677.667758186789, -62722.79473814902, -29018.621625735956, -13903.70147272366, -38328.90550242728, -7278.264436514907, -29027.763489218178, -0.012, 0.906, 0.48, 192.0, 0.0, 0.0, 0.0, 0.0, 0.0, 0.0, 0.0, 0.0, 0.0, 1.6541552835291207E9, 0.0, 2022-06-02 09:34:43.529
245.0, 23859.660191495444, -7686.608455968912, -62730.17081381927, -29024.857762438987, -13917.425443819218, -38334.42638330774, -7290.937875621066, -29027.69643398481, -0.01, 0.902, 0.48, 192.0, 255.0, 176.0, 28.0, 48.0, 15.0, 0.0, 0.0, 0.0, 0.0, 1.6541552835291264E9, 0.0, 2022-06-02 09:34:43.529
246.0, 23869.986697433797, -7669.129391804861, -62708.35551123089, -29005.724669185245, -13900.393414544274, -38309.48183649562, -7273.145887034641, -29008.02689886414, -0.01, 0.902, 0.48, 192.0, 0.0, 0.0, 0.0, 0.0, 0.0, 0.0, 0.0, 0.0, 0.0, 1.6541552835291328E9, 0.0, 2022-06-02 09:34:43.529
247.0, 23877.899214970974, -7661.730964390155, -62700.800621605, -28999.39912550439, -13889.93279813919, -38302.86572013685, -7256.113857759698, -29014.106573355984, -0.01, 0.902, 0.48, 192.0, 0.0, 0.0, 0.0, 0.0, 0.0, 0.0, 0.0, 0.0, 0.0, 1.6541552835291393E9, 0.0, 2022-06-02 09:34:43.529
248.0, 23881.564901061643, -7666.223665025672, -62709.07076705346, -29007.289291297115, -13894.403147030253, -38314.48862725361, -7260.2265787394745, -29021.37089030396, -0.01, 0.902, 0.48, 192.0, 0.0, 0.0, 0.0, 0.0, 0.0, 0.0, 0.0, 0.0, 0.0, 1.6541552835291479E9, 0.0, 2022-06-02 09:34:43.529
249.0, 23885.498808085777, -7671.163400550295, -62712.44588046621, -29009.16683783136, -13902.919161667725, -38317.08142961043, -7277.4821254589715, -29004.651785451388, -0.01, 0.902, 0.48, 192.0, 0.0, 0.0, 0.0, 0.0, 0.0, 0.0, 0.0, 0.0, 0.0, 1.6541552835291543E9, 0.0, 2022-06-02 09:34:43.529
250.0, 23878.279194626713, -7675.477287230169, -62714.32342700046, -29011.424364021346, -13912.66452225024, -38320.43419127872, -7279.806706882323, -29032.010320664685, -0.01, 0.902, 0.48, 192.0, 0.0, 0.0, 0.0, 0.0, 0.0, 0.0, 0.0, 0.0, 0.0, 1.6541552835291607E9, 0.0, 2022-06-02 09:34:43.529
251.0, 23879.374430105025, -7660.32280448947, -62700.04066229352, -28996.828674892033, -13899.208772088145, -38308.00662136157, -7269.703718388524, -29040.816907980075, -0.01, 0.902, 0.48, 192.0, 0.0, 0.0, 0.0, 0.0, 0.0, 0.0, 0.0, 0.0, 0.0, 1.6541552835291667E9, 0.0, 2022-06-02 09:34:43.529
252.0, 23879.955575460863, -7658.132333532851, -62702.76757511707, -28993.431209734823, -13894.358443541341, -38304.00565910407, -7275.4928202024485, -29022.287311826625, -0.01, 0.902, 0.48, 192.0, 0.0, 0.0, 0.0, 0.0, 0.0, 0.0, 0.0, 0.0, 0.0, 1.654155283529173E9, 0.0, 2022-06-02 09:34:43.529
253.0, 23882.660136539955, -7666.514237703591, -62718.14557530232, -29000.516712727156, -13903.32149306792, -38308.96774637315, -7292.055462843831, -29019.001605391695, -0.01, 0.902, 0.48, 192.0, 0.0, 0.0, 0.0, 0.0, 0.0, 0.0, 0.0, 0.0, 0.0, 1.6541552835291812E9, 0.0, 2022-06-02 09:34:43.529
254.0, 23884.76120051875, -7672.6609674288, -62730.59549696392, -29009.21154132027, -13914.586772273395, -38317.08142961043, -7305.310047305828, -29042.22506788076, -0.01, 0.902, 0.48, 192.0, 0.0, 0.0, 0.0, 0.0, 0.0, 0.0, 0.0, 0.0, 0.0, 1.6541552835291877E9, 0.0, 2022-06-02 09:34:43.529
255.0, 23877.899214970974, -7673.040947084541, -62732.160119075794, -29009.65857620938, -13919.057121164456, -38317.036726121514, -7302.449024015549, -29024.83541069453, -0.008, 0.906, 0.47800000000000004, 192.0, 255.0, 192.0, 28.0, 80.0, 14.0, 240.0, 0.0, 0.0, 0.0, 1.6541552835291936E9, 0.0, 2022-06-02 09:34:43.529
0.0, 23885.476456341323, -7656.120676531873, -62709.69661589821, -28988.245605021195, -13903.32149306792, -38297.99303984559, -7282.913599361611, -29007.98219537523, -0.008, 0.906, 0.47800000000000004, 192.0, 0.0, 0.0, 0.0, 0.0, 0.0, 0.0, 0.0, 0.0, 0.0, 1.654155283529255E9, 0.0, 2022-06-02 09:34:43.529
1.0, 23902.039098982706, -7640.474455413158, -62688.35069994339, -28970.095988523484, -13880.545065467963, -38283.37499897182, -7252.559930391304, -29007.289291297115, -0.008, 0.906, 0.47800000000000004, 192.0, 0.0, 0.0, 0.0, 0.0, 0.0, 0.0, 0.0, 0.0, 0.0, 1.6541552835292687E9, 0.0, 2022-06-02 09:34:43.529
2.0, 23888.270424398237, -7664.6590429138005, -62709.74131938712, -28993.20769229027, -13889.08343184989, -38304.27388003754, -7261.657090384614, -29018.956901902784, -0.008, 0.906, 0.47800000000000004, 192.0, 0.0, 0.0, 0.0, 0.0, 0.0, 0.0, 0.0, 0.0, 0.0, 1.6541552835292757E9, 0.0, 2022-06-02 09:34:43.529
3.0, 23868.936165444396, -7688.933037392264, -62739.42443602377, -29021.013262392673, -13920.420577576231, -38333.17468561824, -7301.465547259516, -29046.717768516275, -0.008, 0.906, 0.47800000000000004, 192.0, 0.0, 0.0, 0.0, 0.0, 0.0, 0.0, 0.0, 0.0, 0.0, 1.6541552835292842E9, 0.0, 2022-06-02 09:34:43.529
4.0, 23861.805958963152, -7687.837801913954, -62735.51288074409, -29018.46516352477, -13921.761682243548, -38331.028918150536, -7291.6307796991805, -29045.5554778046, -0.008, 0.906, 0.47800000000000004, 192.0, 0.0, 0.0, 0.0, 0.0, 0.0, 0.0, 0.0, 0.0, 0.0, 1.65415528352929E9, 0.0, 2022-06-02 09:34:43.529
5.0, 23871.953650945863, -7666.000147581119, -62711.820031621464, -28991.73247715622, -13900.304007566454, -38299.490606724095, -7287.719224419502, -29015.201808834292, -0.008, 0.906, 0.47800000000000004, 192.0, 0.0, 0.0, 0.0, 0.0, 0.0, 0.0, 0.0, 0.0, 0.0, 1.6541552835292962E9, 0.0, 2022-06-02 09:34:43.529
6.0, 23889.857398254564, -7649.191635750728, -62692.5975313899, -28975.035724048106, -13882.489667235574, -38281.98919081559, -7265.188666008552, -28991.15133180038, -0.008, 0.906, 0.47800000000000004, 192.0, 0.0, 0.0, 0.0, 0.0, 0.0, 0.0, 0.0, 0.0, 0.0, 1.654155283529302E9, 0.0, 2022-06-02 09:34:43.529
7.0, 23887.957499975862, -7660.747487634121, -62704.28749374003, -28987.239776520706, -13891.251551062054, -38297.322487511934, -7264.115782274697, -28999.55558771558, -0.008, 0.906, 0.47800000000000004, 192.0, 0.0, 0.0, 0.0, 0.0, 0.0, 0.0, 0.0, 0.0, 0.0, 1.6541552835293093E9, 0.0, 2022-06-02 09:34:43.529
8.0, 23883.867130740542, -7675.23141804116, -62720.24663928112, -29002.416611005858, -13905.55666751345, -38317.751981944086, -7270.48602944446, -29031.093899142015, -0.008, 0.906, 0.47800000000000004, 192.0, 0.0, 0.0, 0.0, 0.0, 0.0, 0.0, 0.0, 0.0, 0.0, 1.6541552835293217E9, 0.0, 2022-06-02 09:34:43.529
9.0, 23884.940014474396, -7672.415098239791, -62712.311769999484, -28999.443828993302, -13906.070757635924, -38317.14848484379, -7273.682328901569, -29048.260038883695, -0.01, 0.902, 0.484, 192.0, 255.0, 176.0, 28.0, 48.0, 15.0, 32.0, 0.0, 0.0, 0.0, 1.6541552835293357E9, 0.0, 2022-06-02 09:34:43.529
10.0, 23885.990546463796, -7662.490923701635, -62701.53822917202, -28990.525482955636, -13897.353577298354, -38308.31954578395, -7275.559875435815, -29019.023957136153, -0.01, 0.902, 0.484, 192.0, 0.0, 0.0, 0.0, 0.0, 0.0, 0.0, 0.0, 0.0, 0.0, 1.654155283529342E9, 0.0, 2022-06-02 09:34:43.529
11.0, 23900.340366404103, -7647.6940688722225, -62689.13301099933, -28978.097913038484, -13878.913388122724, -38295.19907178868, -7260.472447928482, -29009.92679714284, -0.01, 0.902, 0.484, 192.0, 0.0, 0.0, 0.0, 0.0, 0.0, 0.0, 0.0, 0.0, 0.0, 1.6541552835293481E9, 0.0, 2022-06-02 09:34:43.529
12.0, 23900.5415321042, -7655.18190326475, -62702.0523192945, -28989.653764921877, -13886.490629493073, -38308.69952543968, -7284.902904618133, -29031.518582286666, -0.01, 0.902, 0.484, 192.0, 0.0, 0.0, 0.0, 0.0, 0.0, 0.0, 0.0, 0.0, 0.0, 1.6541552835293555E9, 0.0, 2022-06-02 09:34:43.529
13.0, 23888.359831376056, -7672.437449984247, -62723.018255593575, -29010.910273898873, -13913.871516450825, -38328.525522771546, -7315.860070688734, -29038.17940213435, -0.01, 0.902, 0.484, 192.0, 0.0, 0.0, 0.0, 0.0, 0.0, 0.0, 0.0, 0.0, 0.0, 1.6541552835293624E9, 0.0, 2022-06-02 09:34:43.529
14.0, 23882.928357473418, -7673.175057551272, -62722.92884861575, -29011.580826232534, -13918.699493253172, -38325.28451982552, -7282.891247617155, -29023.516657771666, -0.01, 0.902, 0.484, 192.0, 0.0, 0.0, 0.0, 0.0, 0.0, 0.0, 0.0, 0.0, 0.0, 1.65415528352937E9, 0.0, 2022-06-02 09:34:43.529
15.0, 23887.041078453196, -7660.479266700658, -62708.51197344208, -28997.11924756995, -13907.903600681258, -38311.53819698551, -7270.396622466639, -29031.6526927534, -0.01, 0.902, 0.484, 192.0, 0.0, 0.0, 0.0, 0.0, 0.0, 0.0, 0.0, 0.0, 0.0, 1.6541552835293806E9, 0.0, 2022-06-02 09:34:43.529
16.0, 23888.426886609424, -7654.51135093109, -62704.17573501775, -28992.090105067506, -13899.678158721705, -38309.32537428443, -7273.39175622365, -29037.531201545145, -0.01, 0.902, 0.484, 192.0, 0.0, 0.0, 0.0, 0.0, 0.0, 0.0, 0.0, 0.0, 0.0, 1.65415528352939E9, 0.0, 2022-06-02 09:34:43.529
17.0, 23889.611529065554, -7659.428734711259, -62716.35743574589, -29000.58376796052, -13901.75687095605, -38319.2942523115, -7272.810610867812, -29038.067643412072, -0.01, 0.902, 0.484, 192.0, 0.0, 0.0, 0.0, 0.0, 0.0, 0.0, 0.0, 0.0, 0.0, 1.6541552835293968E9, 0.0, 2022-06-02 09:34:43.529
18.0, 23875.552281803168, -7679.7464704211325, -62741.70431395821, -29021.661462981876, -13923.371007844331, -38335.87924669734, -7296.034073356876, -29038.46997481227, -0.012, 0.904, 0.484, 192.0, 255.0, 160.0, 28.0, 64.0, 15.0, 32.0, 0.0, 0.0, 0.0, 1.6541552835294025E9, 0.0, 2022-06-02 09:34:43.529
19.0, 23877.76510450424, -7674.627920940867, -62736.74222668913, -29012.899579155397, -13924.555650300463, -38326.692679726206, -7303.007817626932, -29040.235762624237, -0.012, 0.904, 0.484, 192.0, 0.0, 0.0, 0.0, 0.0, 0.0, 0.0, 0.0, 0.0, 0.0, 1.65415528352941E9, 0.0, 2022-06-02 09:34:43.529
20.0, 23876.96044170385, -7667.117734803884, -62723.711159671686, -29001.142561571905, -13914.251496106566, -38316.768505188054, -7285.796974396346, -29037.79942247861, -0.012, 0.904, 0.484, 192.0, 0.0, 0.0, 0.0, 0.0, 0.0, 0.0, 0.0, 0.0, 0.0, 1.6541552835294178E9, 0.0, 2022-06-02 09:34:43.529
21.0, 23890.907930243964, -7651.583272407445, -62706.52266818556, -28986.16689278685, -13896.951245898157, -38300.29526952449, -7265.456886942016, -29001.433134249823, -0.012, 0.904, 0.484, 192.0, 0.0, 0.0, 0.0, 0.0, 0.0, 0.0, 0.0, 0.0, 0.0, 1.6541552835294244E9, 0.0, 2022-06-02 09:34:43.529
22.0, 23900.429773381922, -7649.258690984094, -62706.25444725209, -28986.524520698134, -13894.716071452627, -38302.66455443675, -7265.00985205291, -29005.858779651975, -0.012, 0.904, 0.484, 192.0, 0.0, 0.0, 0.0, 0.0, 0.0, 0.0, 0.0, 0.0, 0.0, 1.6541552835294445E9, 0.0, 2022-06-02 09:34:43.529
23.0, 23897.09936345808, -7658.244092255127, -62712.55763918849, -28996.761619658664, -13905.690777980182, -38317.595519732895, -7290.781413409879, -29031.920913686863, -0.012, 0.904, 0.484, 192.0, 0.0, 0.0, 0.0, 0.0, 0.0, 0.0, 0.0, 0.0, 0.0, 1.6541552835294516E9, 0.0, 2022-06-02 09:34:43.529
24.0, 23882.01193595075, -7664.033194069051, -62719.441976480724, -29001.63429994992, -13914.832641462404, -38321.21650233466, -7294.000064611443, -29026.467088039768, -0.012, 0.904, 0.484, 192.0, 0.0, 0.0, 0.0, 0.0, 0.0, 0.0, 0.0, 0.0, 0.0, 1.6541552835294597E9, 0.0, 2022-06-02 09:34:43.529
25.0, 23883.308337129158, -7653.438467197236, -62702.812278605976, -28986.83744512051, -13906.294275080476, -38308.83363590642, -7282.243047027951, -29025.573018261555, -0.012, 0.904, 0.484, 192.0, 0.0, 0.0, 0.0, 0.0, 0.0, 0.0, 0.0, 0.0, 0.0, 1.6541552835294669E9, 0.0, 2022-06-02 09:34:43.529
26.0, 23896.205293679872, -7644.2295484816495, -62684.3944411748, -28973.202881002773, -13893.285559807488, -38299.289441024004, -7272.832962612268, -29021.84027693752, -0.012, 0.904, 0.484, 192.0, 0.0, 0.0, 0.0, 0.0, 0.0, 0.0, 0.0, 0.0, 0.0, 1.6541552835294764E9, 0.0, 2022-06-02 09:34:43.529
27.0, 23901.07797397113, -7648.856359583898, -62692.75399360109, -28978.366133971947, -13894.22433307461, -38303.2904032815, -7290.848468643245, -29024.231913594238, -0.012, 0.904, 0.484, 192.0, 0.0, 0.0, 0.0, 0.0, 0.0, 0.0, 0.0, 0.0, 0.0, 1.654155283529482E9, 0.0, 2022-06-02 09:34:43.529
28.0, 23884.96236621885, -7667.363603992892, -62719.68784566973, -29002.774238917144, -13915.972580429625, -38327.07265938195, -7294.6259134561915, -29018.621625735956, -0.01, 0.912, 0.482, 192.0, 255.0, 176.0, 28.0, 128.0, 15.0, 16.0, 0.0, 0.0, 0.0, 1.6541552835294886E9, 0.0, 2022-06-02 09:34:43.529
29.0, 23880.581424305612, -7671.208104039205, -62723.286476527035, -29006.84225640801, -13929.942420714191, -38331.14067687281, -7295.877611145689, -29025.88594268393, -0.01, 0.912, 0.482, 192.0, 0.0, 0.0, 0.0, 0.0, 0.0, 0.0, 0.0, 0.0, 0.0, 1.6541552835294971E9, 0.0, 2022-06-02 09:34:43.529
30.0, 23889.030383709716, -7655.405420709303, -62696.48673492512, -28985.608099175468, -13908.931780926203, -38306.46435099415, -7280.0078725824205, -29029.641035752422, -0.01, 0.912, 0.482, 192.0, 0.0, 0.0, 0.0, 0.0, 0.0, 0.0, 0.0, 0.0, 0.0, 1.6541552835295064E9, 0.0, 2022-06-02 09:34:43.529
31.0, 23901.25678792677, -7641.972022291663, -62679.90174053929, -28971.750017613176, -13884.881303892293, -38293.85796712136, -7251.732915846457, -29007.937491886318, -0.01, 0.912, 0.482, 192.0, 0.0, 0.0, 0.0, 0.0, 0.0, 0.0, 0.0, 0.0, 0.0, 1.6541552835295153E9, 0.0, 2022-06-02 09:34:43.529
32.0, 23892.651366311475, -7656.5006561876135, -62698.58779890392, -28986.323354998036, -13895.587789486384, -38309.52653998453, -7264.205189252519, -29014.598311734, -0.01, 0.912, 0.482, 192.0, 0.0, 0.0, 0.0, 0.0, 0.0, 0.0, 0.0, 0.0, 0.0, 1.6541552835295236E9, 0.0, 2022-06-02 09:34:43.529
33.0, 23884.090648185094, -7673.264464529093, -62718.972589847166, -29003.6459569509, -13918.788900230993, -38326.31270007047, -7304.147756594152, -29023.807230449587, -0.01, 0.912, 0.482, 192.0, 0.0, 0.0, 0.0, 0.0, 0.0, 0.0, 0.0, 0.0, 0.0, 1.654155283529533E9, 0.0, 2022-06-02 09:34:43.529
34.0, 23888.002203464774, -7663.653214413312, -62710.05424380949, -28996.716916169753, -13916.12904264081, -38316.92496739924, -7300.236201314474, -29022.957864160286, -0.01, 0.912, 0.482, 192.0, 0.0, 0.0, 0.0, 0.0, 0.0, 0.0, 0.0, 0.0, 0.0, 1.6541552835295405E9, 0.0, 2022-06-02 09:34:43.529
35.0, 23897.904026258475, -7641.010897280085, -62686.517856898055, -28974.946317070284, -13887.876437649304, -38294.2379467771, -7262.5735119072815, -29013.570131489058, -0.01, 0.912, 0.482, 192.0, 0.0, 0.0, 0.0, 0.0, 0.0, 0.0, 0.0, 0.0, 0.0, 1.6541552835295482E9, 0.0, 2022-06-02 09:34:43.529
36.0, 23901.07797397113, -7635.937051288731, -62683.03098476303, -28970.654782134865, -13880.2768445345, -38290.95224034217, -7264.652224141625, -28993.967651601753, -0.01, 0.912, 0.482, 192.0, 0.0, 0.0, 0.0, 0.0, 0.0, 0.0, 0.0, 0.0, 0.0, 1.6541552835295577E9, 0.0, 2022-06-02 09:34:43.529
37.0, 23888.15866567596, -7657.886464343842, -62713.719929900166, -28995.88990162491, -13905.511964024541, -38314.041592364505, -7282.243047027951, -29000.74023017171, -0.01, 0.912, 0.482, 192.0, 0.0, 0.0, 0.0, 0.0, 0.0, 0.0, 0.0, 0.0, 0.0, 1.6541552835295656E9, 0.0, 2022-06-02 09:34:43.529
38.0, 23898.999261736783, -7656.0312695540515, -62714.83751712293, -28997.275709781137, -13906.428385547208, -38317.97549938864, -7266.261549742407, -29051.03165519615, -0.008, 0.908, 0.482, 192.0, 255.0, 192.0, 28.0, 96.0, 15.0, 16.0, 0.0, 0.0, 0.0, 1.6541552835295804E9, 0.0, 2022-06-02 09:34:43.529
39.0, 23892.986642478307, -7658.46760969968, -62721.6547991818, -29002.148390072394, -13915.056158906957, -38325.55274075898, -7287.16043080812, -29064.040370469138, -0.008, 0.908, 0.482, 192.0, 0.0, 0.0, 0.0, 0.0, 0.0, 0.0, 0.0, 0.0, 0.0, 1.6541552835295887E9, 0.0, 2022-06-02 09:34:43.529
40.0, 23901.5920640936, -7637.36756293387, -62703.281665239534, -28976.60034615998, -13902.762699456538, -38294.10383631037, -7284.612331940214, -29002.88599763942, -0.008, 0.908, 0.482, 192.0, 0.0, 0.0, 0.0, 0.0, 0.0, 0.0, 0.0, 0.0, 0.0, 1.6541552835296004E9, 0.0, 2022-06-02 09:34:43.529
41.0, 23912.767936321252, -7623.531833116035, -62691.30113021149, -28957.48960465069, -13880.478010234596, -38271.57327789942, -7251.017660023887, -28968.55371815607, -0.008, 0.908, 0.482, 192.0, 0.0, 0.0, 0.0, 0.0, 0.0, 0.0, 0.0, 0.0, 0.0, 1.6541552835296109E9, 0.0, 2022-06-02 09:34:43.529
42.0, 23910.622168853544, -7633.813635565476, -62704.779232118046, -28965.625639632424, -13884.143696325267, -38282.97266757163, -7251.375287935172, -28985.183416030817, -0.008, 0.908, 0.482, 192.0, 0.0, 0.0, 0.0, 0.0, 0.0, 0.0, 0.0, 0.0, 0.0, 1.6541552835296185E9, 0.0, 2022-06-02 09:34:43.529
43.0, 23900.87680827103, -7652.544397419024, -62727.22038355117, -28984.848139863985, -13906.249571591565, -38304.07271433744, -7280.253741771429, -29027.31645432907, -0.008, 0.908, 0.482, 192.0, 0.0, 0.0, 0.0, 0.0, 0.0, 0.0, 0.0, 0.0, 0.0, 1.6541552835296373E9, 0.0, 2022-06-02 09:34:43.529
44.0, 23893.143104689494, -7655.338365475937, -62732.249526053616, -28990.614889933455, -13912.75392922806, -38308.07367659493, -7285.305236018328, -29029.59633226351, -0.008, 0.908, 0.482, 192.0, 0.0, 0.0, 0.0, 0.0, 0.0, 0.0, 0.0, 0.0, 0.0, 1.6541552835296476E9, 0.0, 2022-06-02 09:34:43.529
45.0, 23897.322880902637, -7638.1275222453505, -62711.64121766582, -28970.900651323875, -13893.084394107389, -38286.772464129026, -7260.5171514173935, -28994.817017891055, -0.008, 0.908, 0.482, 192.0, 0.0, 0.0, 0.0, 0.0, 0.0, 0.0, 0.0, 0.0, 0.0, 1.654155283529657E9, 0.0, 2022-06-02 09:34:43.529
46.0, 23897.658157069465, -7638.529853645547, -62711.70827289919, -28969.693657123287, -13887.161181826734, -38284.269068750036, -7250.727087345968, -29000.78493366062, -0.008, 0.908, 0.482, 192.0, 0.0, 0.0, 0.0, 0.0, 0.0, 0.0, 0.0, 0.0, 0.0, 1.654155283529665E9, 0.0, 2022-06-02 09:34:43.529
47.0, 23898.909854758964, -7646.442371182725, -62722.43711023773, -28980.8918810954, -13893.75494644105, -38297.83657763441, -7253.833979825256, -29020.32035831456, -0.008, 0.908, 0.482, 192.0, 0.0, 0.0, 0.0, 0.0, 0.0, 0.0, 0.0, 0.0, 0.0, 1.6541552835296733E9, 0.0, 2022-06-02 09:34:43.529
48.0, 23895.512389601754, -7658.46760969968, -62734.99879062162, -28996.336936514013, -13902.673292478716, -38314.466275509156, -7276.67746265858, -29033.798460221107, -0.006, 0.902, 0.47800000000000004, 192.0, 255.0, 208.0, 28.0, 48.0, 14.0, 240.0, 0.0, 0.0, 0.0, 1.654155283529682E9, 0.0, 2022-06-02 09:34:43.529
49.0, 23887.421058108936, -7663.005013824108, -62740.09498835743, -28999.130904570928, -13912.999798417068, -38316.276766810035, -7293.195401811052, -29038.537030045634, -0.006, 0.902, 0.47800000000000004, 192.0, 0.0, 0.0, 0.0, 0.0, 0.0, 0.0, 0.0, 0.0, 0.0, 1.654155283529691E9, 0.0, 2022-06-02 09:34:43.529
50.0, 23898.10519195857, -7644.564824648479, -62720.47015672567, -28976.667401393344, -13896.124231353311, -38292.47215896513, -7274.174067279586, -29007.557512230578, -0.006, 0.902, 0.47800000000000004, 192.0, 0.0, 0.0, 0.0, 0.0, 0.0, 0.0, 0.0, 0.0, 0.0, 1.654155283529703E9, 0.0, 2022-06-02 09:34:43.529
51.0, 23902.82141003864, -7633.65717335429, -62709.54015368702, -28966.407950688357, -13881.193266057166, -38281.609211159855, -7255.5327124038595, -28978.097913038484, -0.006, 0.902, 0.47800000000000004, 192.0, 0.0, 0.0, 0.0, 0.0, 0.0, 0.0, 0.0, 0.0, 0.0, 1.654155283529716E9, 0.0, 2022-06-02 09:34:43.529
52.0, 23900.02744198173, -7640.966193791175, -62710.79185137652, -28971.97353505773, -13880.880341634793, -38289.924060097226, -7256.493837415438, -29000.40495400488, -0.006, 0.902, 0.47800000000000004, 192.0, 0.0, 0.0, 0.0, 0.0, 0.0, 0.0, 0.0, 0.0, 0.0, 1.6541552835297277E9, 0.0, 2022-06-02 09:34:43.529
53.0, 23890.237377910304, -7656.858284098898, -62727.51095622909, -28991.665421922855, -13905.199039602167, -38312.856949908375, -7275.4928202024485, -29030.244532852714, -0.006, 0.902, 0.47800000000000004, 192.0, 0.0, 0.0, 0.0, 0.0, 0.0, 0.0, 0.0, 0.0, 0.0, 1.6541552835297344E9, 0.0, 2022-06-02 09:34:43.529
54.0, 23886.951671475374, -7657.193560265728, -62730.88606964184, -28991.687773667312, -13915.726711240615, -38310.86764465185, -7289.2838465313735, -29026.31062582858, -0.006, 0.902, 0.47800000000000004, 192.0, 0.0, 0.0, 0.0, 0.0, 0.0, 0.0, 0.0, 0.0, 0.0, 1.6541552835297458E9, 0.0, 2022-06-02 09:34:43.529
55.0, 23894.037174467707, -7639.89331005732, -62713.27289501106, -28973.82872984752, -13895.65484471975, -38291.13105429782, -7265.05455554182, -29012.519599499657, -0.006, 0.902, 0.47800000000000004, 192.0, 0.0, 0.0, 0.0, 0.0, 0.0, 0.0, 0.0, 0.0, 0.0, 1.654155283529752E9, 0.0, 2022-06-02 09:34:43.529
56.0, 23896.473514613335, -7639.915661801775, -62711.10477579889, -28975.460407192757, -13886.1777050707, -38294.595574688385, -7249.274223956374, -29002.70718368378, -0.006, 0.902, 0.47800000000000004, 192.0, 0.0, 0.0, 0.0, 0.0, 0.0, 0.0, 0.0, 0.0, 0.0, 1.6541552835297592E9, 0.0, 2022-06-02 09:34:43.529
57.0, 23899.78157279272, -7645.213025237683, -62714.189316533724, -28983.17175902984, -13887.071774848911, -38301.926946869724, -7256.695003115536, -29010.597349476502, -0.006, 0.902, 0.47800000000000004, 192.0, 0.0, 0.0, 0.0, 0.0, 0.0, 0.0, 0.0, 0.0, 0.0, 1.6541552835297673E9, 0.0, 2022-06-02 09:34:43.529
58.0, 23892.427848866922, -7657.819409110476, -62726.90745912879, -28999.957919115775, -13903.545010512473, -38317.79668543299, -7278.577360937281, -29032.055024153597, -0.006, 0.902, 0.48, 192.0, 255.0, 208.0, 28.0, 48.0, 15.0, 0.0, 0.0, 0.0, 0.0, 1.654155283529775E9, 0.0, 2022-06-02 09:34:43.529
59.0, 23877.787456248698, -7667.363603992892, -62739.3573807904, -29014.12892510044, -13919.168879886733, -38330.537179772524, -7286.914561619111, -29052.998608708218, -0.006, 0.902, 0.48, 192.0, 0.0, 0.0, 0.0, 0.0, 0.0, 0.0, 0.0, 0.0, 0.0, 1.6541552835297832E9, 0.0, 2022-06-02 09:34:43.529
60.0, 23873.227700379815, -7661.75331613461, -62735.13290108835, -29012.139619843918, -13915.32437984042, -38333.10763038488, -7285.998140096443, -29047.477727827758, -0.006, 0.902, 0.48, 192.0, 0.0, 0.0, 0.0, 0.0, 0.0, 0.0, 0.0, 0.0, 0.0, 1.654155283529791E9, 0.0, 2022-06-02 09:34:43.529
61.0, 23901.346194904592, -7633.277193698549, -62705.69565364071, -28979.126093283427, -13883.98723411408, -38298.12715031233, -7263.624043896681, -28987.26212826516, -0.006, 0.902, 0.48, 192.0, 0.0, 0.0, 0.0, 0.0, 0.0, 0.0, 0.0, 0.0, 0.0, 1.6541552835297997E9, 0.0, 2022-06-02 09:34:43.529
62.0, 23911.806811309674, -7631.466702397669, -62704.95804607368, -28974.991020559195, -13877.684042177683, -38293.50033921008, -7247.1955117220305, -28999.510884226667, -0.006, 0.902, 0.48, 192.0, 0.0, 0.0, 0.0, 0.0, 0.0, 0.0, 0.0, 0.0, 0.0, 1.654155283529806E9, 0.0, 2022-06-02 09:34:43.529
63.0, 23906.57650310713, -7644.944804304219, -62722.88414512684, -28990.458427722268, -13891.631530717796, -38311.381734774324, -7258.214921738497, -29021.192076348318, -0.006, 0.902, 0.48, 192.0, 0.0, 0.0, 0.0, 0.0, 0.0, 0.0, 0.0, 0.0, 0.0, 1.654155283529812E9, 0.0, 2022-06-02 09:34:43.529
64.0, 23902.553189105176, -7645.905929315798, -62725.521650972565, -28992.090105067506, -13897.778260443005, -38313.16987433075, -7258.997232794432, -29009.233893064727, -0.006, 0.902, 0.48, 192.0, 0.0, 0.0, 0.0, 0.0, 0.0, 0.0, 0.0, 0.0, 0.0, 1.654155283529826E9, 0.0, 2022-06-02 09:34:43.529
65.0, 23899.06631697015, -7637.233452467139, -62714.904572356296, -28979.528424683624, -13892.905580151748, -38299.781179402016, -7258.8184188387895, -29004.897654640397, -0.006, 0.902, 0.48, 192.0, 0.0, 0.0, 0.0, 0.0, 0.0, 0.0, 0.0, 0.0, 0.0, 1.6541552835298316E9, 0.0, 2022-06-02 09:34:43.529
66.0, 23891.57848257762, -7640.541510646523, -62719.01729333607, -28981.45067470678, -13894.157277841245, -38297.680115423216, -7265.8592183422115, -29012.631358221934, -0.006, 0.902, 0.48, 192.0, 0.0, 0.0, 0.0, 0.0, 0.0, 0.0, 0.0, 0.0, 0.0, 1.6541552835298374E9, 0.0, 2022-06-02 09:34:43.529
67.0, 23894.417154123446, -7642.866092069876, -62724.94050561673, -28987.01625907615, -13895.252513319554, -38304.69856318219, -7277.526828947882, -29024.053099638597, -0.006, 0.902, 0.48, 192.0, 0.0, 0.0, 0.0, 0.0, 0.0, 0.0, 0.0, 0.0, 0.0, 1.6541552835298429E9, 0.0, 2022-06-02 09:34:43.529
68.0, 23885.34234587459, -7655.7406968761325, -62744.23006108166, -29009.233893064727, -13909.334112326398, -38327.8996739268, -7296.481108245982, -29047.544783061123, -0.004, 0.912, 0.482, 192.0, 255.0, 224.0, 28.0, 128.0, 15.0, 16.0, 0.0, 0.0, 0.0, 1.654155283529848E9, 0.0, 2022-06-02 09:34:43.529
69.0, 23878.569767304634, -7654.779571864555, -62739.13386334585, -29007.82573316404, -13909.915257682236, -38325.35157505889, -7274.442288213049, -29021.7508699597, -0.004, 0.912, 0.482, 192.0, 0.0, 0.0, 0.0, 0.0, 0.0, 0.0, 0.0, 0.0, 0.0, 1.6541552835298536E9, 0.0, 2022-06-02 09:34:43.529
70.0, 23877.295717870682, -7648.945766561719, -62720.02312183656, -28989.407895732867, -13897.800612187459, -38307.40312426128, -7246.5473111328265, -29004.6964889403, -0.004, 0.912, 0.482, 192.0, 0.0, 0.0, 0.0, 0.0, 0.0, 0.0, 0.0, 0.0, 0.0, 1.6541552835298598E9, 0.0, 2022-06-02 09:34:43.529
71.0, 23889.879749999018, -7635.042981510518, -62705.94152282972, -28972.152349013373, -13879.494533478563, -38294.327353754925, -7246.189683221542, -28996.292233025102, -0.004, 0.912, 0.482, 192.0, 0.0, 0.0, 0.0, 0.0, 0.0, 0.0, 0.0, 0.0, 0.0, 1.6541552835298653E9, 0.0, 2022-06-02 09:34:43.529
72.0, 23892.070220955637, -7642.866092069876, -62717.78794739103, -28979.282555494614, -13883.786068413981, -38304.00565910407, -7253.9457385475325, -29000.427305749337, -0.004, 0.912, 0.482, 192.0, 0.0, 0.0, 0.0, 0.0, 0.0, 0.0, 0.0, 0.0, 0.0, 1.6541552835298707E9, 0.0, 2022-06-02 09:34:43.529
73.0, 23886.996374964285, -7657.238263754638, -62730.99782836412, -28993.431209734823, -13898.47116452112, -38320.81417093446, -7263.288767729851, -29011.916102399362, -0.004, 0.912, 0.482, 192.0, 0.0, 0.0, 0.0, 0.0, 0.0, 0.0, 0.0, 0.0, 0.0, 1.6541552835298765E9, 0.0, 2022-06-02 09:34:43.529
74.0, 23883.420095851434, -7660.0769353004625, -62732.27187779807, -28995.956956858274, -13898.113536609833, -38321.68588896822, -7264.071078785787, -29021.84027693752, -0.004, 0.912, 0.482, 192.0, 0.0, 0.0, 0.0, 0.0, 0.0, 0.0, 0.0, 0.0, 0.0, 1.654155283529882E9, 0.0, 2022-06-02 09:34:43.529
75.0, 23882.235453395304, -7652.186769507739, -62719.01729333607, -28988.35736374347, -13891.050385361958, -38316.52263599904, -7261.210055495508, -29023.40489904939, -0.004, 0.912, 0.482, 192.0, 0.0, 0.0, 0.0, 0.0, 0.0, 0.0, 0.0, 0.0, 0.0, 1.65415528352989E9, 0.0, 2022-06-02 09:34:43.529
76.0, 23891.377316877522, -7642.866092069876, -62702.946389072706, -28981.16010202886, -13877.706393922139, -38308.654821950775, -7255.577415892771, -29009.345651787004, -0.004, 0.912, 0.482, 192.0, 0.0, 0.0, 0.0, 0.0, 0.0, 0.0, 0.0, 0.0, 0.0, 1.654155283529897E9, 0.0, 2022-06-02 09:34:43.529
77.0, 23886.504636586265, -7653.885502086342, -62717.74324390212, -28996.87337838094, -13883.428440502697, -38323.96576690266, -7263.5122851744045, -29017.146410601905, -0.004, 0.912, 0.482, 192.0, 0.0, 0.0, 0.0, 0.0, 0.0, 0.0, 0.0, 0.0, 0.0, 1.6541552835299044E9, 0.0, 2022-06-02 09:34:43.529
78.0, 23875.73109575881, -7666.84951387042, -62738.306848801, -29013.391317533413, -13900.482821522097, -38336.01335716407, -7285.975788351988, -29039.431099823847, -0.004, 0.904, 0.47800000000000004, 192.0, 255.0, 224.0, 28.0, 64.0, 14.0, 240.0, 0.0, 0.0, 0.0, 1.654155283529912E9, 0.0, 2022-06-02 09:34:43.529
79.0, 23871.23839512329, -7669.576426693968, -62741.16787209128, -29015.537085001124, -13908.104766381357, -38335.65572925279, -7290.714358176513, -29040.45928006879, -0.004, 0.904, 0.47800000000000004, 192.0, 0.0, 0.0, 0.0, 0.0, 0.0, 0.0, 0.0, 0.0, 0.0, 1.6541552835299203E9, 0.0, 2022-06-02 09:34:43.529
80.0, 23880.179092905415, -7658.1993887662165, -62723.84527013842, -29000.516712727156, -13892.525600496007, -38317.90844415527, -7267.58030266527, -29022.443774037813, -0.004, 0.904, 0.47800000000000004, 192.0, 0.0, 0.0, 0.0, 0.0, 0.0, 0.0, 0.0, 0.0, 0.0, 1.6541552835299268E9, 0.0, 2022-06-02 09:34:43.529
81.0, 23883.97888946282, -7652.052659041007, -62715.73158690114, -28993.45356147928, -13881.483838735085, -38313.77337143104, -7260.67361362858, -29019.91802691436, -0.004, 0.904, 0.47800000000000004, 192.0, 0.0, 0.0, 0.0, 0.0, 0.0, 0.0, 0.0, 0.0, 0.0, 1.654155283529933E9, 0.0, 2022-06-02 09:34:43.529
82.0, 23884.984717963307, -7656.947691076719, -62724.56052596099, -29004.048288351096, -13884.054289347445, -38322.06586862396, -7268.027337554377, -29008.965672131264, -0.004, 0.904, 0.47800000000000004, 192.0, 0.0, 0.0, 0.0, 0.0, 0.0, 0.0, 0.0, 0.0, 0.0, 1.6541552835299387E9, 0.0, 2022-06-02 09:34:43.529
83.0, 23885.02942145222, -7664.927263847264, -62737.23396506715, -29016.565265246067, -13896.101879608856, -38333.71112748517, -7283.561799950815, -29039.185230634837, -0.004, 0.904, 0.47800000000000004, 192.0, 0.0, 0.0, 0.0, 0.0, 0.0, 0.0, 0.0, 0.0, 0.0, 1.654155283529944E9, 0.0, 2022-06-02 09:34:43.529
84.0, 23882.280156884215, -7666.022499325574, -62737.0104476226, -29017.41463153537, -13903.32149306792, -38333.3982030628, -7275.358709735717, -29027.584675262533, -0.004, 0.904, 0.47800000000000004, 192.0, 0.0, 0.0, 0.0, 0.0, 0.0, 0.0, 0.0, 0.0, 0.0, 1.6541552835299494E9, 0.0, 2022-06-02 09:34:43.529
85.0, 23880.7378865168, -7657.841760854932, -62727.30979052899, -29008.049250608594, -13901.108670366844, -38325.95507215918, -7271.827134111779, -29030.89273344192, -0.004, 0.904, 0.47800000000000004, 192.0, 0.0, 0.0, 0.0, 0.0, 0.0, 0.0, 0.0, 0.0, 0.0, 1.6541552835299547E9, 0.0, 2022-06-02 09:34:43.529
86.0, 23890.617357566043, -7645.3471357044145, -62714.971627589664, -28991.486607967214, -13883.495495736062, -38310.6441272073, -7262.461753185004, -29015.626491978943, -0.004, 0.904, 0.47800000000000004, 192.0, 0.0, 0.0, 0.0, 0.0, 0.0, 0.0, 0.0, 0.0, 0.0, 1.6541552835299647E9, 0.0, 2022-06-02 09:34:43.529
87.0, 23891.802000022173, -7652.164417763283, -62724.91815387228, -28997.610985947966, -13889.306949294443, -38317.461409266165, -7270.620139911192, -29024.097803127504, -0.004, 0.904, 0.47800000000000004, 192.0, 0.0, 0.0, 0.0, 0.0, 0.0, 0.0, 0.0, 0.0, 0.0, 1.6541552835299697E9, 0.0, 2022-06-02 09:34:43.529
88.0, 23884.24711039628, -7662.200351023716, -62738.820938923476, -29009.993852376207, -13901.108670366844, -38329.7995722055, -7272.117706789698, -29045.287256871135, -0.004, 0.906, 0.47800000000000004, 192.0, 255.0, 224.0, 28.0, 80.0, 14.0, 240.0, 0.0, 0.0, 0.0, 1.6541552835299754E9, 0.0, 2022-06-02 09:34:43.529
89.0, 23874.457046324856, -7667.631824926356, -62741.21257558019, -29015.335919301026, -13909.624685004317, -38331.4983047841, -7277.795049881345, -29041.107480657993, -0.004, 0.906, 0.47800000000000004, 192.0, 0.0, 0.0, 0.0, 0.0, 0.0, 0.0, 0.0, 0.0, 0.0, 1.6541552835299823E9, 0.0, 2022-06-02 09:34:43.529
90.0, 23879.352078360567, -7655.695993387222, -62726.54983121751, -28998.750924915188, -13900.661635477738, -38313.21457781966, -7273.905846346122, -29023.22608509375, -0.004, 0.906, 0.47800000000000004, 192.0, 0.0, 0.0, 0.0, 0.0, 0.0, 0.0, 0.0, 0.0, 0.0, 1.6541552835299883E9, 0.0, 2022-06-02 09:34:43.529
91.0, 23887.577520320123, -7646.777647349554, -62718.41379623578, -28985.429285219823, -13882.869646891315, -38297.63541193431, -7252.045840268832, -28989.184378288315, -0.004, 0.906, 0.47800000000000004, 192.0, 0.0, 0.0, 0.0, 0.0, 0.0, 0.0, 0.0, 0.0, 0.0, 1.6541552835299957E9, 0.0, 2022-06-02 09:34:43.529
92.0, 23887.041078453196, -7654.734868375644, -62726.28161028405, -28993.20769229027, -13883.026109102502, -38308.5430632285, -7260.047764783832, -29010.373832031946, -0.004, 0.906, 0.47800000000000004, 192.0, 0.0, 0.0, 0.0, 0.0, 0.0, 0.0, 0.0, 0.0, 0.0, 1.654155283530001E9, 0.0, 2022-06-02 09:34:43.530
93.0, 23880.134389416504, -7671.364566250392, -62745.12413085987, -29010.239721565216, -13900.393414544274, -38329.17372336075, -7277.0127388254095, -29048.729425517253, -0.004, 0.906, 0.47800000000000004, 192.0, 0.0, 0.0, 0.0, 0.0, 0.0, 0.0, 0.0, 0.0, 0.0, 1.6541552835300078E9, 0.0, 2022-06-02 09:34:43.530
94.0, 23866.365714832034, -7682.048700100029, -62753.841311197444, -29021.92968391534, -13914.318551339931, -38341.82481072245, -7274.643453913147, -29043.521469059167, -0.004, 0.906, 0.47800000000000004, 192.0, 0.0, 0.0, 0.0, 0.0, 0.0, 0.0, 0.0, 0.0, 0.0, 1.654155283530013E9, 0.0, 2022-06-02 09:34:43.530
95.0, 23873.67473526892, -7667.6541766708115, -62728.382674262844, -29003.176570317337, -13903.209734345644, -38323.65284248029, -7268.429668954572, -29011.6478814659, -0.004, 0.906, 0.47800000000000004, 192.0, 0.0, 0.0, 0.0, 0.0, 0.0, 0.0, 0.0, 0.0, 0.0, 1.6541552835300207E9, 0.0, 2022-06-02 09:34:43.530
96.0, 23882.928357473418, -7658.0876300439395, -62718.01146483558, -28987.01625907615, -13892.994987129568, -38310.68883069621, -7269.6143114107035, -29007.624567463943, -0.004, 0.906, 0.47800000000000004, 192.0, 0.0, 0.0, 0.0, 0.0, 0.0, 0.0, 0.0, 0.0, 0.0, 1.654155283530027E9, 0.0, 2022-06-02 09:34:43.530
97.0, 23883.084819684605, -7663.541455691035, -62724.67228468326, -28991.866587622953, -13894.134926096789, -38318.936624400216, -7282.757137150424, -29025.5506665171, -0.004, 0.906, 0.47800000000000004, 192.0, 0.0, 0.0, 0.0, 0.0, 0.0, 0.0, 0.0, 0.0, 0.0, 1.654155283530033E9, 0.0, 2022-06-02 09:34:43.530
98.0, 23880.983755705805, -7670.09051681644, -62729.4555579967, -29003.757715673175, -13898.135888354289, -38330.80540070598, -7275.693985902547, -29037.17357363386, -0.008, 0.91, 0.48, 192.0, 255.0, 192.0, 28.0, 112.0, 15.0, 0.0, 0.0, 0.0, 0.0, 1.6541552835300388E9, 0.0, 2022-06-02 09:34:43.530
99.0, 23870.456084067355, -7680.305264032515, -62738.530366245555, -29017.28052106864, -13915.257324607055, -38339.99196767712, -7286.422823241094, -29049.042349939627, -0.008, 0.91, 0.48, 192.0, 0.0, 0.0, 0.0, 0.0, 0.0, 0.0, 0.0, 0.0, 0.0, 1.6541552835300443E9, 0.0, 2022-06-02 09:34:43.530
100.0, 23874.702915513866, -7662.334461490448, -62716.290380512524, -29000.36025051597, -13900.281655821998, -38322.51290351307, -7267.468543942994, -29028.679910740844, -0.008, 0.91, 0.48, 192.0, 0.0, 0.0, 0.0, 0.0, 0.0, 0.0, 0.0, 0.0, 0.0, 1.6541552835300508E9, 0.0, 2022-06-02 09:34:43.530
101.0, 23882.816598751142, -7648.431676439247, -62700.06301403797, -28989.430247477325, -13880.925045123702, -38309.571243473445, -7254.43747692555, -29010.93262564333, -0.008, 0.91, 0.48, 192.0, 0.0, 0.0, 0.0, 0.0, 0.0, 0.0, 0.0, 0.0, 0.0, 1.6541552835300565E9, 0.0, 2022-06-02 09:34:43.530
102.0, 23886.147008674983, -7652.454990441202, -62707.26027575258, -28997.096895825496, -13883.316681780421, -38310.822941162936, -7262.729974118469, -29008.20571281978, -0.008, 0.91, 0.48, 192.0, 0.0, 0.0, 0.0, 0.0, 0.0, 0.0, 0.0, 0.0, 0.0, 1.654155283530062E9, 0.0, 2022-06-02 09:34:43.530
103.0, 23879.01680219374, -7666.514237703591, -62725.23107829465, -29012.474896010746, -13904.170859357222, -38324.83748493642, -7277.146849292141, -29025.12598337245, -0.008, 0.91, 0.48, 192.0, 0.0, 0.0, 0.0, 0.0, 0.0, 0.0, 0.0, 0.0, 0.0, 1.654155283530071E9, 0.0, 2022-06-02 09:34:43.530
104.0, 23879.642651038488, -7662.669737657277, -62721.833613137445, -29010.373832031946, -13906.1825163582, -38326.267996581555, -7283.114765061709, -29032.88203869844, -0.008, 0.91, 0.48, 192.0, 0.0, 0.0, 0.0, 0.0, 0.0, 0.0, 0.0, 0.0, 0.0, 1.6541552835300765E9, 0.0, 2022-06-02 09:34:43.530
105.0, 23885.81173250815, -7646.9341095607415, -62704.66747339576, -28993.78883764611, -13893.710242952138, -38306.285537038515, -7263.065250285298, -29020.02978563664, -0.008, 0.91, 0.48, 192.0, 0.0, 0.0, 0.0, 0.0, 0.0, 0.0, 0.0, 0.0, 0.0, 1.6541552840096965E9, 0.0, 2022-06-02 09:34:44.009
106.0, 23896.16059019096, -7632.293716942516, -62694.58683664642, -28982.36709622945, -13879.338071267375, -38294.21559503265, -7251.218825723985, -29003.377736017435, -0.008, 0.91, 0.48, 192.0, 0.0, 0.0, 0.0, 0.0, 0.0, 0.0, 0.0, 0.0, 0.0, 1.6541552840097876E9, 0.0, 2022-06-02 09:34:44.009
107.0, 23894.841837268097, -7637.769894334066, -62709.98718857613, -28994.21352079076, -13887.98819637158, -38304.65385969327, -7258.10316301622, -29005.210579062772, -0.008, 0.904, 0.482, 192.0, 255.0, 192.0, 28.0, 64.0, 15.0, 16.0, 0.0, 0.0, 0.0, 1.6541552840099034E9, 0.0, 2022-06-02 09:34:44.009
108.0, 23887.756334275764, -7658.579368421957, -62731.60132546441, -29011.580826232534, -13905.020225646524, -38321.64118547931, -7262.729974118469, -29030.155125874895, -0.008, 0.904, 0.482, 192.0, 0.0, 0.0, 0.0, 0.0, 0.0, 0.0, 0.0, 0.0, 0.0, 1.6541552840099213E9, 0.0, 2022-06-02 09:34:44.009
109.0, 23875.77579924772, -7668.458839471203, -62739.022104623575, -29014.441849522813, -13915.078510651412, -38327.184418104225, -7287.003968596932, -29033.217314865273, -0.008, 0.904, 0.482, 192.0, 0.0, 0.0, 0.0, 0.0, 0.0, 0.0, 0.0, 0.0, 0.0, 1.654155284009936E9, 0.0, 2022-06-02 09:34:44.009
110.0, 23883.688316784897, -7650.935071818241, -62722.45946198219, -28993.185340545817, -13900.482821522097, -38307.91721438375, -7279.873762115689, -29017.973425146753, -0.008, 0.904, 0.482, 192.0, 0.0, 0.0, 0.0, 0.0, 0.0, 0.0, 0.0, 0.0, 0.0, 1.6541552840099506E9, 0.0, 2022-06-02 09:34:44.009
111.0, 23888.49394184279, -7643.447237425714, -62716.089214812426, -28983.954070085776, -13888.189362071678, -38295.377885744325, -7253.297537958329, -29004.629433706934, -0.008, 0.904, 0.482, 192.0, 0.0, 0.0, 0.0, 0.0, 0.0, 0.0, 0.0, 0.0, 0.0, 1.6541552840099647E9, 0.0, 2022-06-02 09:34:44.009
112.0, 23885.610566808056, -7654.712516631189, -62728.65089519631, -28993.20769229027, -13890.871571406315, -38302.016353847546, -7248.424857667072, -29012.31843379956, -0.008, 0.904, 0.482, 192.0, 0.0, 0.0, 0.0, 0.0, 0.0, 0.0, 0.0, 0.0, 0.0, 1.6541552840099788E9, 0.0, 2022-06-02 09:34:44.009
113.0, 23879.463837082843, -7667.229493526161, -62742.5089767586, -29006.84225640801, -13904.439080290686, -38319.36130754487, -7271.737727133957, -29031.675044497853, -0.008, 0.904, 0.482, 192.0, 0.0, 0.0, 0.0, 0.0, 0.0, 0.0, 0.0, 0.0, 0.0, 1.6541552840099933E9, 0.0, 2022-06-02 09:34:44.009
114.0, 23865.87397645402, -7674.002072096118, -62746.46523552719, -29015.067698367562, -13916.777243230015, -38325.999775648095, -7290.334378520773, -29041.599219036012, -0.008, 0.904, 0.482, 192.0, 0.0, 0.0, 0.0, 0.0, 0.0, 0.0, 0.0, 0.0, 0.0, 1.6541552840100076E9, 0.0, 2022-06-02 09:34:44.010
115.0, 23866.54452878768, -7661.239226012138, -62730.10375858591, -28999.22031154875, -13903.477955279108, -38309.34772602889, -7267.982634065465, -29026.69060548432, -0.008, 0.904, 0.482, 192.0, 0.0, 0.0, 0.0, 0.0, 0.0, 0.0, 0.0, 0.0, 0.0, 1.6541552840100217E9, 0.0, 2022-06-02 09:34:44.010
116.0, 23871.081932912104, -7654.46664744218, -62722.61592419338, -28990.994869589194, -13890.871571406315, -38298.641240434794, -7250.034183267854, -28993.967651601753, -0.008, 0.904, 0.482, 192.0, 0.0, 0.0, 0.0, 0.0, 0.0, 0.0, 0.0, 0.0, 0.0, 1.6541552840100355E9, 0.0, 2022-06-02 09:34:44.010
117.0, 23874.68056376941, -7656.433600954248, -62728.85206089641, -28994.392334746404, -13889.686928950183, -38301.792836402994, -7266.082735786765, -29009.63622446492, -0.016, 0.898, 0.482, 192.0, 255.0, 128.0, 28.0, 16.0, 15.0, 16.0, 0.0, 0.0, 0.0, 1.65415528401005E9, 0.0, 2022-06-02 09:34:44.010
118.0, 23869.62906952251, -7675.410231996803, -62745.63822098234, -29013.79364893361, -13903.679120979205, -38320.03185987852, -7286.7580994079235, -29034.401957321403, -0.016, 0.898, 0.482, 192.0, 0.0, 0.0, 0.0, 0.0, 0.0, 0.0, 0.0, 0.0, 0.0, 1.6541552840100644E9, 0.0, 2022-06-02 09:34:44.010
119.0, 23863.01295316374, -7682.160458822305, -62748.85687218391, -29019.582750747533, -13911.278714094009, -38325.61979599235, -7293.7988989113455, -29044.66140802639, -0.016, 0.898, 0.482, 192.0, 0.0, 0.0, 0.0, 0.0, 0.0, 0.0, 0.0, 0.0, 0.0, 1.6541552840100784E9, 0.0, 2022-06-02 09:34:44.010
120.0, 23868.243261366282, -7666.558941192501, -62728.65089519631, -28998.92973887083, -13894.716071452627, -38312.27580455253, -7261.76884910689, -29027.629378751444, -0.016, 0.898, 0.482, 192.0, 0.0, 0.0, 0.0, 0.0, 0.0, 0.0, 0.0, 0.0, 0.0, 1.6541552840100927E9, 0.0, 2022-06-02 09:34:44.010
121.0, 23871.126636401015, -7659.495789944624, -62721.2524677816, -28993.118285312452, -13884.948359125658, -38310.86764465185, -7253.34224144724, -29017.191114090816, -0.016, 0.898, 0.482, 192.0, 0.0, 0.0, 0.0, 0.0, 0.0, 0.0, 0.0, 0.0, 0.0, 1.6541552840101073E9, 0.0, 2022-06-02 09:34:44.010
122.0, 23881.363735361545, -7659.1381620333395, -62726.05809283949, -28996.336936514013, -13886.89296089327, -38314.91331039826, -7280.521962704893, -29013.614834977965, -0.016, 0.898, 0.482, 192.0, 0.0, 0.0, 0.0, 0.0, 0.0, 0.0, 0.0, 0.0, 0.0, 1.6541552840101216E9, 0.0, 2022-06-02 09:34:44.010
123.0, 23875.999316692272, -7674.113830818395, -62744.58768899294, -29015.40297453439, -13903.902638423759, -38329.53135127203, -7307.165242095619, -29021.482649026235, -0.016, 0.898, 0.482, 192.0, 0.0, 0.0, 0.0, 0.0, 0.0, 0.0, 0.0, 0.0, 0.0, 1.654155284010136E9, 0.0, 2022-06-02 09:34:44.010
124.0, 23864.599927020066, -7681.04287159954, -62746.17466284927, -29020.722689714756, -13912.798632716971, -38330.2466070946, -7277.280959758874, -29037.531201545145, -0.016, 0.898, 0.482, 192.0, 0.0, 0.0, 0.0, 0.0, 0.0, 0.0, 0.0, 0.0, 0.0, 1.654155284010151E9, 0.0, 2022-06-02 09:34:44.010
125.0, 23867.95268868836, -7666.938920848242, -62726.79570040652, -29004.31650928456, -13898.448812776664, -38312.78989467501, -7262.662918885103, -29027.98700666273, -0.016, 0.898, 0.482, 192.0, 0.0, 0.0, 0.0, 0.0, 0.0, 0.0, 0.0, 0.0, 0.0, 1.654155284010166E9, 0.0, 2022-06-02 09:34:44.010
126.0, 23881.63195629501, -7649.906891573298, -62706.96970307466, -28989.765523644153, -13872.543140952963, -38299.80353114647, -7249.162465234097, -29025.26009383918, -0.016, 0.898, 0.482, 192.0, 0.0, 0.0, 0.0, 0.0, 0.0, 0.0, 0.0, 0.0, 0.0, 1.6541552840101814E9, 0.0, 2022-06-02 09:34:44.010
127.0, 23887.421058108936, -7654.600757908912, -62712.803508377496, -28998.639166192912, -13870.978518841091, -38306.77727541653, -7255.264491470396, -29021.259131581683, -0.01, 0.904, 0.484, 192.0, 255.0, 176.0, 28.0, 64.0, 15.0, 32.0, 0.0, 0.0, 0.0, 1.654155284010196E9, 0.0, 2022-06-02 09:34:44.010
128.0, 23872.020706179228, -7676.304301775015, -62735.17760457726, -29022.756698460187, -13892.994987129568, -38324.77042970305, -7275.269302757896, -29016.811134435076, -0.01, 0.904, 0.484, 192.0, 0.0, 0.0, 0.0, 0.0, 0.0, 0.0, 0.0, 0.0, 0.0, 1.6541552840102184E9, 0.0, 2022-06-02 09:34:44.010
129.0, 23873.607680035555, -7673.532685462557, -62729.41085450779, -29016.475858268244, -13892.860876662837, -38317.50611275508, -7267.245026498441, -29025.282445583638, -0.01, 0.904, 0.484, 192.0, 0.0, 0.0, 0.0, 0.0, 0.0, 0.0, 0.0, 0.0, 0.0, 1.6541552840102339E9, 0.0, 2022-06-02 09:34:44.010
130.0, 23876.5357585592, -7662.535627190546, -62716.24567702362, -29001.70135518329, -13878.913388122724, -38304.3409352709, -7267.021509053888, -29027.383509562434, -0.01, 0.904, 0.484, 192.0, 0.0, 0.0, 0.0, 0.0, 0.0, 0.0, 0.0, 0.0, 0.0, 1.6541552840102496E9, 0.0, 2022-06-02 09:34:44.010
131.0, 23869.472607311323, -7665.5978161809235, -62719.08434856944, -29003.154218572883, -13877.058193332934, -38302.351630014375, -7270.240160255452, -29017.057003624082, -0.01, 0.904, 0.484, 192.0, 0.0, 0.0, 0.0, 0.0, 0.0, 0.0, 0.0, 0.0, 0.0, 1.654155284010265E9, 0.0, 2022-06-02 09:34:44.010
132.0, 23872.266575368238, -7669.107040060407, -62726.66158993979, -29007.892788397407, -13877.616986944317, -38307.604289961375, -7262.729974118469, -29022.98021590474, -0.01, 0.904, 0.484, 192.0, 0.0, 0.0, 0.0, 0.0, 0.0, 0.0, 0.0, 0.0, 0.0, 1.6541552840102825E9, 0.0, 2022-06-02 09:34:44.010
133.0, 23870.05375266716, -7681.713423933199, -62746.84521518293, -29024.053099638597, -13890.960978384135, -38323.541083758006, -7274.10701204622, -29026.869419439965, -0.01, 0.904, 0.484, 192.0, 0.0, 0.0, 0.0, 0.0, 0.0, 0.0, 0.0, 0.0, 0.0, 1.6541552840103E9, 0.0, 2022-06-02 09:34:44.010
134.0, 23860.10722638455, -7690.922342648786, -62760.94916593423, -29033.776108476653, -13905.333150068898, -38334.47108679666, -7284.724090662491, -29030.46805029727, -0.01, 0.904, 0.484, 192.0, 0.0, 0.0, 0.0, 0.0, 0.0, 0.0, 0.0, 0.0, 0.0, 1.6541552840103157E9, 0.0, 2022-06-02 09:34:44.010
135.0, 23862.632973508, -7678.427717498269, -62744.14065410384, -29015.425326278848, -13894.447850519164, -38315.40504877628, -7268.407317210116, -29025.5506665171, -0.01, 0.904, 0.484, 192.0, 0.0, 0.0, 0.0, 0.0, 0.0, 0.0, 0.0, 0.0, 0.0, 1.6541552840103323E9, 0.0, 2022-06-02 09:34:44.010
136.0, 23867.39389507698, -7670.716365661188, -62727.779177162556, -29003.578901717534, -13884.36721376982, -38301.70342942517, -7253.632814125159, -29009.390355275915, -0.01, 0.904, 0.484, 192.0, 0.0, 0.0, 0.0, 0.0, 0.0, 0.0, 0.0, 0.0, 0.0, 1.6541552840103478E9, 0.0, 2022-06-02 09:34:44.010
137.0, 23877.25101438177, -7666.491885959135, -62723.286476527035, -28997.678041181334, -13872.945472353158, -38297.83657763441, -7252.895206558133, -29019.13571585843, -0.006, 0.908, 0.484, 192.0, 255.0, 208.0, 28.0, 96.0, 15.0, 32.0, 0.0, 0.0, 0.0, 1.6541552840103629E9, 0.0, 2022-06-02 09:34:44.010
138.0, 23865.404589820457, -7688.307188547515, -62749.2592035841, -29023.78487870513, -13893.21850457412, -38325.642147736806, -7273.123535290187, -29048.41650109488, -0.006, 0.908, 0.484, 192.0, 0.0, 0.0, 0.0, 0.0, 0.0, 0.0, 0.0, 0.0, 0.0, 1.6541552840103767E9, 0.0, 2022-06-02 09:34:44.010
139.0, 23865.91867994293, -7685.893200146342, -62749.37096230638, -29024.83541069453, -13898.60527498785, -38325.239816336616, -7275.649282413636, -29032.300893342603, -0.006, 0.908, 0.484, 192.0, 0.0, 0.0, 0.0, 0.0, 0.0, 0.0, 0.0, 0.0, 0.0, 1.6541552840103927E9, 0.0, 2022-06-02 09:34:44.010
140.0, 23869.271441611225, -7670.515199961091, -62730.03670335254, -29003.6459569509, -13883.920178880713, -38303.424513748236, -7251.621157124181, -29009.435058764826, -0.006, 0.908, 0.484, 192.0, 0.0, 0.0, 0.0, 0.0, 0.0, 0.0, 0.0, 0.0, 0.0, 1.654155284010419E9, 0.0, 2022-06-02 09:34:44.010
141.0, 23875.39581959198, -7660.568673678479, -62716.156270045794, -28989.899634110887, -13870.84440837436, -38288.739417641096, -7241.361706419195, -29007.17753257484, -0.006, 0.908, 0.484, 192.0, 0.0, 0.0, 0.0, 0.0, 0.0, 0.0, 0.0, 0.0, 0.0, 1.6541552840104575E9, 0.0, 2022-06-02 09:34:44.010
142.0, 23872.132464901504, -7672.258636028605, -62732.94243013173, -29003.48949473971, -13883.763716669526, -38302.12811256982, -7270.955416078022, -28997.633337692423, -0.006, 0.908, 0.484, 192.0, 0.0, 0.0, 0.0, 0.0, 0.0, 0.0, 0.0, 0.0, 0.0, 1.6541552840104873E9, 0.0, 2022-06-02 09:34:44.010
143.0, 23864.465816553333, -7691.592894982446, -62753.68484898625, -29023.98604440523, -13904.12615586831, -38327.40793554878, -7292.413090755116, -29035.296027099615, -0.006, 0.908, 0.484, 192.0, 0.0, 0.0, 0.0, 0.0, 0.0, 0.0, 0.0, 0.0, 0.0, 1.6541552840105112E9, 0.0, 2022-06-02 09:34:44.010
144.0, 23864.68933399789, -7689.827107170476, -62751.33791581845, -29022.77905020464, -13904.774356457516, -38330.760697217076, -7272.184762023064, -29048.55061156161, -0.006, 0.908, 0.484, 192.0, 0.0, 0.0, 0.0, 0.0, 0.0, 0.0, 0.0, 0.0, 0.0, 1.6541552840105386E9, 0.0, 2022-06-02 09:34:44.010
145.0, 23874.121770158028, -7666.46953421468, -62731.668380697774, -28999.689698182312, -13892.123269095811, -38303.33510677041, -7273.771735879391, -29022.46612578227, -0.006, 0.908, 0.484, 192.0, 0.0, 0.0, 0.0, 0.0, 0.0, 0.0, 0.0, 0.0, 0.0, 1.6541552840105653E9, 0.0, 2022-06-02 09:34:44.010
146.0, 23890.416191865945, -7648.319917716971, -62710.09894729841, -28980.847177606487, -13868.162199039722, -38284.313772238944, -7256.7620583489015, -29009.390355275915, -0.006, 0.908, 0.484, 192.0, 0.0, 0.0, 0.0, 0.0, 0.0, 0.0, 0.0, 0.0, 0.0, 1.654155284010589E9, 0.0, 2022-06-02 09:34:44.010
147.0, 23889.835046510107, -7659.764010878088, -62721.27481952606, -28997.610985947966, -13873.705431664639, -38298.35066775688, -7237.092523228232, -29007.73632618622, -0.008, 0.904, 0.482, 192.0, 255.0, 192.0, 28.0, 64.0, 15.0, 16.0, 0.0, 0.0, 0.0, 1.654155284010609E9, 0.0, 2022-06-02 09:34:44.010
148.0, 23884.045944696183, -7675.94667386373, -62739.156215090305, -29019.091012369518, -13894.447850519164, -38319.696583711695, -7263.221712496485, -29020.946207159308, -0.008, 0.904, 0.482, 192.0, 0.0, 0.0, 0.0, 0.0, 0.0, 0.0, 0.0, 0.0, 0.0, 1.6541552840106347E9, 0.0, 2022-06-02 09:34:44.010
