%OpenBCI Raw EEG Data
%Number of channels = 8
%Sample Rate = 250 Hz
%Board = OpenBCI_GUI$BoardCytonSerial
Sample Index, EXG Channel 0, EXG Channel 1, EXG Channel 2, EXG Channel 3, EXG Channel 4, EXG Channel 5, EXG Channel 6, EXG Channel 7, Accel Channel 0, Accel Channel 1, Accel Channel 2, Other, Other, Other, Other, Other, Other, Other, Analog Channel 0, Analog Channel 1, Analog Channel 2, Timestamp, Other, Timestamp (Formatted)
0.0, 0.0, 0.0, 0.0, 0.0, 0.0, 0.0, 0.0, 0.0, 0.0, 0.0, 0.0, 192.0, 0.0, 0.0, 0.0, 0.0, 0.0, 0.0, 0.0, 0.0, 0.0, 1.6541571877181544E9, 0.0, 2022-06-02 10:06:27.718
1.0, 24831.58109564556, 8987.502335012237, -68858.68386729764, -51306.93183027886, -40748.59359843655, -43228.69845970851, -13090.992044328696, -46005.99211525823, 0.006, 0.776, 0.634, 192.0, 0.0, 48.0, 24.0, 64.0, 19.0, 208.0, 0.0, 0.0, 0.0, 1.6541571882014391E9, 0.0, 2022-06-02 10:06:28.201
2.0, 24827.647188621428, 8987.032948378677, -68881.03561175294, -51315.559603638605, -40763.166935821406, -43238.98026215795, -13122.329190055036, -46038.08922029605, 0.006, 0.776, 0.634, 192.0, 0.0, 0.0, 0.0, 0.0, 0.0, 0.0, 0.0, 0.0, 0.0, 1.6541571882015307E9, 0.0, 2022-06-02 10:06:28.201
3.0, 24836.565534659094, 8987.703500712336, -68885.43890541064, -51323.606231642516, -40768.50900274623, -43254.51472455439, -13128.051236635594, -46041.15140928643, 0.006, 0.776, 0.634, 192.0, 0.0, 0.0, 0.0, 0.0, 0.0, 0.0, 0.0, 0.0, 0.0, 1.6541571882015376E9, 0.0, 2022-06-02 10:06:28.201
4.0, 24849.417787720897, 8995.63836999397, -68866.3058121569, -51311.80451057012, -40765.200944566845, -43246.71396573949, -13124.363198800469, -46012.07178975008, 0.006, 0.776, 0.634, 192.0, 0.0, 0.0, 0.0, 0.0, 0.0, 0.0, 0.0, 0.0, 0.0, 1.6541571882015438E9, 0.0, 2022-06-02 10:06:28.201
5.0, 24834.64328463594, 8987.34587280105, -68860.94139348762, -51309.122301235475, -40750.85112462653, -43242.26596859288, -13087.371061726935, -45988.28953364963, 0.006, 0.776, 0.634, 192.0, 0.0, 0.0, 0.0, 0.0, 0.0, 0.0, 0.0, 0.0, 0.0, 1.6541571882015502E9, 0.0, 2022-06-02 10:06:28.201
6.0, 24825.859049065002, 8985.53538150017, -68860.51671034297, -51310.955144280815, -40751.23110428228, -43251.22901811946, -13099.128079310427, -46021.97361254378, 0.006, 0.776, 0.634, 192.0, 0.0, 0.0, 0.0, 0.0, 0.0, 0.0, 0.0, 0.0, 0.0, 1.6541571882015564E9, 0.0, 2022-06-02 10:06:28.201
7.0, 24833.860973580002, 8988.39640479045, -68873.23485293804, -51316.52072865018, -40756.43906074036, -43256.74989899992, -13112.203849816782, -46048.169857045395, 0.006, 0.776, 0.634, 192.0, 0.0, 0.0, 0.0, 0.0, 0.0, 0.0, 0.0, 0.0, 0.0, 1.6541571882015626E9, 0.0, 2022-06-02 10:06:28.201
8.0, 24835.716168369792, 8987.032948378677, -68881.52735013096, -51322.33218220856, -40771.19121208086, -43263.25425663641, -13124.810233689575, -46034.69175513885, 0.008, 0.784, 0.63, 192.0, 0.0, 64.0, 24.0, 128.0, 19.0, 176.0, 0.0, 0.0, 0.0, 1.6541571882015688E9, 0.0, 2022-06-02 10:06:28.201
9.0, 24831.826964834567, 8988.351701301539, -68864.38356213373, -51312.22919371477, -40751.61108393801, -43250.89374195263, -13077.089259277494, -45997.49845236522, 0.008, 0.784, 0.63, 192.0, 0.0, 0.0, 0.0, 0.0, 0.0, 0.0, 0.0, 0.0, 0.0, 1.6541571882015753E9, 0.0, 2022-06-02 10:06:28.201
10.0, 24828.67536886637, 8988.8210879351, -68855.68873354062, -51304.160213966396, -40744.54793269014, -43238.06384063528, -13065.309889949547, -45990.43530111734, 0.008, 0.784, 0.63, 192.0, 0.0, 0.0, 0.0, 0.0, 0.0, 0.0, 0.0, 0.0, 0.0, 1.6541571882015817E9, 0.0, 2022-06-02 10:06:28.201
11.0, 24832.318703212586, 8986.87648616749, -68857.6556870527, -51302.32737092106, -40745.08437455707, -43235.67220397857, -13080.374965712424, -46001.477062878264, 0.008, 0.784, 0.63, 192.0, 0.0, 0.0, 0.0, 0.0, 0.0, 0.0, 0.0, 0.0, 0.0, 1.654157188201589E9, 0.0, 2022-06-02 10:06:28.201
12.0, 24834.285656724653, 8984.373090788495, -68870.39618139222, -51310.48575764725, -40750.42644148188, -43244.07645989376, -13102.011454345162, -46025.39342944544, 0.008, 0.784, 0.63, 192.0, 0.0, 0.0, 0.0, 0.0, 0.0, 0.0, 0.0, 0.0, 0.0, 1.6541571882015953E9, 0.0, 2022-06-02 10:06:28.201
13.0, 24844.410996962906, 8991.749166458747, -68863.98123073355, -51308.74232157974, -40750.806421137626, -43243.51766628238, -13097.362291498459, -46015.15633048491, 0.008, 0.784, 0.63, 192.0, 0.0, 0.0, 0.0, 0.0, 0.0, 0.0, 0.0, 0.0, 0.0, 1.6541571882016013E9, 0.0, 2022-06-02 10:06:28.201
14.0, 24827.714243854793, 8973.666605194403, -68867.26693716848, -51314.59847862703, -40754.47210722829, -43256.95106470002, -13095.68591066431, -46014.21755721779, 0.008, 0.784, 0.63, 192.0, 0.0, 0.0, 0.0, 0.0, 0.0, 0.0, 0.0, 0.0, 0.0, 1.6541571882016072E9, 0.0, 2022-06-02 10:06:28.201
15.0, 24827.9601130438, 8979.321596541595, -68853.18533816164, -51298.34876040802, -40742.80449662262, -43241.528361025856, -13086.611102415456, -46001.23119368925, 0.008, 0.784, 0.63, 192.0, 0.0, 0.0, 0.0, 0.0, 0.0, 0.0, 0.0, 0.0, 0.0, 1.6541571882016134E9, 0.0, 2022-06-02 10:06:28.201
16.0, 24817.074813494066, 8971.185561559863, -68861.29902139891, -51298.41581564138, -40749.174743792384, -43239.11437262468, -13084.688852392299, -46004.338086168544, 0.008, 0.784, 0.63, 192.0, 0.0, 0.0, 0.0, 0.0, 0.0, 0.0, 0.0, 0.0, 0.0, 1.6541571882016196E9, 0.0, 2022-06-02 10:06:28.201
17.0, 24816.940703027332, 8971.073802837587, -68875.02299249447, -51299.24283018623, -40751.566380449105, -43237.14741911262, -13087.035785560107, -46016.072752007574, 0.008, 0.784, 0.63, 192.0, 0.0, 0.0, 0.0, 0.0, 0.0, 0.0, 0.0, 0.0, 0.0, 1.6541571882016256E9, 0.0, 2022-06-02 10:06:28.201
18.0, 24823.53446764165, 8977.756974429723, -68878.44280939613, -51303.91434477739, -40753.44392698335, -43244.50114303841, -13100.379776999926, -46021.10189451002, 0.006, 0.79, 0.624, 192.0, 0.0, 48.0, 24.0, 176.0, 19.0, 128.0, 0.0, 0.0, 0.0, 1.6541571882016327E9, 0.0, 2022-06-02 10:06:28.201
19.0, 24827.44602292133, 8977.645215707447, -68875.73824831704, -51307.244754701234, -40757.221371796295, -43244.679956994056, -13105.028939846628, -46008.85313854851, 0.006, 0.79, 0.624, 192.0, 0.0, 0.0, 0.0, 0.0, 0.0, 0.0, 0.0, 0.0, 0.0, 1.6541571882016387E9, 0.0, 2022-06-02 10:06:28.201
20.0, 24828.898886310923, 8985.0212913777, -68864.62943132276, -51298.505222619206, -40751.90165661593, -43226.955023641, -13106.727672425232, -45985.741434781725, 0.006, 0.79, 0.624, 192.0, 0.0, 0.0, 0.0, 0.0, 0.0, 0.0, 0.0, 0.0, 0.0, 1.6541571882016451E9, 0.0, 2022-06-02 10:06:28.201
21.0, 24831.022302034176, 8990.050433880144, -68863.69065805562, -51295.62184758447, -40749.08533681457, -43220.36125902668, -13105.654788691378, -45990.30119065061, 0.006, 0.79, 0.624, 192.0, 0.0, 0.0, 0.0, 0.0, 0.0, 0.0, 0.0, 0.0, 0.0, 1.6541571882016513E9, 0.0, 2022-06-02 10:06:28.201
22.0, 24826.216676976288, 8991.168021102909, -68876.36409716179, -51306.97653376777, -40752.25928452722, -43230.41954403157, -13103.956056112775, -46011.91532753889, 0.006, 0.79, 0.624, 192.0, 0.0, 0.0, 0.0, 0.0, 0.0, 0.0, 0.0, 0.0, 0.0, 1.6541571882016656E9, 0.0, 2022-06-02 10:06:28.201
23.0, 24831.268171223186, 8990.788041447167, -68874.39714364972, -51317.303039706116, -40752.97454034979, -43238.51087552439, -13083.906541336364, -45994.92800175286, 0.006, 0.79, 0.624, 192.0, 0.0, 0.0, 0.0, 0.0, 0.0, 0.0, 0.0, 0.0, 0.0, 1.6541571882016716E9, 0.0, 2022-06-02 10:06:28.201
24.0, 24836.945514314833, 8991.615055992015, -68863.57889933336, -51316.8113013281, -40745.64316816845, -43235.024003389364, -13076.105782521461, -45980.68994053482, 0.006, 0.79, 0.624, 192.0, 0.0, 0.0, 0.0, 0.0, 0.0, 0.0, 0.0, 0.0, 0.0, 1.6541571882016773E9, 0.0, 2022-06-02 10:06:28.201
25.0, 24839.135985271452, 8992.129146114487, -68845.58574504683, -51304.60724885551, -40732.612101151004, -43228.18436958604, -13072.551855153068, -45984.17681266985, 0.006, 0.79, 0.624, 192.0, 0.0, 0.0, 0.0, 0.0, 0.0, 0.0, 0.0, 0.0, 0.0, 1.6541571882016833E9, 0.0, 2022-06-02 10:06:28.201
26.0, 24839.873592838478, 8995.30309382714, -68845.76455900248, -51297.789966796634, -40731.04747903913, -43221.03181136034, -13067.857988817454, -45977.694806777814, 0.006, 0.79, 0.624, 192.0, 0.0, 0.0, 0.0, 0.0, 0.0, 0.0, 0.0, 0.0, 0.0, 1.6541571882016892E9, 0.0, 2022-06-02 10:06:28.201
27.0, 24832.653979379415, 8984.641311721958, -68874.93358551664, -51316.744246094735, -40753.28746477216, -43243.56236977129, -13097.317588009548, -46016.69860085232, 0.008, 0.796, 0.626, 192.0, 0.0, 64.0, 24.0, 224.0, 19.0, 144.0, 0.0, 0.0, 0.0, 1.654157188201695E9, 0.0, 2022-06-02 10:06:28.201
28.0, 24836.00674104771, 8982.763765187712, -68884.92481528816, -51330.82584510158, -40769.246610313254, -43266.78583226035, -13125.301972067593, -46039.430324963374, 0.008, 0.796, 0.626, 192.0, 0.0, 0.0, 0.0, 0.0, 0.0, 0.0, 0.0, 0.0, 0.0, 1.6541571882017012E9, 0.0, 2022-06-02 10:06:28.201
29.0, 24834.933857313856, 8985.289512311163, -68872.72076281557, -51323.65093513142, -40755.85791538452, -43258.20276238951, -13099.262189777159, -46017.19033923034, 0.008, 0.796, 0.626, 192.0, 0.0, 0.0, 0.0, 0.0, 0.0, 0.0, 0.0, 0.0, 0.0, 1.654157188201707E9, 0.0, 2022-06-02 10:06:28.201
30.0, 24823.065081008088, 8975.477096495282, -68871.89374827073, -51322.37688569747, -40745.53140944617, -43249.73145124096, -13074.585863898501, -45994.95035349731, 0.008, 0.796, 0.626, 192.0, 0.0, 0.0, 0.0, 0.0, 0.0, 0.0, 0.0, 0.0, 0.0, 1.6541571882017124E9, 0.0, 2022-06-02 10:06:28.201
31.0, 24833.63745613545, 8983.523724499193, -68859.42147486466, -51309.81520531359, -40733.528522673674, -43233.57113999977, -13068.886169062396, -45985.78613827064, 0.008, 0.796, 0.626, 192.0, 0.0, 0.0, 0.0, 0.0, 0.0, 0.0, 0.0, 0.0, 0.0, 1.654157188201718E9, 0.0, 2022-06-02 10:06:28.201
32.0, 24838.130156770963, 8982.182619831876, -68874.1065709718, -51319.471158918284, -40740.39050822145, -43243.964701171484, -13084.465334947747, -46021.59363288804, 0.008, 0.796, 0.626, 192.0, 0.0, 0.0, 0.0, 0.0, 0.0, 0.0, 0.0, 0.0, 0.0, 1.6541571882017238E9, 0.0, 2022-06-02 10:06:28.201
33.0, 24831.469336923285, 8979.321596541595, -68886.42238216667, -51327.69660087784, -40748.705357158826, -43263.120146169684, -13092.623721673934, -46040.10087729703, 0.008, 0.796, 0.626, 192.0, 0.0, 0.0, 0.0, 0.0, 0.0, 0.0, 0.0, 0.0, 0.0, 1.6541571882017295E9, 0.0, 2022-06-02 10:06:28.201
34.0, 24829.52473515567, 8980.439183764362, -68878.62162335178, -51320.47698741877, -40741.95513033332, -43243.91999768258, -13075.68109937681, -45981.42754810185, 0.008, 0.796, 0.626, 192.0, 0.0, 0.0, 0.0, 0.0, 0.0, 0.0, 0.0, 0.0, 0.0, 1.6541571882017353E9, 0.0, 2022-06-02 10:06:28.201
35.0, 24826.23902872074, 8980.72975644228, -68867.06577146838, -51311.93862103685, -40734.31083372961, -43232.34179405472, -13072.507151664156, -45973.157402653385, 0.008, 0.796, 0.626, 192.0, 0.0, 0.0, 0.0, 0.0, 0.0, 0.0, 0.0, 0.0, 0.0, 1.6541571882017407E9, 0.0, 2022-06-02 10:06:28.201
36.0, 24843.49457544024, 9001.695692741358, -68851.64306779421, -51290.10096670401, -40726.24185398124, -43214.88508163513, -13084.465334947747, -45983.05922544709, 0.008, 0.796, 0.626, 192.0, 0.0, 0.0, 0.0, 0.0, 0.0, 0.0, 0.0, 0.0, 0.0, 1.6541571882017467E9, 0.0, 2022-06-02 10:06:28.201
37.0, 24845.461528952306, 8999.460518295828, -68870.48558837004, -51297.23117318525, -40743.25153151173, -43218.90839563709, -13102.50319272318, -45997.87843202096, 0.008, 0.798, 0.632, 192.0, 0.0, 64.0, 24.0, 240.0, 19.0, 192.0, 0.0, 0.0, 0.0, 1.6541571882017522E9, 0.0, 2022-06-02 10:06:28.201
38.0, 24839.448909693827, 8983.59077973256, -68888.97048103459, -51315.82782457207, -40762.56343872112, -43247.36216632869, -13109.052253848584, -46015.42455141837, 0.008, 0.798, 0.632, 192.0, 0.0, 0.0, 0.0, 0.0, 0.0, 0.0, 0.0, 0.0, 0.0, 1.654157188201758E9, 0.0, 2022-06-02 10:06:28.201
39.0, 24846.243840008243, 8991.883276925479, -68875.38062040575, -51305.32250467807, -40758.9201043749, -43250.22318961897, -13119.579925487033, -46028.96970855829, 0.008, 0.798, 0.632, 192.0, 0.0, 0.0, 0.0, 0.0, 0.0, 0.0, 0.0, 0.0, 0.0, 1.6541571882017636E9, 0.0, 2022-06-02 10:06:28.201
40.0, 24841.81819460609, 8988.418756534906, -68872.94428026013, -51300.807452298104, -40749.465316470305, -43244.8587709497, -13098.144602554394, -46011.35653392751, 0.008, 0.798, 0.632, 192.0, 0.0, 0.0, 0.0, 0.0, 0.0, 0.0, 0.0, 0.0, 0.0, 1.654157188201769E9, 0.0, 2022-06-02 10:06:28.201
41.0, 24848.613124920503, 8993.313788570618, -68868.27276566897, -51297.611152841, -40744.45852571232, -43235.53809351184, -13081.87253259093, -45993.363379640985, 0.008, 0.798, 0.632, 192.0, 0.0, 0.0, 0.0, 0.0, 0.0, 0.0, 0.0, 0.0, 0.0, 1.6541571882017748E9, 0.0, 2022-06-02 10:06:28.201
42.0, 24840.544145172138, 8995.25839033823, -68883.1590274762, -51313.27972570417, -40760.21650555331, -43249.82085821877, -13115.489556251712, -46026.712182368305, 0.008, 0.798, 0.632, 192.0, 0.0, 0.0, 0.0, 0.0, 0.0, 0.0, 0.0, 0.0, 0.0, 1.6541571882017806E9, 0.0, 2022-06-02 10:06:28.201
43.0, 24826.64136012094, 8984.350739044039, -68901.73332711856, -51340.370039983995, -40783.41761629792, -43274.67599805308, -13155.186254404338, -46058.96574961731, 0.008, 0.798, 0.632, 192.0, 0.0, 0.0, 0.0, 0.0, 0.0, 0.0, 0.0, 0.0, 0.0, 1.6541571882017884E9, 0.0, 2022-06-02 10:06:28.201
44.0, 24836.96786605929, 8994.341968815563, -68877.01229775099, -51325.77435085468, -40765.64797945595, -43257.42045133358, -13116.920067896852, -46027.09216202404, 0.008, 0.798, 0.632, 192.0, 0.0, 0.0, 0.0, 0.0, 0.0, 0.0, 0.0, 0.0, 0.0, 1.654157188201794E9, 0.0, 2022-06-02 10:06:28.201
45.0, 24844.09807254053, 9001.181602618886, -68854.0570561954, -51304.227269199764, -40742.69273790035, -43235.67220397857, -13070.406087685358, -45986.00965571519, 0.008, 0.798, 0.632, 192.0, 0.0, 0.0, 0.0, 0.0, 0.0, 0.0, 0.0, 0.0, 0.0, 1.6541571882017999E9, 0.0, 2022-06-02 10:06:28.201
46.0, 24845.43917720785, 9002.58976251957, -68856.82867250785, -51301.94739126533, -40738.08827854256, -43237.46034353499, -13070.763715596642, -46001.09708322252, 0.008, 0.798, 0.632, 192.0, 0.0, 0.0, 0.0, 0.0, 0.0, 0.0, 0.0, 0.0, 0.0, 1.6541571882018054E9, 0.0, 2022-06-02 10:06:28.201
47.0, 24839.359502716008, 8994.431375793383, -68867.11047495728, -51311.82686231457, -40731.3156999726, -43243.070631393275, -13051.608270598445, -46012.71999033928, 0.006, 0.788, 0.628, 192.0, 0.0, 48.0, 24.0, 160.0, 19.0, 160.0, 0.0, 0.0, 0.0, 1.6541571882018113E9, 0.0, 2022-06-02 10:06:28.201
48.0, 24836.654941636916, 8985.513029755715, -68876.98994600654, -51327.69660087784, -40749.91235135941, -43252.503067553414, -13073.781201098109, -46009.68015309336, 0.006, 0.788, 0.628, 192.0, 0.0, 0.0, 0.0, 0.0, 0.0, 0.0, 0.0, 0.0, 0.0, 1.6541571882018168E9, 0.0, 2022-06-02 10:06:28.201
49.0, 24850.40126447693, 8993.984340904277, -68863.86947201127, -51309.4575774023, -40739.87641809898, -43241.036622647836, -13084.621797158934, -45993.363379640985, 0.006, 0.788, 0.628, 192.0, 0.0, 0.0, 0.0, 0.0, 0.0, 0.0, 0.0, 0.0, 0.0, 1.6541571882018225E9, 0.0, 2022-06-02 10:06:28.201
50.0, 24841.795842861637, 8988.083480368075, -68849.87727998225, -51294.14663245042, -40728.58878714905, -43216.136779324625, -13052.904671776852, -45950.06805063105, 0.006, 0.788, 0.628, 192.0, 0.0, 0.0, 0.0, 0.0, 0.0, 0.0, 0.0, 0.0, 0.0, 1.6541571882018282E9, 0.0, 2022-06-02 10:06:28.201
51.0, 24826.39549093193, 8983.210800076818, -68852.35832361679, -51293.52078360567, -40729.95224356082, -43211.822892644755, -13059.185511968793, -45956.21478035626, 0.006, 0.788, 0.628, 192.0, 0.0, 0.0, 0.0, 0.0, 0.0, 0.0, 0.0, 0.0, 0.0, 1.654157188201834E9, 0.0, 2022-06-02 10:06:28.201
52.0, 24824.115612997488, 8982.830820421079, -68876.31939367288, -51305.635429100446, -40745.4643542128, -43226.217416073974, -13102.011454345162, -46000.068902977575, 0.006, 0.788, 0.628, 192.0, 0.0, 0.0, 0.0, 0.0, 0.0, 0.0, 0.0, 0.0, 0.0, 1.6541571882018402E9, 0.0, 2022-06-02 10:06:28.201
53.0, 24828.38479618845, 8978.53928548566, -68888.88107405676, -51317.39244668394, -40759.054214841635, -43243.338852326735, -13125.88311742343, -46016.34097294104, 0.006, 0.788, 0.628, 192.0, 0.0, 0.0, 0.0, 0.0, 0.0, 0.0, 0.0, 0.0, 0.0, 1.654157188201846E9, 0.0, 2022-06-02 10:06:28.201
54.0, 24829.032996777656, 8983.501372754738, -68871.93845175963, -51308.54115587964, -40742.7150896448, -43233.615843488675, -13088.779221627621, -45987.61898131597, 0.006, 0.788, 0.628, 192.0, 0.0, 0.0, 0.0, 0.0, 0.0, 0.0, 0.0, 0.0, 0.0, 1.6541571882018516E9, 0.0, 2022-06-02 10:06:28.201
55.0, 24832.475165423773, 8985.513029755715, -68861.52253884346, -51301.83563254304, -40732.09801102853, -43227.6032242302, -13091.550837940078, -45988.62480981646, 0.006, 0.788, 0.628, 192.0, 0.0, 0.0, 0.0, 0.0, 0.0, 0.0, 0.0, 0.0, 0.0, 1.654157188201857E9, 0.0, 2022-06-02 10:06:28.201
56.0, 24828.85418282201, 8984.596608233049, -68867.19988193511, -51306.77536806767, -40731.87449358398, -43234.50991326689, -13087.192247771294, -46002.594650101026, 0.006, 0.788, 0.628, 192.0, 0.0, 0.0, 0.0, 0.0, 0.0, 0.0, 0.0, 0.0, 0.0, 1.6541571882018633E9, 0.0, 2022-06-02 10:06:28.201
57.0, 24842.68991263985, 8994.096099626553, -68870.82086453687, -51305.568373867085, -40734.93668257436, -43229.74899169791, -13075.837561587998, -46007.623792603474, 0.01, 0.796, 0.628, 192.0, 0.0, 80.0, 24.0, 224.0, 19.0, 160.0, 0.0, 0.0, 0.0, 1.6541571882018692E9, 0.0, 2022-06-02 10:06:28.201
58.0, 24841.102938783522, 8981.266198309208, -68885.97534727756, -51326.176682254874, -40756.97550260729, -43250.402003574614, -13096.267056020148, -46020.96778404329, 0.01, 0.796, 0.628, 192.0, 0.0, 0.0, 0.0, 0.0, 0.0, 0.0, 0.0, 0.0, 0.0, 1.6541571882018747E9, 0.0, 2022-06-02 10:06:28.201
59.0, 24844.25453475172, 8982.272026809696, -68869.90444301421, -51316.744246094735, -40743.92208384539, -43244.814067460786, -13071.747192352675, -45991.21761217328, 0.01, 0.796, 0.628, 192.0, 0.0, 0.0, 0.0, 0.0, 0.0, 0.0, 0.0, 0.0, 0.0, 1.6541571882018807E9, 0.0, 2022-06-02 10:06:28.201
60.0, 24853.10582555602, 8984.864829166512, -68858.16977717516, -51301.25448718721, -40736.97069131979, -43228.251424819406, -13059.945471280274, -45971.838649730526, 0.01, 0.796, 0.628, 192.0, 0.0, 0.0, 0.0, 0.0, 0.0, 0.0, 0.0, 0.0, 0.0, 1.6541571882018867E9, 0.0, 2022-06-02 10:06:28.201
61.0, 24845.05919755211, 8978.941616885855, -68867.24458542402, -51301.098024976025, -40751.02993858218, -43235.11341036719, -13089.762698383654, -46001.14178671143, 0.01, 0.796, 0.628, 192.0, 0.0, 0.0, 0.0, 0.0, 0.0, 0.0, 0.0, 0.0, 0.0, 1.6541571882018924E9, 0.0, 2022-06-02 10:06:28.201
62.0, 24834.01743579119, 8979.500410497238, -68882.33201293135, -51304.31667617759, -40763.68102594388, -43239.02496564686, -13118.194117330804, -46018.86672006449, 0.01, 0.796, 0.628, 192.0, 0.0, 0.0, 0.0, 0.0, 0.0, 0.0, 0.0, 0.0, 0.0, 1.654157188201898E9, 0.0, 2022-06-02 10:06:28.201
63.0, 24832.855145079513, 8980.573294231093, -68891.47387641357, -51314.53142339366, -40770.00656962473, -43249.46323030749, -13126.21839359026, -46019.69373460934, 0.01, 0.796, 0.628, 192.0, 0.0, 0.0, 0.0, 0.0, 0.0, 0.0, 0.0, 0.0, 0.0, 1.6541571882019036E9, 0.0, 2022-06-02 10:06:28.201
64.0, 24835.29148522514, 8983.456669265828, -68878.9568995186, -51309.70344659132, -40759.54595321965, -43244.523494782865, -13098.25636127667, -45999.89008902194, 0.01, 0.796, 0.628, 192.0, 0.0, 0.0, 0.0, 0.0, 0.0, 0.0, 0.0, 0.0, 0.0, 1.6541571882019145E9, 0.0, 2022-06-02 10:06:28.201
65.0, 24834.44211893584, 8981.467364009306, -68861.96957373257, -51305.34485642253, -40745.73257514627, -43236.141590612126, -13066.002794027663, -45980.57818181255, 0.01, 0.796, 0.628, 192.0, 0.0, 0.0, 0.0, 0.0, 0.0, 0.0, 0.0, 0.0, 0.0, 1.6541571882019205E9, 0.0, 2022-06-02 10:06:28.201
66.0, 24846.95909583081, 8993.157326359431, -68846.47981482504, -51287.68697830284, -40726.130095258966, -43218.37195377016, -13050.043648486573, -45975.48198407674, 0.01, 0.796, 0.628, 192.0, 0.0, 0.0, 0.0, 0.0, 0.0, 0.0, 0.0, 0.0, 0.0, 1.654157188201926E9, 0.0, 2022-06-02 10:06:28.201
67.0, 24845.841508608046, 8992.285608325674, -68864.31650690037, -51296.42651038486, -40733.72968837377, -43224.116352095174, -13077.49159067769, -45997.11847270947, 0.008, 0.796, 0.63, 192.0, 0.0, 64.0, 24.0, 224.0, 19.0, 176.0, 0.0, 0.0, 0.0, 1.6541571882019317E9, 0.0, 2022-06-02 10:06:28.201
68.0, 24852.368217988995, 8990.58687574707, -68870.44088488113, -51305.88129828946, -40745.03967106815, -43233.772305699866, -13086.87932334892, -45998.43722563234, 0.008, 0.796, 0.63, 192.0, 0.0, 0.0, 0.0, 0.0, 0.0, 0.0, 0.0, 0.0, 0.0, 1.6541571882019374E9, 0.0, 2022-06-02 10:06:28.201
69.0, 24849.909526098912, 8990.609227491526, -68864.003582478, -51302.75205406571, -40745.53140944617, -43226.619747474164, -13089.941512339296, -45989.518879594674, 0.008, 0.796, 0.63, 192.0, 0.0, 0.0, 0.0, 0.0, 0.0, 0.0, 0.0, 0.0, 0.0, 1.6541571882019432E9, 0.0, 2022-06-02 10:06:28.201
70.0, 24846.132081285967, 8984.216628577307, -68860.56141383188, -51302.08150173206, -40737.305967486616, -43220.473017748955, -13077.20101799977, -45982.72394928026, 0.008, 0.796, 0.63, 192.0, 0.0, 0.0, 0.0, 0.0, 0.0, 0.0, 0.0, 0.0, 0.0, 1.654157188201949E9, 0.0, 2022-06-02 10:06:28.201
71.0, 24841.14764227243, 8974.895951139444, -68864.92000400067, -51309.904612291415, -40739.07175529859, -43226.23976781843, -13076.195189499282, -46000.091254722036, 0.008, 0.796, 0.63, 192.0, 0.0, 0.0, 0.0, 0.0, 0.0, 0.0, 0.0, 0.0, 0.0, 1.6541571882019544E9, 0.0, 2022-06-02 10:06:28.201
72.0, 24835.20207824732, 8981.48971575376, -68877.43698089564, -51312.94444953733, -40744.68204315687, -43230.79952368731, -13095.39533798639, -46036.05521155062, 0.008, 0.796, 0.63, 192.0, 0.0, 0.0, 0.0, 0.0, 0.0, 0.0, 0.0, 0.0, 0.0, 1.65415718820196E9, 0.0, 2022-06-02 10:06:28.201
73.0, 24845.036845807655, 8990.832744936079, -68873.65953608269, -51310.97749602527, -40741.17281927739, -43228.34083179723, -13096.982311842718, -46022.375943943975, 0.008, 0.796, 0.63, 192.0, 0.0, 0.0, 0.0, 0.0, 0.0, 0.0, 0.0, 0.0, 0.0, 1.654157188201966E9, 0.0, 2022-06-02 10:06:28.201
74.0, 24837.05727303711, 8979.008672119222, -68872.07256222637, -51319.91819380739, -40742.67038615589, -43233.16880859957, -13095.529448453122, -45998.92896401036, 0.008, 0.796, 0.63, 192.0, 0.0, 0.0, 0.0, 0.0, 0.0, 0.0, 0.0, 0.0, 0.0, 1.6541571882019715E9, 0.0, 2022-06-02 10:06:28.201
75.0, 24830.821136334078, 8974.359509272517, -68861.56724233237, -51316.83365307256, -40735.696641885836, -43229.10079110871, -13083.884189591909, -45984.89206849242, 0.008, 0.796, 0.63, 192.0, 0.0, 0.0, 0.0, 0.0, 0.0, 0.0, 0.0, 0.0, 0.0, 1.6541571882019775E9, 0.0, 2022-06-02 10:06:28.201
76.0, 24832.564572401592, 8980.886218653468, -68854.92877422915, -51303.71317907729, -40724.69958361382, -43216.87438689165, -13084.845314603486, -45987.417815615874, 0.008, 0.796, 0.63, 192.0, 0.0, 0.0, 0.0, 0.0, 0.0, 0.0, 0.0, 0.0, 0.0, 1.6541571882019832E9, 0.0, 2022-06-02 10:06:28.201
77.0, 24819.086470495044, 8964.748259156735, -68887.89759730072, -51325.26026073221, -40755.410880495416, -43243.56236977129, -13141.909318197886, -46040.614967419504, 0.012, 0.794, 0.636, 192.0, 0.0, 96.0, 24.0, 208.0, 19.0, 224.0, 0.0, 0.0, 0.0, 1.654157188201989E9, 0.0, 2022-06-02 10:06:28.201
78.0, 24821.187534473844, 8964.368279500995, -68896.34655670483, -51331.65285964643, -40766.83262191208, -43256.59343678873, -13128.83354769153, -46026.980403301764, 0.012, 0.794, 0.636, 192.0, 0.0, 0.0, 0.0, 0.0, 0.0, 0.0, 0.0, 0.0, 0.0, 1.654157188201995E9, 0.0, 2022-06-02 10:06:28.201
79.0, 24832.698682868326, 8977.622863962992, -68871.55847210389, -51311.82686231457, -40741.66455765541, -43242.24361684843, -13055.452770644757, -45987.686036549334, 0.012, 0.794, 0.636, 192.0, 0.0, 0.0, 0.0, 0.0, 0.0, 0.0, 0.0, 0.0, 0.0, 1.6541571882020009E9, 0.0, 2022-06-02 10:06:28.202
80.0, 24831.871668323478, 8984.708366955325, -68861.74605628802, -51301.299190676116, -40738.33414773156, -43230.26308182038, -13068.975576040219, -45986.63550455994, 0.012, 0.794, 0.636, 192.0, 0.0, 0.0, 0.0, 0.0, 0.0, 0.0, 0.0, 0.0, 0.0, 1.6541571882020066E9, 0.0, 2022-06-02 10:06:28.202
81.0, 24830.575267145072, 8986.25063732274, -68860.6061173208, -51292.425548127365, -40738.78118262067, -43222.9540613835, -13076.530465666112, -45983.997998714214, 0.012, 0.794, 0.636, 192.0, 0.0, 0.0, 0.0, 0.0, 0.0, 0.0, 0.0, 0.0, 0.0, 1.6541571882020123E9, 0.0, 2022-06-02 10:06:28.202
82.0, 24828.29538921063, 8982.741413443258, -68877.36992566228, -51298.59462959703, -40746.470182713296, -43229.771343442364, -13074.943491809785, -45998.258411676696, 0.012, 0.794, 0.636, 192.0, 0.0, 0.0, 0.0, 0.0, 0.0, 0.0, 0.0, 0.0, 0.0, 1.6541571882020187E9, 0.0, 2022-06-02 10:06:28.202
83.0, 24815.554894871104, 8973.308977283117, -68895.765411349, -51315.000810027224, -40770.00656962473, -43255.76642224388, -13107.01824510315, -46032.031897548666, 0.012, 0.794, 0.636, 192.0, 0.0, 0.0, 0.0, 0.0, 0.0, 0.0, 0.0, 0.0, 0.0, 1.6541571882020247E9, 0.0, 2022-06-02 10:06:28.202
84.0, 24828.72007235528, 8986.340044300561, -68874.06186748289, -51296.24769642922, -40761.289389287165, -43246.40104131711, -13109.655750948878, -46014.73164734026, 0.012, 0.794, 0.636, 192.0, 0.0, 0.0, 0.0, 0.0, 0.0, 0.0, 0.0, 0.0, 0.0, 1.6541571882020304E9, 0.0, 2022-06-02 10:06:28.202
85.0, 24834.956209058313, 8989.849268180045, -68860.71787604307, -51282.34491137802, -40744.4138222234, -43236.499218523415, -13099.351596754981, -46011.602403116514, 0.012, 0.794, 0.636, 192.0, 0.0, 0.0, 0.0, 0.0, 0.0, 0.0, 0.0, 0.0, 0.0, 1.6541571882020361E9, 0.0, 2022-06-02 10:06:28.202
86.0, 24838.331322471062, 8990.229247835785, -68855.91225098517, -51279.32742587655, -40732.768563362195, -43231.02304113186, -13087.102840793472, -46010.95420252731, 0.012, 0.794, 0.636, 192.0, 0.0, 0.0, 0.0, 0.0, 0.0, 0.0, 0.0, 0.0, 0.0, 1.654157188202044E9, 0.0, 2022-06-02 10:06:28.202
87.0, 24840.96882831679, 8989.379881546483, -68864.31650690037, -51282.23315265574, -40742.625682666985, -43223.1552270836, -13079.749116867677, -45993.40808312989, 0.012, 0.798, 0.634, 192.0, 0.0, 96.0, 24.0, 240.0, 19.0, 208.0, 0.0, 0.0, 0.0, 1.6541571882020495E9, 0.0, 2022-06-02 10:06:28.202
88.0, 24839.471261438284, 8994.364320560016, -68865.97053599007, -51292.269085916174, -40745.911389101915, -43228.20672133049, -13085.560570426056, -45989.96591448378, 0.012, 0.798, 0.634, 192.0, 0.0, 0.0, 0.0, 0.0, 0.0, 0.0, 0.0, 0.0, 0.0, 1.6541571882020557E9, 0.0, 2022-06-02 10:06:28.202
89.0, 24840.745310872237, 8995.057224638133, -68859.3097161424, -51295.37597839547, -40739.02705180968, -43231.76064869889, -13069.936701051796, -45988.87067900547, 0.012, 0.798, 0.634, 192.0, 0.0, 0.0, 0.0, 0.0, 0.0, 0.0, 0.0, 0.0, 0.0, 1.6541571882020614E9, 0.0, 2022-06-02 10:06:28.202
90.0, 24843.53927892915, 8999.371111318005, -68844.08817816833, -51284.311864890085, -40727.15827550391, -43210.5488432108, -13062.270052703627, -45958.74052747971, 0.012, 0.798, 0.634, 192.0, 0.0, 0.0, 0.0, 0.0, 0.0, 0.0, 0.0, 0.0, 0.0, 1.6541571882020671E9, 0.0, 2022-06-02 10:06:28.202
91.0, 24850.960058088313, 9004.199088120353, -68836.98032343153, -51273.471268829264, -40719.80455157811, -43194.79086336981, -13071.456619674758, -45960.34985308049, 0.012, 0.798, 0.634, 192.0, 0.0, 0.0, 0.0, 0.0, 0.0, 0.0, 0.0, 0.0, 0.0, 1.6541571882020729E9, 0.0, 2022-06-02 10:06:28.202
92.0, 24833.324531713075, 8988.709329212825, -68861.27666965446, -51291.19620218232, -40737.2165605088, -43211.08528507773, -13094.054233319073, -45999.91244076639, 0.012, 0.798, 0.634, 192.0, 0.0, 0.0, 0.0, 0.0, 0.0, 0.0, 0.0, 0.0, 0.0, 1.6541571882020788E9, 0.0, 2022-06-02 10:06:28.202
93.0, 24828.38479618845, 8982.741413443258, -68877.81696055138, -51308.8093768131, -40750.60525543753, -43229.34666029771, -13100.625646188933, -46014.93281304036, 0.012, 0.798, 0.634, 192.0, 0.0, 0.0, 0.0, 0.0, 0.0, 0.0, 0.0, 0.0, 0.0, 1.6541571882020845E9, 0.0, 2022-06-02 10:06:28.202
94.0, 24834.889153824945, 8985.177753588887, -68872.78781804894, -51309.8599088025, -40750.649958926435, -43233.39232604412, -13119.98225688723, -46021.77244684368, 0.012, 0.798, 0.634, 192.0, 0.0, 0.0, 0.0, 0.0, 0.0, 0.0, 0.0, 0.0, 0.0, 1.6541571882020931E9, 0.0, 2022-06-02 10:06:28.202
95.0, 24838.621895148983, 8985.043643122155, -68858.34859113081, -51300.58393485355, -40738.87058959849, -43226.575043985256, -13098.815154888052, -46005.34391466903, 0.012, 0.798, 0.634, 192.0, 0.0, 0.0, 0.0, 0.0, 0.0, 0.0, 0.0, 0.0, 0.0, 1.6541571882020996E9, 0.0, 2022-06-02 10:06:28.202
96.0, 24842.667560895392, 8985.53538150017, -68847.17271890315, -51291.1067952045, -40714.88716779795, -43215.68974443552, -13038.577203581, -45983.84153650302, 0.012, 0.798, 0.634, 192.0, 0.0, 0.0, 0.0, 0.0, 0.0, 0.0, 0.0, 0.0, 0.0, 1.6541571882021053E9, 0.0, 2022-06-02 10:06:28.202
97.0, 24839.20304050482, 8987.144707100953, -68862.9530504886, -51303.22144069928, -40727.9629383043, -43220.070686348765, -13075.859913332453, -46007.66849609238, 0.01, 0.8, 0.632, 192.0, 0.0, 80.0, 25.0, 0.0, 19.0, 192.0, 0.0, 0.0, 0.0, 1.6541571882021112E9, 0.0, 2022-06-02 10:06:28.202
98.0, 24838.86776433799, 8988.329349557085, -68877.36992566228, -51319.53821415165, -40748.43713622536, -43240.611939503186, -13110.21454456026, -46033.149484771435, 0.01, 0.8, 0.632, 192.0, 0.0, 0.0, 0.0, 0.0, 0.0, 0.0, 0.0, 0.0, 0.0, 1.654157188202117E9, 0.0, 2022-06-02 10:06:28.202
99.0, 24823.221543219275, 8977.10877384052, -68881.97438502006, -51326.40019969943, -40764.12806083299, -43259.99090194594, -13125.100806367494, -46045.241778521755, 0.01, 0.8, 0.632, 192.0, 0.0, 0.0, 0.0, 0.0, 0.0, 0.0, 0.0, 0.0, 0.0, 1.6541571882021232E9, 0.0, 2022-06-02 10:06:28.202
100.0, 24823.266246708186, 8978.293416296652, -68868.56333834688, -51317.504205406214, -40748.34772924754, -43255.07351816577, -13107.822907903543, -46031.36134521501, 0.01, 0.8, 0.632, 192.0, 0.0, 0.0, 0.0, 0.0, 0.0, 0.0, 0.0, 0.0, 0.0, 1.654157188202129E9, 0.0, 2022-06-02 10:06:28.202
101.0, 24827.49072641024, 8980.77445993119, -68858.84032950882, -51307.177699467866, -40729.616967393995, -43239.82962844725, -13076.239892988193, -46001.99115300073, 0.01, 0.8, 0.632, 192.0, 0.0, 0.0, 0.0, 0.0, 0.0, 0.0, 0.0, 0.0, 0.0, 1.6541571882021348E9, 0.0, 2022-06-02 10:06:28.202
102.0, 24818.0582902501, 8967.609282447014, -68885.03657401045, -51321.59457464154, -40745.97844433528, -43254.246503620925, -13093.07075656304, -46020.18547298735, 0.01, 0.8, 0.632, 192.0, 0.0, 0.0, 0.0, 0.0, 0.0, 0.0, 0.0, 0.0, 0.0, 1.6541571882021406E9, 0.0, 2022-06-02 10:06:28.202
103.0, 24831.424633434373, 8975.365337773006, -68884.05309725441, -51324.32148746509, -40752.058118827124, -43267.65755029411, -13112.583829472522, -46045.57705468858, 0.01, 0.8, 0.632, 192.0, 0.0, 0.0, 0.0, 0.0, 0.0, 0.0, 0.0, 0.0, 0.0, 1.6541571882021463E9, 0.0, 2022-06-02 10:06:28.202
104.0, 24842.2652294952, 8984.238980321763, -68864.13769294473, -51312.31860069258, -40743.028014067175, -43262.427242091566, -13089.941512339296, -46035.1164382835, 0.01, 0.8, 0.632, 192.0, 0.0, 0.0, 0.0, 0.0, 0.0, 0.0, 0.0, 0.0, 0.0, 1.6541571882021523E9, 0.0, 2022-06-02 10:06:28.202
105.0, 24847.9649243313, 8991.927980414388, -68846.5468700584, -51293.476080116765, -40733.0144325512, -43237.3038813238, -13070.741363852188, -45993.34102789653, 0.01, 0.8, 0.632, 192.0, 0.0, 0.0, 0.0, 0.0, 0.0, 0.0, 0.0, 0.0, 0.0, 1.6541571882021587E9, 0.0, 2022-06-02 10:06:28.202
106.0, 24847.741406886747, 8996.241867094262, -68841.4506723226, -51281.76376602218, -40725.280728969665, -43223.66931720607, -13063.477046904212, -45980.42171960136, 0.01, 0.8, 0.632, 192.0, 0.0, 0.0, 0.0, 0.0, 0.0, 0.0, 0.0, 0.0, 0.0, 1.654157188202165E9, 0.0, 2022-06-02 10:06:28.202
107.0, 24843.092244040043, 8988.262294323718, -68855.1522916737, -51283.70836778979, -40733.8637988405, -43229.21254983098, -13087.39341347139, -46003.01933324568, 0.012, 0.798, 0.632, 192.0, 0.0, 96.0, 24.0, 240.0, 19.0, 192.0, 0.0, 0.0, 0.0, 1.6541571882021737E9, 0.0, 2022-06-02 10:06:28.202
108.0, 24846.757930130712, 8982.719061698803, -68870.68675407014, -51296.44886212932, -40751.92400836039, -43247.675090751065, -13108.605218959477, -46027.80741784661, 0.012, 0.798, 0.632, 192.0, 0.0, 0.0, 0.0, 0.0, 0.0, 0.0, 0.0, 0.0, 0.0, 1.6541571882021797E9, 0.0, 2022-06-02 10:06:28.202
109.0, 24838.018398048687, 8978.762802930212, -68872.18432094864, -51302.349722665516, -40757.646054940946, -43249.08325065175, -13111.198021316293, -46013.077618250565, 0.012, 0.798, 0.632, 192.0, 0.0, 0.0, 0.0, 0.0, 0.0, 0.0, 0.0, 0.0, 0.0, 1.6541571882021854E9, 0.0, 2022-06-02 10:06:28.202
110.0, 24831.469336923285, 8973.621901705492, -68860.44965510961, -51295.82301328457, -40744.45852571232, -43232.989994643925, -13094.121288552438, -45988.91538249438, 0.012, 0.798, 0.632, 192.0, 0.0, 0.0, 0.0, 0.0, 0.0, 0.0, 0.0, 0.0, 0.0, 1.654157188202191E9, 0.0, 2022-06-02 10:06:28.202
111.0, 24831.424633434373, 8975.521799984193, -68858.12507368626, -51291.5538300936, -40730.15340926092, -43222.372916027656, -13081.939587824296, -45988.468347605274, 0.012, 0.798, 0.632, 192.0, 0.0, 0.0, 0.0, 0.0, 0.0, 0.0, 0.0, 0.0, 0.0, 1.6541571882021968E9, 0.0, 2022-06-02 10:06:28.202
112.0, 24833.57040090208, 8977.935788385366, -68873.12309421577, -51301.34389416503, -40730.376926705474, -43228.67610796406, -13079.25737848966, -46009.47898739326, 0.012, 0.798, 0.632, 192.0, 0.0, 0.0, 0.0, 0.0, 0.0, 0.0, 0.0, 0.0, 0.0, 1.6541571882022023E9, 0.0, 2022-06-02 10:06:28.202
113.0, 24837.660770137405, 8977.376994773984, -68878.04047799594, -51312.98915302625, -40736.30013898613, -43234.1522853556, -13087.192247771294, -46017.95029854182, 0.012, 0.798, 0.632, 192.0, 0.0, 0.0, 0.0, 0.0, 0.0, 0.0, 0.0, 0.0, 0.0, 1.654157188202208E9, 0.0, 2022-06-02 10:06:28.202
114.0, 24840.857069594513, 8978.606340719025, -68867.24458542402, -51309.34581868003, -40742.02218556669, -43230.71011670949, -13102.25732353417, -46013.077618250565, 0.012, 0.798, 0.632, 192.0, 0.0, 0.0, 0.0, 0.0, 0.0, 0.0, 0.0, 0.0, 0.0, 1.6541571882022135E9, 0.0, 2022-06-02 10:06:28.202
115.0, 24844.410996962906, 8978.583988974571, -68853.74413177301, -51303.08733023254, -40740.43521171036, -43224.78690442883, -13091.953169340273, -46001.09708322252, 0.012, 0.798, 0.632, 192.0, 0.0, 0.0, 0.0, 0.0, 0.0, 0.0, 0.0, 0.0, 0.0, 1.6541571882022192E9, 0.0, 2022-06-02 10:06:28.202
116.0, 24836.811403848104, 8978.136954085465, -68854.7499602735, -51300.13689996444, -40737.39537446444, -43221.83647416073, -13077.82686684452, -45998.92896401036, 0.01, 0.806, 0.632, 192.0, 0.0, 80.0, 25.0, 48.0, 19.0, 192.0, 0.0, 0.0, 0.0, 1.6541571882022247E9, 0.0, 2022-06-02 10:06:28.202
117.0, 24827.82600257707, 8972.571369716094, -68875.93941401714, -51313.68205710436, -40746.604293180026, -43235.448686534015, -13108.314646281558, -46027.02510679068, 0.01, 0.806, 0.632, 192.0, 0.0, 0.0, 0.0, 0.0, 0.0, 0.0, 0.0, 0.0, 0.0, 1.6541571882022307E9, 0.0, 2022-06-02 10:06:28.202
118.0, 24832.095185768034, 8972.191390060352, -68895.8101148379, -51329.97647881228, -40765.06683410011, -43257.532210055855, -13137.818948962564, -46051.83554313607, 0.01, 0.806, 0.632, 192.0, 0.0, 0.0, 0.0, 0.0, 0.0, 0.0, 0.0, 0.0, 0.0, 1.6541571882022364E9, 0.0, 2022-06-02 10:06:28.202
119.0, 24839.180688760363, 8978.315768041108, -68878.62162335178, -51319.739379851744, -40759.948284619844, -43255.18527688805, -13131.627515748443, -46051.83554313607, 0.01, 0.806, 0.632, 192.0, 0.0, 0.0, 0.0, 0.0, 0.0, 0.0, 0.0, 0.0, 0.0, 1.654157188202242E9, 0.0, 2022-06-02 10:06:28.202
120.0, 24824.51794439768, 8970.716174926303, -68866.66344006818, -51314.17379548238, -40740.85989485501, -43245.41756456108, -13081.000814557174, -46008.1602344704, 0.01, 0.806, 0.632, 192.0, 0.0, 0.0, 0.0, 0.0, 0.0, 0.0, 0.0, 0.0, 0.0, 1.6541571882022476E9, 0.0, 2022-06-02 10:06:28.202
121.0, 24831.648150878926, 8975.58885521756, -68857.34276263032, -51299.64516158643, -40728.74524936024, -43231.22420683196, -13064.840503315987, -45980.30996087909, 0.01, 0.806, 0.632, 192.0, 0.0, 0.0, 0.0, 0.0, 0.0, 0.0, 0.0, 0.0, 0.0, 1.6541571886814885E9, 0.0, 2022-06-02 10:06:28.681
122.0, 24830.642322378437, 8970.269140037197, -68877.61579485128, -51310.530461136164, -40744.30206350113, -43244.56819827178, -13105.990064858206, -46024.72287711178, 0.01, 0.806, 0.632, 192.0, 0.0, 0.0, 0.0, 0.0, 0.0, 0.0, 0.0, 0.0, 0.0, 1.6541571886816633E9, 0.0, 2022-06-02 10:06:28.681
123.0, 24823.71328159729, 8963.362451000507, -68895.38543169326, -51328.34480146704, -40759.389491008464, -43266.47290783798, -13126.374855801447, -46048.952168101336, 0.01, 0.806, 0.632, 192.0, 0.0, 0.0, 0.0, 0.0, 0.0, 0.0, 0.0, 0.0, 0.0, 1.6541571886816711E9, 0.0, 2022-06-02 10:06:28.681
124.0, 24824.29442695313, 8968.413945247406, -68885.01422226599, -51323.20390024232, -40762.83165965458, -43265.712948526496, -13117.814137675065, -46036.34578422854, 0.01, 0.806, 0.632, 192.0, 0.0, 0.0, 0.0, 0.0, 0.0, 0.0, 0.0, 0.0, 0.0, 1.654157188681677E9, 0.0, 2022-06-02 10:06:28.681
125.0, 24835.58205790306, 8981.668529709403, -68862.01427722147, -51301.500356376215, -40742.826848367076, -43240.969567414475, -13085.962901826251, -45993.31867615208, 0.01, 0.806, 0.632, 192.0, 0.0, 0.0, 0.0, 0.0, 0.0, 0.0, 0.0, 0.0, 0.0, 1.6541571886816833E9, 0.0, 2022-06-02 10:06:28.681
126.0, 24832.095185768034, 8977.376994773984, -68858.16977717516, -51294.83953652853, -40735.80840060811, -43230.41954403157, -13082.028994802118, -45985.473213848265, 0.008, 0.804, 0.628, 192.0, 0.0, 64.0, 25.0, 32.0, 19.0, 160.0, 0.0, 0.0, 0.0, 1.6541571886816893E9, 0.0, 2022-06-02 10:06:28.681
127.0, 24836.34201721454, 8974.851247650535, -68870.59734709232, -51297.946429007825, -40742.133944288966, -43236.09688712322, -13099.485707221713, -46017.74913284172, 0.008, 0.804, 0.628, 192.0, 0.0, 0.0, 0.0, 0.0, 0.0, 0.0, 0.0, 0.0, 0.0, 1.6541571886816945E9, 0.0, 2022-06-02 10:06:28.681
128.0, 24839.40420620492, 8968.324538269584, -68881.97438502006, -51312.43035941486, -40756.41670899591, -43254.51472455439, -13098.859858376964, -46037.28455749567, 0.008, 0.804, 0.628, 192.0, 0.0, 0.0, 0.0, 0.0, 0.0, 0.0, 0.0, 0.0, 0.0, 1.654157188681712E9, 0.0, 2022-06-02 10:06:28.681
129.0, 24841.14764227243, 8966.424639990884, -68878.21929195158, -51311.849214059024, -40764.46333699982, -43260.192067646036, -13110.415710260357, -46039.05034530763, 0.008, 0.804, 0.628, 192.0, 0.0, 0.0, 0.0, 0.0, 0.0, 0.0, 0.0, 0.0, 0.0, 1.6541571886817176E9, 0.0, 2022-06-02 10:06:28.681
130.0, 24840.432386449862, 8969.464477236805, -68862.57307083286, -51294.034873728146, -40748.52654320318, -43241.32719532576, -13087.59457917149, -46007.981420514756, 0.008, 0.804, 0.628, 192.0, 0.0, 0.0, 0.0, 0.0, 0.0, 0.0, 0.0, 0.0, 0.0, 1.654157188681723E9, 0.0, 2022-06-02 10:06:28.681
131.0, 24828.92123805538, 8964.703555667826, -68867.49045461303, -51291.84440277152, -40753.68979617236, -43234.06287837779, -13098.278713021125, -46007.981420514756, 0.008, 0.804, 0.628, 192.0, 0.0, 0.0, 0.0, 0.0, 0.0, 0.0, 0.0, 0.0, 0.0, 1.6541571886817296E9, 0.0, 2022-06-02 10:06:28.681
132.0, 24829.882363066958, 8967.899855124933, -68881.77321931998, -51299.60045809751, -40761.132927075974, -43240.544884269824, -13106.615913702955, -46031.40604870392, 0.008, 0.804, 0.628, 192.0, 0.0, 0.0, 0.0, 0.0, 0.0, 0.0, 0.0, 0.0, 0.0, 1.6541571886817348E9, 0.0, 2022-06-02 10:06:28.681
133.0, 24837.839584093046, 8968.995090603245, -68896.54772240492, -51318.0629990176, -40772.12998534799, -43259.499163567925, -13125.860765678975, -46056.79763040515, 0.008, 0.804, 0.628, 192.0, 0.0, 0.0, 0.0, 0.0, 0.0, 0.0, 0.0, 0.0, 0.0, 1.6541571886817403E9, 0.0, 2022-06-02 10:06:28.681
134.0, 24832.698682868326, 8963.094230067043, -68893.48553341455, -51324.94733630984, -40775.88507841648, -43260.10266066821, -13153.040486936628, -46054.40599374843, 0.008, 0.804, 0.628, 192.0, 0.0, 0.0, 0.0, 0.0, 0.0, 0.0, 0.0, 0.0, 0.0, 1.6541571886817455E9, 0.0, 2022-06-02 10:06:28.681
135.0, 24842.44404345084, 8972.39255576045, -68873.01133549349, -51310.75397858072, -40756.88609562947, -43239.82962844725, -13140.83643446403, -46028.813246347105, 0.008, 0.804, 0.628, 192.0, 0.0, 0.0, 0.0, 0.0, 0.0, 0.0, 0.0, 0.0, 0.0, 1.6541571886817513E9, 0.0, 2022-06-02 10:06:28.681
136.0, 24835.023264291678, 8974.515971483705, -68861.94722198811, -51302.10385347651, -40742.893903600445, -43216.11442758017, -13100.156259555371, -45993.0057517297, 0.006, 0.8, 0.628, 192.0, 0.0, 48.0, 25.0, 0.0, 19.0, 160.0, 0.0, 0.0, 0.0, 1.6541571886817565E9, 0.0, 2022-06-02 10:06:28.681
137.0, 24828.161278743897, 8972.526666227182, -68870.28442266994, -51310.664571602894, -40742.22335126679, -43219.422485759555, -13074.45175343177, -45999.107777966, 0.006, 0.8, 0.628, 192.0, 0.0, 0.0, 0.0, 0.0, 0.0, 0.0, 0.0, 0.0, 0.0, 1.6541571886817622E9, 0.0, 2022-06-02 10:06:28.681
138.0, 24838.35367421552, 8978.516933741204, -68875.26886168348, -51317.0124670282, -40747.90069435843, -43233.79465744432, -13075.614044143444, -46016.229214218765, 0.006, 0.8, 0.628, 192.0, 0.0, 0.0, 0.0, 0.0, 0.0, 0.0, 0.0, 0.0, 0.0, 1.6541571886817677E9, 0.0, 2022-06-02 10:06:28.681
139.0, 24839.20304050482, 8977.511105240716, -68870.84321628133, -51316.49837690573, -40746.40312747993, -43239.427297047056, -13077.469238933236, -46012.29530719463, 0.006, 0.8, 0.628, 192.0, 0.0, 0.0, 0.0, 0.0, 0.0, 0.0, 0.0, 0.0, 0.0, 1.654157188681773E9, 0.0, 2022-06-02 10:06:28.681
140.0, 24838.554839915614, 8975.074765095087, -68861.008448721, -51308.071769246075, -40738.289444242655, -43227.6032242302, -13072.194227241782, -45990.77057728417, 0.006, 0.8, 0.628, 192.0, 0.0, 0.0, 0.0, 0.0, 0.0, 0.0, 0.0, 0.0, 0.0, 1.6541571886817784E9, 0.0, 2022-06-02 10:06:28.681
141.0, 24845.215659763297, 8983.009634376722, -68856.91807948567, -51300.24865868672, -40734.40024070743, -43222.21645381647, -13077.379831955413, -45998.258411676696, 0.006, 0.8, 0.628, 192.0, 0.0, 0.0, 0.0, 0.0, 0.0, 0.0, 0.0, 0.0, 0.0, 1.654157188681784E9, 0.0, 2022-06-02 10:06:28.681
142.0, 24845.55093593013, 8987.792907690156, -68872.36313490428, -51306.261277945196, -40744.078546056575, -43229.72663995346, -13106.21358230276, -46024.34289745604, 0.006, 0.8, 0.628, 192.0, 0.0, 0.0, 0.0, 0.0, 0.0, 0.0, 0.0, 0.0, 0.0, 1.6541571886817892E9, 0.0, 2022-06-02 10:06:28.681
143.0, 24836.587886403548, 8976.929959884877, -68887.02587926696, -51316.94541179483, -40758.67423518589, -43242.26596859288, -13130.778149459142, -46038.33508948507, 0.006, 0.8, 0.628, 192.0, 0.0, 0.0, 0.0, 0.0, 0.0, 0.0, 0.0, 0.0, 0.0, 1.654157188681795E9, 0.0, 2022-06-02 10:06:28.681
144.0, 24821.0087205182, 8960.993166088243, -68886.7576583335, -51322.86862407549, -40768.79957542415, -43251.6089977752, -13151.229995635747, -46044.23595002126, 0.006, 0.8, 0.628, 192.0, 0.0, 0.0, 0.0, 0.0, 0.0, 0.0, 0.0, 0.0, 0.0, 1.6541571886818E9, 0.0, 2022-06-02 10:06:28.681
145.0, 24825.702586853815, 8967.050488835632, -68869.09978021382, -51303.28849593264, -40748.39243273645, -43227.759686441386, -13112.203849816782, -45990.34589413952, 0.006, 0.8, 0.628, 192.0, 0.0, 0.0, 0.0, 0.0, 0.0, 0.0, 0.0, 0.0, 0.0, 1.6541571886818056E9, 0.0, 2022-06-02 10:06:28.681
146.0, 24829.971770044776, 8968.212779547308, -68861.56724233237, -51293.94546675032, -40726.86770282599, -43221.41179101608, -13065.980442283208, -45981.58401031304, 0.012, 0.79, 0.634, 192.0, 0.0, 96.0, 24.0, 176.0, 19.0, 208.0, 0.0, 0.0, 0.0, 1.6541571886818109E9, 0.0, 2022-06-02 10:06:28.681
147.0, 24832.810441590602, 8968.168076058397, -68869.65857382519, -51299.80162379761, -40729.59461564954, -43231.69359346552, -13072.238930730693, -46006.30503968061, 0.012, 0.79, 0.634, 192.0, 0.0, 0.0, 0.0, 0.0, 0.0, 0.0, 0.0, 0.0, 0.0, 1.6541571886818163E9, 0.0, 2022-06-02 10:06:28.681
148.0, 24840.00770330521, 8972.213741804808, -68881.1026669863, -51308.02706575717, -40750.225275781784, -43243.4059075601, -13097.07171882054, -46012.317658939086, 0.012, 0.79, 0.634, 192.0, 0.0, 0.0, 0.0, 0.0, 0.0, 0.0, 0.0, 0.0, 0.0, 1.6541571886818216E9, 0.0, 2022-06-02 10:06:28.681
149.0, 24841.482918439262, 8975.924131384389, -68875.00064075002, -51303.28849593264, -40753.48863047226, -43240.053145891805, -13088.533352438611, -45998.83955703254, 0.012, 0.79, 0.634, 192.0, 0.0, 0.0, 0.0, 0.0, 0.0, 0.0, 0.0, 0.0, 0.0, 1.6541571886818273E9, 0.0, 2022-06-02 10:06:28.681
150.0, 24830.23999097824, 8971.207913304319, -68875.1571029612, -51307.26710644569, -40757.087261329565, -43246.982186672954, -13099.21748628825, -46020.766618343194, 0.012, 0.79, 0.634, 192.0, 0.0, 0.0, 0.0, 0.0, 0.0, 0.0, 0.0, 0.0, 0.0, 1.6541571886818352E9, 0.0, 2022-06-02 10:06:28.681
151.0, 24837.0125695482, 8978.695747696847, -68867.71397205758, -51296.1582894514, -40749.93470310387, -43232.61001498819, -13088.958035583262, -46006.97559201427, 0.012, 0.79, 0.634, 192.0, 0.0, 0.0, 0.0, 0.0, 0.0, 0.0, 0.0, 0.0, 0.0, 1.6541571886818404E9, 0.0, 2022-06-02 10:06:28.681
152.0, 24844.992142318744, 8985.893009411457, -68871.40200989271, -51281.96493172228, -40748.8171158811, -43212.91812812306, -13079.480895934212, -45991.37407438446, 0.012, 0.79, 0.634, 192.0, 0.0, 0.0, 0.0, 0.0, 0.0, 0.0, 0.0, 0.0, 0.0, 1.654157188681846E9, 0.0, 2022-06-02 10:06:28.681
153.0, 24846.176784774874, 8985.602436733538, -68876.38644890624, -51286.278818402156, -40750.04646182615, -43221.03181136034, -13081.403145957369, -45999.26424017719, 0.012, 0.79, 0.634, 192.0, 0.0, 0.0, 0.0, 0.0, 0.0, 0.0, 0.0, 0.0, 0.0, 1.6541571886818514E9, 0.0, 2022-06-02 10:06:28.681
154.0, 24838.420729448884, 8975.790020917657, -68875.44767563912, -51287.105832946996, -40754.47210722829, -43228.27377656386, -13102.234971789716, -46004.71806582428, 0.012, 0.79, 0.634, 192.0, 0.0, 0.0, 0.0, 0.0, 0.0, 0.0, 0.0, 0.0, 0.0, 1.6541571886818569E9, 0.0, 2022-06-02 10:06:28.681
155.0, 24831.692854367837, 8973.085459838565, -68862.05898071038, -51277.15930666439, -40753.35452000553, -43218.953099125996, -13103.531372968124, -45996.33616165354, 0.012, 0.79, 0.634, 192.0, 0.0, 0.0, 0.0, 0.0, 0.0, 0.0, 0.0, 0.0, 0.0, 1.654157188681862E9, 0.0, 2022-06-02 10:06:28.681
156.0, 24820.85225830701, 8966.067012079598, -68866.3058121569, -51280.66853054387, -40758.11544157451, -43220.473017748955, -13105.855954391474, -46004.561603613096, 0.01, 0.794, 0.634, 192.0, 0.0, 80.0, 24.0, 208.0, 19.0, 208.0, 0.0, 0.0, 0.0, 1.6541571886818676E9, 0.0, 2022-06-02 10:06:28.681
157.0, 24818.974711772767, 8965.307052768118, -68878.93454777414, -51288.89397250342, -40757.713110174314, -43225.21158757348, -13096.378814742426, -46015.670420607385, 0.01, 0.794, 0.634, 192.0, 0.0, 0.0, 0.0, 0.0, 0.0, 0.0, 0.0, 0.0, 0.0, 1.654157188681873E9, 0.0, 2022-06-02 10:06:28.681
158.0, 24816.1583919714, 8957.260424764208, -68895.1619142487, -51309.0105425132, -40769.179555079885, -43241.28249183685, -13102.480840978724, -46029.506150425215, 0.01, 0.794, 0.634, 192.0, 0.0, 0.0, 0.0, 0.0, 0.0, 0.0, 0.0, 0.0, 0.0, 1.6541571886818786E9, 0.0, 2022-06-02 10:06:28.681
159.0, 24827.267208965684, 8966.938730113356, -68878.28634718494, -51305.568373867085, -40762.965770121315, -43233.86171267769, -13107.30881778107, -46022.48770266625, 0.01, 0.794, 0.634, 192.0, 0.0, 0.0, 0.0, 0.0, 0.0, 0.0, 0.0, 0.0, 0.0, 1.6541571886818843E9, 0.0, 2022-06-02 10:06:28.681
160.0, 24834.19624974683, 8979.500410497238, -68856.02400970746, -51295.93477200685, -40742.84920011154, -43216.67322119155, -13096.222352531238, -46007.28851643664, 0.01, 0.794, 0.634, 192.0, 0.0, 0.0, 0.0, 0.0, 0.0, 0.0, 0.0, 0.0, 0.0, 1.6541571886818895E9, 0.0, 2022-06-02 10:06:28.681
161.0, 24829.837659578046, 8977.220532562797, -68856.33693412982, -51289.45276611481, -40734.93668257436, -43202.166939040064, -13088.73451813871, -45986.85902200449, 0.01, 0.794, 0.634, 192.0, 0.0, 0.0, 0.0, 0.0, 0.0, 0.0, 0.0, 0.0, 0.0, 1.654157188681895E9, 0.0, 2022-06-02 10:06:28.681
162.0, 24826.127269998466, 8966.20112254633, -68878.12988497375, -51297.70055981881, -40741.284577999664, -43197.94245933801, -13089.315663494548, -45973.73854800923, 0.01, 0.794, 0.634, 192.0, 0.0, 0.0, 0.0, 0.0, 0.0, 0.0, 0.0, 0.0, 0.0, 1.6541571886819005E9, 0.0, 2022-06-02 10:06:28.681
163.0, 24826.10491825401, 8963.787134145157, -68885.93064378866, -51313.70440884882, -40755.67910142888, -43218.997802614904, -13102.21262004526, -45996.157347697896, 0.01, 0.794, 0.634, 192.0, 0.0, 0.0, 0.0, 0.0, 0.0, 0.0, 0.0, 0.0, 0.0, 1.654157188681906E9, 0.0, 2022-06-02 10:06:28.681
164.0, 24823.53446764165, 8966.20112254633, -68881.52735013096, -51315.850176316526, -40769.313665546615, -43233.54878825531, -13134.041504149618, -46017.72678109727, 0.01, 0.794, 0.634, 192.0, 0.0, 0.0, 0.0, 0.0, 0.0, 0.0, 0.0, 0.0, 0.0, 1.6541571886819115E9, 0.0, 2022-06-02 10:06:28.681
165.0, 24812.29154018063, 8961.864884122, -68873.27955642695, -51310.172833224875, -40757.48959272976, -43231.76064869889, -13115.578963229533, -46002.48289137875, 0.01, 0.794, 0.634, 192.0, 0.0, 0.0, 0.0, 0.0, 0.0, 0.0, 0.0, 0.0, 0.0, 1.6541571886819167E9, 0.0, 2022-06-02 10:06:28.681
166.0, 24799.9533772413, 8951.046639805632, -68875.53708261694, -51313.167966981884, -40755.23206653978, -43239.31553832478, -13098.770451399143, -46010.50716763821, 0.012, 0.796, 0.638, 192.0, 0.0, 96.0, 24.0, 224.0, 19.0, 240.0, 0.0, 0.0, 0.0, 1.6541571886819227E9, 0.0, 2022-06-02 10:06:28.681
167.0, 24807.977653500755, 8957.662756164404, -68881.01326000849, -51313.77146408218, -40750.69466241535, -43243.42825930456, -13079.994986056685, -46020.856025321016, 0.012, 0.796, 0.638, 192.0, 0.0, 0.0, 0.0, 0.0, 0.0, 0.0, 0.0, 0.0, 0.0, 1.6541571886819282E9, 0.0, 2022-06-02 10:06:28.681
168.0, 24821.34399668503, 8966.089363824054, -68884.09780074333, -51317.101874006024, -40757.73546191877, -43250.267893107884, -13100.603294444478, -46035.89874933944, 0.012, 0.796, 0.638, 192.0, 0.0, 0.0, 0.0, 0.0, 0.0, 0.0, 0.0, 0.0, 0.0, 1.6541571886819336E9, 0.0, 2022-06-02 10:06:28.681
169.0, 24828.00481653271, 8970.313843526106, -68871.08908547033, -51311.02219951418, -40751.90165661593, -43247.42922156206, -13100.335073511014, -46023.67234512238, 0.012, 0.796, 0.638, 192.0, 0.0, 0.0, 0.0, 0.0, 0.0, 0.0, 0.0, 0.0, 0.0, 1.654157188681939E9, 0.0, 2022-06-02 10:06:28.681
170.0, 24827.110746754497, 8965.82114289059, -68864.47296911156, -51304.69665583332, -40745.419650723896, -43231.872407421164, -13088.220428016237, -45993.94452499683, 0.012, 0.796, 0.638, 192.0, 0.0, 0.0, 0.0, 0.0, 0.0, 0.0, 0.0, 0.0, 0.0, 1.6541571886819446E9, 0.0, 2022-06-02 10:06:28.681
171.0, 24822.193362974333, 8958.892102109445, -68866.59638483482, -51304.04845524412, -40747.87834261398, -43223.04346836132, -13080.77729711262, -45980.68994053482, 0.012, 0.796, 0.638, 192.0, 0.0, 0.0, 0.0, 0.0, 0.0, 0.0, 0.0, 0.0, 0.0, 1.6541571886819522E9, 0.0, 2022-06-02 10:06:28.681
172.0, 24828.183630488355, 8961.39549748844, -68872.27372792647, -51300.00278949771, -40748.146563547445, -43221.59060497172, -13083.861837847453, -45992.08933020703, 0.012, 0.796, 0.638, 192.0, 0.0, 0.0, 0.0, 0.0, 0.0, 0.0, 0.0, 0.0, 0.0, 1.6541571886819575E9, 0.0, 2022-06-02 10:06:28.681
173.0, 24839.91829632739, 8970.939692370855, -68880.94620477513, -51301.54505986513, -40755.09795607304, -43230.196026587015, -13110.773338171643, -46017.59267063054, 0.012, 0.796, 0.638, 192.0, 0.0, 0.0, 0.0, 0.0, 0.0, 0.0, 0.0, 0.0, 0.0, 1.6541571886819632E9, 0.0, 2022-06-02 10:06:28.681
174.0, 24830.329397956062, 8965.932901612867, -68881.63910885324, -51307.46827214579, -40755.99202585126, -43236.81214294579, -13100.536239211111, -46012.87645255047, 0.012, 0.796, 0.638, 192.0, 0.0, 0.0, 0.0, 0.0, 0.0, 0.0, 0.0, 0.0, 0.0, 1.6541571886819685E9, 0.0, 2022-06-02 10:06:28.681
175.0, 24815.48783963774, 8956.880445108467, -68870.06090522539, -51303.71317907729, -40750.56055194861, -43227.13383759664, -13078.25154998917, -45998.68309482135, 0.012, 0.796, 0.638, 192.0, 0.0, 0.0, 0.0, 0.0, 0.0, 0.0, 0.0, 0.0, 0.0, 1.6541571886819744E9, 0.0, 2022-06-02 10:06:28.681
176.0, 24816.739537327237, 8959.741468398746, -68858.88503299774, -51292.134975449444, -40743.5644559341, -43209.364200754666, -13075.6363958879, -45998.43722563234, 0.01, 0.792, 0.636, 192.0, 0.0, 80.0, 24.0, 192.0, 19.0, 224.0, 0.0, 0.0, 0.0, 1.6541571886819808E9, 0.0, 2022-06-02 10:06:28.681
177.0, 24813.29736868112, 8956.411058474905, -68879.67215534118, -51300.673341831374, -40759.456546241825, -43212.94047986752, -13100.82681188903, -46025.84046433455, 0.01, 0.792, 0.636, 192.0, 0.0, 0.0, 0.0, 0.0, 0.0, 0.0, 0.0, 0.0, 0.0, 1.654157188681986E9, 0.0, 2022-06-02 10:06:28.681
178.0, 24809.452868634806, 8951.58308167256, -68897.39708869423, -51310.2622402027, -40775.41569178292, -43228.43023877504, -13122.016265632661, -46042.4701622093, 0.01, 0.792, 0.636, 192.0, 0.0, 0.0, 0.0, 0.0, 0.0, 0.0, 0.0, 0.0, 0.0, 1.6541571886819923E9, 0.0, 2022-06-02 10:06:28.681
179.0, 24808.849371534514, 8950.398439216428, -68889.81984732389, -51306.57420236757, -40773.381683037485, -43228.810218430786, -13120.295181309604, -46036.412839461904, 0.01, 0.792, 0.636, 192.0, 0.0, 0.0, 0.0, 0.0, 0.0, 0.0, 0.0, 0.0, 0.0, 1.6541571886819978E9, 0.0, 2022-06-02 10:06:28.681
180.0, 24810.168124457377, 8947.827988604067, -68880.78974256394, -51298.41581564138, -40770.45360451384, -43222.26115730538, -13128.431216291336, -46030.15435101442, 0.01, 0.792, 0.636, 192.0, 0.0, 0.0, 0.0, 0.0, 0.0, 0.0, 0.0, 0.0, 0.0, 1.6541571886820035E9, 0.0, 2022-06-02 10:06:28.682
181.0, 24806.323624411063, 8942.57532865707, -68884.16485597669, -51292.76082429419, -40766.98908412327, -43212.873424634156, -13115.601314973988, -45999.91244076639, 0.01, 0.792, 0.636, 192.0, 0.0, 0.0, 0.0, 0.0, 0.0, 0.0, 0.0, 0.0, 0.0, 1.6541571886820092E9, 0.0, 2022-06-02 10:06:28.682
182.0, 24809.38581340144, 8947.425657203872, -68882.19790246463, -51289.36335913699, -40761.69172068736, -43203.17276754055, -13098.412823487857, -45981.963989968775, 0.01, 0.792, 0.636, 192.0, 0.0, 0.0, 0.0, 0.0, 0.0, 0.0, 0.0, 0.0, 0.0, 1.6541571886820145E9, 0.0, 2022-06-02 10:06:28.682
183.0, 24814.884342537447, 8951.158398527909, -68888.16581823419, -51302.46148138779, -40767.88315390148, -43221.34473578272, -13108.381701514925, -46007.9590687703, 0.01, 0.792, 0.636, 192.0, 0.0, 0.0, 0.0, 0.0, 0.0, 0.0, 0.0, 0.0, 0.0, 1.6541571886820197E9, 0.0, 2022-06-02 10:06:28.682
184.0, 24828.340092699542, 8957.953328842323, -68882.64493735373, -51306.68596108985, -40771.52648824769, -43232.297090565815, -13127.380684301936, -46025.862816079, 0.01, 0.792, 0.636, 192.0, 0.0, 0.0, 0.0, 0.0, 0.0, 0.0, 0.0, 0.0, 0.0, 1.6541571886820252E9, 0.0, 2022-06-02 10:06:28.682
185.0, 24833.413938690894, 8967.430468491373, -68865.81407377888, -51296.962952251786, -40759.054214841635, -43225.725677695955, -13111.130966082927, -46024.63347013396, 0.01, 0.792, 0.636, 192.0, 0.0, 0.0, 0.0, 0.0, 0.0, 0.0, 0.0, 0.0, 0.0, 1.654157188682031E9, 0.0, 2022-06-02 10:06:28.682
186.0, 24828.898886310923, 8968.659814436414, -68861.16491093217, -51299.71221681979, -40747.096031558045, -43228.54199749732, -13081.380794212913, -46023.359420700006, 0.01, 0.794, 0.632, 192.0, 0.0, 80.0, 24.0, 208.0, 19.0, 192.0, 0.0, 0.0, 0.0, 1.6541571886820369E9, 0.0, 2022-06-02 10:06:28.682
187.0, 24821.187534473844, 8962.11075331101, -68873.07839072686, -51309.479929146764, -40753.309816516616, -43235.22516908946, -13084.912369836853, -46023.985269544755, 0.01, 0.794, 0.632, 192.0, 0.0, 0.0, 0.0, 0.0, 0.0, 0.0, 0.0, 0.0, 0.0, 1.6541571886820424E9, 0.0, 2022-06-02 10:06:28.682
188.0, 24823.86974380848, 8960.76964864369, -68888.14346648974, -51325.77435085468, -40769.06779635761, -43255.788773988344, -13118.060006864072, -46045.64410992195, 0.01, 0.794, 0.632, 192.0, 0.0, 0.0, 0.0, 0.0, 0.0, 0.0, 0.0, 0.0, 0.0, 1.6541571886820476E9, 0.0, 2022-06-02 10:06:28.682
189.0, 24828.49655491073, 8966.156419057419, -68872.36313490428, -51316.83365307256, -40761.78112766518, -43247.250407606414, -13109.298123037592, -46009.68015309336, 0.01, 0.794, 0.632, 192.0, 0.0, 0.0, 0.0, 0.0, 0.0, 0.0, 0.0, 0.0, 0.0, 1.654157188682053E9, 0.0, 2022-06-02 10:06:28.682
190.0, 24837.638418392948, 8972.951349371833, -68852.55948931689, -51300.941562764834, -40748.72770890328, -43236.96860515697, -13094.277750763626, -46005.23215594675, 0.01, 0.794, 0.632, 192.0, 0.0, 0.0, 0.0, 0.0, 0.0, 0.0, 0.0, 0.0, 0.0, 1.6541571886820583E9, 0.0, 2022-06-02 10:06:28.682
191.0, 24834.799746847126, 8964.591796945548, -68849.0502654374, -51299.46634763078, -40741.48574369976, -43237.549750512815, -13076.150486010372, -46010.2612984492, 0.01, 0.794, 0.632, 192.0, 0.0, 0.0, 0.0, 0.0, 0.0, 0.0, 0.0, 0.0, 0.0, 1.654157188682067E9, 0.0, 2022-06-02 10:06:28.682
192.0, 24828.943589799834, 8966.692860924348, -68858.03566670844, -51292.604362083, -40740.50226694373, -43236.23099758995, -13079.167971511839, -46025.0134497897, 0.01, 0.794, 0.632, 192.0, 0.0, 0.0, 0.0, 0.0, 0.0, 0.0, 0.0, 0.0, 0.0, 1.6541571886820743E9, 0.0, 2022-06-02 10:06:28.682
193.0, 24826.507249654205, 8961.462552721805, -68880.23094895255, -51305.34485642253, -40763.25634279923, -43258.582742045255, -13127.738312213221, -46066.99002587677, 0.01, 0.794, 0.632, 192.0, 0.0, 0.0, 0.0, 0.0, 0.0, 0.0, 0.0, 0.0, 0.0, 1.6541571886820798E9, 0.0, 2022-06-02 10:06:28.682
194.0, 24830.35174970052, 8957.662756164404, -68880.58857686384, -51311.357475681005, -40774.65573247144, -43266.98699796045, -13147.877233967452, -46072.153278845944, 0.01, 0.794, 0.632, 192.0, 0.0, 0.0, 0.0, 0.0, 0.0, 0.0, 0.0, 0.0, 0.0, 1.6541571886820853E9, 0.0, 2022-06-02 10:06:28.682
195.0, 24828.407147932907, 8959.92028235439, -68862.17073943267, -51298.39346389693, -40758.18249680787, -43243.00357615991, -13099.128079310427, -46019.04553402013, 0.01, 0.796, 0.632, 192.0, 0.0, 80.0, 24.0, 224.0, 19.0, 192.0, 0.0, 0.0, 0.0, 1.6541571886820905E9, 0.0, 2022-06-02 10:06:28.682
196.0, 24813.587941359037, 8955.695802652335, -68858.88503299774, -51294.727777806256, -40752.95218860533, -43227.26794806337, -13083.414802958347, -45996.69378956482, 0.01, 0.796, 0.632, 192.0, 0.0, 0.0, 0.0, 0.0, 0.0, 0.0, 0.0, 0.0, 0.0, 1.654157188682096E9, 0.0, 2022-06-02 10:06:28.682
197.0, 24818.035938505644, 8961.171980043886, -68870.28442266994, -51293.43137662785, -40757.82486889659, -43229.86075042019, -13111.510945738668, -46038.670365651895, 0.01, 0.796, 0.632, 192.0, 0.0, 0.0, 0.0, 0.0, 0.0, 0.0, 0.0, 0.0, 0.0, 1.6541571886821015E9, 0.0, 2022-06-02 10:06:28.682
198.0, 24823.825040319567, 8957.595700931037, -68891.00448978001, -51307.91530703489, -40774.94630514936, -43248.56916052928, -13148.83835897903, -46084.938476674375, 0.01, 0.796, 0.632, 192.0, 0.0, 0.0, 0.0, 0.0, 0.0, 0.0, 0.0, 0.0, 0.0, 1.6541571886821067E9, 0.0, 2022-06-02 10:06:28.682
199.0, 24829.837659578046, 8956.67927940837, -68885.9082920442, -51305.18839421134, -40779.796633696154, -43237.46034353499, -13149.844187479519, -46060.1727438179, 0.01, 0.796, 0.632, 192.0, 0.0, 0.0, 0.0, 0.0, 0.0, 0.0, 0.0, 0.0, 0.0, 1.6541571886821125E9, 0.0, 2022-06-02 10:06:28.682
200.0, 24830.821136334078, 8954.555863685115, -68870.55264360341, -51296.62767608496, -40775.70626446084, -43214.952136868495, -13129.92878316984, -46000.51593786669, 0.01, 0.796, 0.632, 192.0, 0.0, 0.0, 0.0, 0.0, 0.0, 0.0, 0.0, 0.0, 0.0, 1.6541571886821177E9, 0.0, 2022-06-02 10:06:28.682
201.0, 24842.421691706382, 8973.130163327476, -68845.98807644703, -51276.86873398647, -40747.20779028032, -43191.1475290236, -13076.821038344031, -45963.05441415959, 0.01, 0.796, 0.632, 192.0, 0.0, 0.0, 0.0, 0.0, 0.0, 0.0, 0.0, 0.0, 0.0, 1.6541571886821234E9, 0.0, 2022-06-02 10:06:28.682
202.0, 24840.745310872237, 8975.208875561819, -68850.61488754927, -51281.62965555545, -40741.68690939986, -43199.82000587225, -13059.498436391168, -45983.81918475857, 0.01, 0.796, 0.632, 192.0, 0.0, 0.0, 0.0, 0.0, 0.0, 0.0, 0.0, 0.0, 0.0, 1.654157188682129E9, 0.0, 2022-06-02 10:06:28.682
203.0, 24847.38377897546, 8973.353680772028, -68862.75188478851, -51288.983379481244, -40751.38756649346, -43212.53814846732, -13082.297215735582, -45998.23605993224, 0.01, 0.796, 0.632, 192.0, 0.0, 0.0, 0.0, 0.0, 0.0, 0.0, 0.0, 0.0, 0.0, 1.6541571886821344E9, 0.0, 2022-06-02 10:06:28.682
204.0, 24840.63355214996, 8962.647195177937, -68868.98802149153, -51295.39833013992, -40763.14458407695, -43227.24559631891, -13100.268018277648, -46006.30503968061, 0.01, 0.796, 0.632, 192.0, 0.0, 0.0, 0.0, 0.0, 0.0, 0.0, 0.0, 0.0, 0.0, 1.6541571886821396E9, 0.0, 2022-06-02 10:06:28.682
205.0, 24837.52665967067, 8961.887235866456, -68861.61194582128, -51288.20106842531, -40764.12806083299, -43224.29516605081, -13098.88221012142, -45994.45861511929, 0.01, 0.792, 0.634, 192.0, 0.0, 80.0, 24.0, 192.0, 19.0, 208.0, 0.0, 0.0, 0.0, 1.654157188682145E9, 0.0, 2022-06-02 10:06:28.682
206.0, 24822.416880418885, 8959.875578865478, -68861.58959407682, -51281.76376602218, -40760.06004334212, -43222.104695094196, -13095.21652403075, -46002.594650101026, 0.01, 0.792, 0.634, 192.0, 0.0, 0.0, 0.0, 0.0, 0.0, 0.0, 0.0, 0.0, 0.0, 1.6541571886821504E9, 0.0, 2022-06-02 10:06:28.682
207.0, 24820.67344435137, 8959.652061420926, -68870.44088488113, -51276.66756828637, -40758.98715960827, -43224.384573028634, -13101.653826433878, -46013.39054267294, 0.01, 0.792, 0.634, 192.0, 0.0, 0.0, 0.0, 0.0, 0.0, 0.0, 0.0, 0.0, 0.0, 1.654157188682156E9, 0.0, 2022-06-02 10:06:28.682
208.0, 24841.63938065045, 8969.48682898126, -68876.67702158415, -51283.21662941178, -40764.46333699982, -43230.352488798206, -13106.30298928058, -46019.24669972023, 0.01, 0.792, 0.634, 192.0, 0.0, 0.0, 0.0, 0.0, 0.0, 0.0, 0.0, 0.0, 0.0, 1.654157188682161E9, 0.0, 2022-06-02 10:06:28.682
209.0, 24836.05144453662, 8968.190427802852, -68885.14833273272, -51299.555754608606, -40780.55659300764, -43251.13961114164, -13136.187271617327, -46045.75586864423, 0.01, 0.792, 0.634, 192.0, 0.0, 0.0, 0.0, 0.0, 0.0, 0.0, 0.0, 0.0, 0.0, 1.6541571886821668E9, 0.0, 2022-06-02 10:06:28.682
210.0, 24837.459604437307, 8976.549980229138, -68872.27372792647, -51294.660722572895, -40766.43029051188, -43242.914169182084, -13144.323306599059, -46033.775333616184, 0.01, 0.792, 0.634, 192.0, 0.0, 0.0, 0.0, 0.0, 0.0, 0.0, 0.0, 0.0, 0.0, 1.6541571886821728E9, 0.0, 2022-06-02 10:06:28.682
211.0, 24833.704511368815, 8974.493619739249, -68861.9025184992, -51291.84440277152, -40750.515848459705, -43227.469113763465, -13103.01728284565, -45986.501394093204, 0.01, 0.792, 0.634, 192.0, 0.0, 0.0, 0.0, 0.0, 0.0, 0.0, 0.0, 0.0, 0.0, 1.6541571886821783E9, 0.0, 2022-06-02 10:06:28.682
212.0, 24842.48874693975, 8975.87942789548, -68866.39521913472, -51295.66655107338, -40751.90165661593, -43225.83743641823, -13079.078564534017, -45994.682132563845, 0.01, 0.792, 0.634, 192.0, 0.0, 0.0, 0.0, 0.0, 0.0, 0.0, 0.0, 0.0, 0.0, 1.6541571886821837E9, 0.0, 2022-06-02 10:06:28.682
213.0, 24839.895944582935, 8968.525703969683, -68890.64686186872, -51324.299135720634, -40782.36708430852, -43260.14736415713, -13136.388437317424, -46060.84329615156, 0.01, 0.792, 0.634, 192.0, 0.0, 0.0, 0.0, 0.0, 0.0, 0.0, 0.0, 0.0, 0.0, 1.6541571886821892E9, 0.0, 2022-06-02 10:06:28.682
214.0, 24839.940648071846, 8968.05631733612, -68883.04726875393, -51330.55762416812, -40790.90545069044, -43270.49622183994, -13162.025888207661, -46077.49534577076, 0.01, 0.792, 0.634, 192.0, 0.0, 0.0, 0.0, 0.0, 0.0, 0.0, 0.0, 0.0, 0.0, 1.6541571886821964E9, 0.0, 2022-06-02 10:06:28.682
215.0, 24838.7113021268, 8969.844456892546, -68865.07646621186, -51322.66745837539, -40774.02988362669, -43254.02298617637, -13131.024018648151, -46037.262205751205, 0.01, 0.788, 0.628, 192.0, 0.0, 80.0, 24.0, 160.0, 19.0, 160.0, 0.0, 0.0, 0.0, 1.654157188682202E9, 0.0, 2022-06-02 10:06:28.682
216.0, 24842.421691706382, 8972.258445293719, -68848.82674799285, -51306.99888551222, -40759.63536019747, -43234.84518943372, -13107.934666625819, -46000.94062101134, 0.01, 0.788, 0.628, 192.0, 0.0, 0.0, 0.0, 0.0, 0.0, 0.0, 0.0, 0.0, 0.0, 1.6541571886822076E9, 0.0, 2022-06-02 10:06:28.682
217.0, 24838.241915493243, 8972.213741804808, -68852.89476548371, -51307.021237256675, -40764.910371888924, -43234.21934058897, -13113.768471928654, -46002.48289137875, 0.01, 0.788, 0.628, 192.0, 0.0, 0.0, 0.0, 0.0, 0.0, 0.0, 0.0, 0.0, 0.0, 1.6541571886822133E9, 0.0, 2022-06-02 10:06:28.682
218.0, 24837.750177115224, 8967.899855124933, -68870.06090522539, -51322.04160953064, -40774.566325493615, -43251.22901811946, -13104.78307065762, -46021.124246254476, 0.01, 0.788, 0.628, 192.0, 0.0, 0.0, 0.0, 0.0, 0.0, 0.0, 0.0, 0.0, 0.0, 1.6541571886822183E9, 0.0, 2022-06-02 10:06:28.682
219.0, 24844.589810918547, 8970.738526670757, -68861.23196616555, -51318.01829552869, -40774.20869758233, -43253.620654776176, -13118.21646907526, -46023.38177244446, 0.01, 0.788, 0.628, 192.0, 0.0, 0.0, 0.0, 0.0, 0.0, 0.0, 0.0, 0.0, 0.0, 1.654157188682224E9, 0.0, 2022-06-02 10:06:28.682
220.0, 24845.841508608046, 8978.986320374766, -68844.51286131298, -51299.421644141876, -40752.23693278276, -43234.77813420035, -13090.54500943959, -45998.07959772106, 0.01, 0.788, 0.628, 192.0, 0.0, 0.0, 0.0, 0.0, 0.0, 0.0, 0.0, 0.0, 0.0, 1.6541571886822293E9, 0.0, 2022-06-02 10:06:28.682
221.0, 24836.990217803745, 8974.605378461525, -68842.05416942289, -51291.26325741569, -40749.889999614956, -43221.07651484925, -13064.281709704605, -45977.11366142198, 0.01, 0.788, 0.628, 192.0, 0.0, 0.0, 0.0, 0.0, 0.0, 0.0, 0.0, 0.0, 0.0, 1.6541571886822371E9, 0.0, 2022-06-02 10:06:28.682
222.0, 24832.117537512488, 8968.324538269584, -68862.08133245485, -51299.64516158643, -40769.85010741355, -43228.36318354168, -13091.953169340273, -46000.38182739995, 0.01, 0.788, 0.628, 192.0, 0.0, 0.0, 0.0, 0.0, 0.0, 0.0, 0.0, 0.0, 0.0, 1.6541571886822453E9, 0.0, 2022-06-02 10:06:28.682
223.0, 24825.613179875993, 8963.54126495615, -68888.38933567874, -51319.02412402918, -40794.79465422567, -43248.18918087354, -13145.083265910538, -46035.33995572805, 0.01, 0.788, 0.628, 192.0, 0.0, 0.0, 0.0, 0.0, 0.0, 0.0, 0.0, 0.0, 0.0, 1.6541571886822507E9, 0.0, 2022-06-02 10:06:28.682
224.0, 24831.022302034176, 8968.995090603245, -68878.28634718494, -51317.97359203978, -40790.81604371262, -43251.49723905292, -13156.594414305022, -46039.05034530763, 0.01, 0.788, 0.628, 192.0, 0.0, 0.0, 0.0, 0.0, 0.0, 0.0, 0.0, 0.0, 0.0, 1.6541571886822565E9, 0.0, 2022-06-02 10:06:28.682
225.0, 24841.505270183716, 8980.238018064263, -68853.36415211727, -51296.739434807234, -40762.20581080983, -43229.36901204217, -13087.192247771294, -45991.396426128915, 0.01, 0.798, 0.634, 192.0, 0.0, 80.0, 24.0, 240.0, 19.0, 208.0, 0.0, 0.0, 0.0, 1.654157188682262E9, 0.0, 2022-06-02 10:06:28.682
226.0, 24849.753063887725, 8989.73750945777, -68838.90257345469, -51278.7015770318, -40748.772412392194, -43213.61103220118, -13071.009584785652, -45981.539306824125, 0.01, 0.798, 0.634, 192.0, 0.0, 0.0, 0.0, 0.0, 0.0, 0.0, 0.0, 0.0, 0.0, 1.6541571886822677E9, 0.0, 2022-06-02 10:06:28.682
227.0, 24851.138872043954, 8985.691843711358, -68853.4535590951, -51282.52372533366, -40746.961921091315, -43213.99101185692, -13076.195189499282, -45996.24675467572, 0.01, 0.798, 0.634, 192.0, 0.0, 0.0, 0.0, 0.0, 0.0, 0.0, 0.0, 0.0, 0.0, 1.654157188682273E9, 0.0, 2022-06-02 10:06:28.682
228.0, 24844.09807254053, 8973.957177872322, -68867.22223367957, -51302.08150173206, -40762.69754918785, -43235.582797000745, -13080.620834901434, -46009.72485658227, 0.01, 0.798, 0.634, 192.0, 0.0, 0.0, 0.0, 0.0, 0.0, 0.0, 0.0, 0.0, 0.0, 1.6541571886822784E9, 0.0, 2022-06-02 10:06:28.682
229.0, 24850.9153545994, 8981.176791331387, -68847.999733448, -51299.756920308704, -40755.99202585126, -43239.38259355815, -13078.87739883392, -46003.73458906825, 0.01, 0.798, 0.634, 192.0, 0.0, 0.0, 0.0, 0.0, 0.0, 0.0, 0.0, 0.0, 0.0, 1.6541571886822839E9, 0.0, 2022-06-02 10:06:28.682
230.0, 24842.82402310658, 8974.9183028839, -68840.4448438221, -51305.90365003391, -40756.953150862835, -43248.36799482918, -13104.291332279603, -46029.34968821403, 0.01, 0.798, 0.634, 192.0, 0.0, 0.0, 0.0, 0.0, 0.0, 0.0, 0.0, 0.0, 0.0, 1.6541571886822891E9, 0.0, 2022-06-02 10:06:28.682
231.0, 24824.048557764123, 8959.383840487462, -68846.9492014586, -51317.75007459523, -40767.726691690295, -43249.619692518674, -13125.190213345315, -46031.00371730372, 0.01, 0.798, 0.634, 192.0, 0.0, 0.0, 0.0, 0.0, 0.0, 0.0, 0.0, 0.0, 0.0, 1.6541571886822948E9, 0.0, 2022-06-02 10:06:28.682
232.0, 24820.62874086246, 8960.054392821121, -68851.24073639401, -51320.320525207586, -40765.826793411594, -43246.758669228395, -13115.444852762801, -46024.94639455633, 0.01, 0.798, 0.634, 192.0, 0.0, 0.0, 0.0, 0.0, 0.0, 0.0, 0.0, 0.0, 0.0, 1.6541571886823006E9, 0.0, 2022-06-02 10:06:28.682
233.0, 24824.607351375504, 8963.071878322588, -68860.27084115396, -51325.72964736577, -40765.8714969005, -43251.31842509728, -13104.246628790694, -46021.23600497675, 0.01, 0.798, 0.634, 192.0, 0.0, 0.0, 0.0, 0.0, 0.0, 0.0, 0.0, 0.0, 0.0, 1.6541571886823075E9, 0.0, 2022-06-02 10:06:28.682
234.0, 24840.544145172138, 8977.131125584976, -68850.57018406036, -51315.850176316526, -40767.92785739039, -43247.92095994007, -13122.440948777314, -46015.62571711847, 0.01, 0.798, 0.634, 192.0, 0.0, 0.0, 0.0, 0.0, 0.0, 0.0, 0.0, 0.0, 0.0, 1.6541571886823156E9, 0.0, 2022-06-02 10:06:28.682
235.0, 24847.607296420014, 8983.233151821274, -68837.13678564272, -51302.707350576806, -40756.41670899591, -43233.45938127749, -13107.822907903543, -46001.879394278454, 0.012, 0.798, 0.63, 192.0, 0.0, 96.0, 24.0, 240.0, 19.0, 176.0, 0.0, 0.0, 0.0, 1.6541571886823244E9, 0.0, 2022-06-02 10:06:28.682
236.0, 24837.39254920394, 8975.655910450925, -68839.61782927727, -51301.857984287504, -40748.32537750308, -43227.6032242302, -13083.34774772498, -45981.829879502046, 0.012, 0.798, 0.63, 192.0, 0.0, 0.0, 0.0, 0.0, 0.0, 0.0, 0.0, 0.0, 0.0, 1.6541571886823328E9, 0.0, 2022-06-02 10:06:28.682
237.0, 24842.10876728401, 8978.606340719025, -68847.10566366979, -51300.20395519781, -40743.00566232272, -43228.519645752865, -13080.285558734604, -45986.7025597933, 0.012, 0.798, 0.63, 192.0, 0.0, 0.0, 0.0, 0.0, 0.0, 0.0, 0.0, 0.0, 0.0, 1.6541571886823392E9, 0.0, 2022-06-02 10:06:28.682
238.0, 24845.997970819233, 8978.762802930212, -68867.87043426877, -51312.832690815056, -40754.58386595057, -43245.48461979444, -13094.791840886099, -46016.38567642995, 0.012, 0.798, 0.63, 192.0, 0.0, 0.0, 0.0, 0.0, 0.0, 0.0, 0.0, 0.0, 0.0, 1.6541571886823452E9, 0.0, 2022-06-02 10:06:28.682
239.0, 24853.44110172285, 8979.67922445288, -68865.79172203442, -51315.82782457207, -40759.36713926401, -43254.91705595458, -13108.113480581462, -46027.427438190876, 0.012, 0.798, 0.63, 192.0, 0.0, 0.0, 0.0, 0.0, 0.0, 0.0, 0.0, 0.0, 0.0, 1.654157188682352E9, 0.0, 2022-06-02 10:06:28.682
240.0, 24846.087377797056, 8976.974663373789, -68856.4039893632, -51309.614039613494, -40764.68685444437, -43238.98026215795, -13105.274809035636, -45991.66464706238, 0.012, 0.798, 0.63, 192.0, 0.0, 0.0, 0.0, 0.0, 0.0, 0.0, 0.0, 0.0, 0.0, 1.6541571886823585E9, 0.0, 2022-06-02 10:06:28.682
241.0, 24833.659807879903, 8971.565541215605, -68856.38163761875, -51311.80451057012, -40759.613008453016, -43235.96277665649, -13092.623721673934, -45993.05045521861, 0.012, 0.798, 0.63, 192.0, 0.0, 0.0, 0.0, 0.0, 0.0, 0.0, 0.0, 0.0, 0.0, 1.6541571891614673E9, 0.0, 2022-06-02 10:06:29.161
242.0, 24840.924124827878, 8973.241922049752, -68858.61681206427, -51304.83076630006, -40751.409918237914, -43226.19506432951, -13083.727727380721, -45998.99601924372, 0.012, 0.798, 0.63, 192.0, 0.0, 0.0, 0.0, 0.0, 0.0, 0.0, 0.0, 0.0, 0.0, 1.6541571891616735E9, 0.0, 2022-06-02 10:06:29.161
243.0, 24832.430461934862, 8963.742430656246, -68878.84514079633, -51319.51586240719, -40771.23591556978, -43244.18821861604, -13120.943381898807, -46026.80158934613, 0.012, 0.798, 0.63, 192.0, 0.0, 0.0, 0.0, 0.0, 0.0, 0.0, 0.0, 0.0, 0.0, 1.65415718916168E9, 0.0, 2022-06-02 10:06:29.161
244.0, 24846.623819663982, 8971.744355171246, -68864.13769294473, -51310.306943691605, -40764.575095722095, -43242.24361684843, -13115.400149273892, -46018.2632229642, 0.012, 0.798, 0.63, 192.0, 0.0, 0.0, 0.0, 0.0, 0.0, 0.0, 0.0, 0.0, 0.0, 1.654157189161686E9, 0.0, 2022-06-02 10:06:29.161
245.0, 24844.947438829833, 8975.432393006373, -68848.78204450394, -51298.54992610811, -40755.29912177314, -43231.671241721066, -13117.814137675065, -46017.123283996974, 0.008, 0.8, 0.628, 192.0, 0.0, 64.0, 25.0, 0.0, 19.0, 160.0, 0.0, 0.0, 0.0, 1.654157189161692E9, 0.0, 2022-06-02 10:06:29.161
246.0, 24831.558743901103, 8972.571369716094, -68845.87631772475, -51296.51591736268, -40746.24666526874, -43233.638195233136, -13106.727672425232, -46035.228197005774, 0.008, 0.8, 0.628, 192.0, 0.0, 0.0, 0.0, 0.0, 0.0, 0.0, 0.0, 0.0, 0.0, 1.6541571891616979E9, 0.0, 2022-06-02 10:06:29.161
247.0, 24827.982464788256, 8970.269140037197, -68854.86171899579, -51298.19229819683, -40748.973578092286, -43232.31944231027, -13107.085300336517, -46033.149484771435, 0.008, 0.8, 0.628, 192.0, 0.0, 0.0, 0.0, 0.0, 0.0, 0.0, 0.0, 0.0, 0.0, 1.6541571891617036E9, 0.0, 2022-06-02 10:06:29.161
248.0, 24841.68408413936, 8969.799753403635, -68854.59349806231, -51299.19812669732, -40755.81321189561, -43220.58477647123, -13094.836544375008, -45979.08061493404, 0.008, 0.8, 0.628, 192.0, 0.0, 0.0, 0.0, 0.0, 0.0, 0.0, 0.0, 0.0, 0.0, 1.6541571891617093E9, 0.0, 2022-06-02 10:06:29.161
249.0, 24854.759854645712, 8972.280797038175, -68847.44093983663, -51295.554792351104, -40755.85791538452, -43219.10956133718, -13081.894884335386, -45960.03692865812, 0.008, 0.8, 0.628, 192.0, 0.0, 0.0, 0.0, 0.0, 0.0, 0.0, 0.0, 0.0, 0.0, 1.6541571891617148E9, 0.0, 2022-06-02 10:06:29.161
250.0, 24835.20207824732, 8963.653023678426, -68851.48660558304, -51301.74622556523, -40767.54787773465, -43231.20185508751, -13116.383626029925, -46001.119434966975, 0.008, 0.8, 0.628, 192.0, 0.0, 0.0, 0.0, 0.0, 0.0, 0.0, 0.0, 0.0, 0.0, 1.6541571891617205E9, 0.0, 2022-06-02 10:06:29.161
251.0, 24825.34495894253, 8957.506293953216, -68854.39233236221, -51305.32250467807, -40773.91812490441, -43234.398154544615, -13142.803387976097, -46014.888109551444, 0.008, 0.8, 0.628, 192.0, 0.0, 0.0, 0.0, 0.0, 0.0, 0.0, 0.0, 0.0, 0.0, 1.654157189161726E9, 0.0, 2022-06-02 10:06:29.161
252.0, 24837.0125695482, 8965.351756257029, -68855.71108528509, -51300.673341831374, -40756.99785435174, -43230.41954403157, -13104.760718913165, -46006.97559201427, 0.008, 0.8, 0.628, 192.0, 0.0, 0.0, 0.0, 0.0, 0.0, 0.0, 0.0, 0.0, 0.0, 1.6541571891617315E9, 0.0, 2022-06-02 10:06:29.161
253.0, 24833.77156660218, 8958.378011986973, -68882.73434433155, -51322.22042348629, -40773.851069671044, -43254.313558854294, -13121.524527254645, -46042.15723778692, 0.008, 0.8, 0.628, 192.0, 0.0, 0.0, 0.0, 0.0, 0.0, 0.0, 0.0, 0.0, 0.0, 1.6541571891617372E9, 0.0, 2022-06-02 10:06:29.161
254.0, 24826.48489790975, 8955.829913119069, -68891.85385606931, -51330.177644512376, -40784.982238409786, -43263.6118845477, -13134.98027741674, -46042.44781046484, 0.008, 0.8, 0.628, 192.0, 0.0, 0.0, 0.0, 0.0, 0.0, 0.0, 0.0, 0.0, 0.0, 1.6541571891617427E9, 0.0, 2022-06-02 10:06:29.161
255.0, 24823.042729263634, 8955.941671841345, -68884.8577600548, -51327.47308343328, -40767.83845041257, -43261.33200661326, -13105.610085202467, -46030.78019985917, 0.008, 0.788, 0.626, 192.0, 0.0, 64.0, 24.0, 160.0, 19.0, 144.0, 0.0, 0.0, 0.0, 1.6541571891617482E9, 0.0, 2022-06-02 10:06:29.161
0.0, 24822.640397863437, 8958.310956753607, -68869.50211161401, -51318.64414437344, -40755.410880495416, -43246.84807620622, -13092.02022457364, -46006.77442631417, 0.008, 0.788, 0.626, 192.0, 0.0, 0.0, 0.0, 0.0, 0.0, 0.0, 0.0, 0.0, 0.0, 1.654157189161765E9, 0.0, 2022-06-02 10:06:29.161
1.0, 24825.255551964707, 8959.562654443103, -68874.88888202774, -51318.68884786235, -40752.21458103831, -43240.76840171438, -13088.712166394254, -46000.6053448445, 0.008, 0.788, 0.626, 192.0, 0.0, 0.0, 0.0, 0.0, 0.0, 0.0, 0.0, 0.0, 0.0, 1.6541571891617708E9, 0.0, 2022-06-02 10:06:29.161
2.0, 24832.318703212586, 8956.411058474905, -68892.6138153808, -51333.530406180675, -40771.21356382532, -43259.923846712576, -13120.16107084287, -46038.62566216298, 0.008, 0.788, 0.626, 192.0, 0.0, 0.0, 0.0, 0.0, 0.0, 0.0, 0.0, 0.0, 0.0, 1.654157189161776E9, 0.0, 2022-06-02 10:06:29.161
3.0, 24831.35757820101, 8956.902796852923, -68884.2542629545, -51332.88220559147, -40770.90063940294, -43266.13763167115, -13122.150376099395, -46039.49738019674, 0.008, 0.788, 0.626, 192.0, 0.0, 0.0, 0.0, 0.0, 0.0, 0.0, 0.0, 0.0, 0.0, 1.654157189161781E9, 0.0, 2022-06-02 10:06:29.161
4.0, 24820.181705973355, 8953.840607862545, -68872.83252153784, -51326.5119584217, -40766.050310856146, -43258.20276238951, -13113.857878906474, -46025.527539912175, 0.008, 0.788, 0.626, 192.0, 0.0, 0.0, 0.0, 0.0, 0.0, 0.0, 0.0, 0.0, 0.0, 1.6541571891617863E9, 0.0, 2022-06-02 10:06:29.161
5.0, 24818.34886292802, 8957.327479997573, -68863.19891967761, -51312.31860069258, -40766.56440097862, -43241.28249183685, -13123.26796332216, -46005.25450769121, 0.008, 0.788, 0.626, 192.0, 0.0, 0.0, 0.0, 0.0, 0.0, 0.0, 0.0, 0.0, 0.0, 1.654157189161792E9, 0.0, 2022-06-02 10:06:29.161
6.0, 24817.745365827726, 8958.176846286875, -68868.31746915788, -51310.0610745026, -40767.726691690295, -43242.444782548526, -13116.808309174576, -46023.80645558911, 0.008, 0.788, 0.626, 192.0, 0.0, 0.0, 0.0, 0.0, 0.0, 0.0, 0.0, 0.0, 0.0, 1.6541571891617973E9, 0.0, 2022-06-02 10:06:29.161
7.0, 24814.52671462616, 8957.126314297475, -68888.99283277904, -51324.656763631916, -40783.81994769811, -43256.36991934418, -13132.566289015567, -46050.22621753529, 0.008, 0.788, 0.626, 192.0, 0.0, 0.0, 0.0, 0.0, 0.0, 0.0, 0.0, 0.0, 0.0, 1.6541571891618023E9, 0.0, 2022-06-02 10:06:29.161
8.0, 24817.655958849904, 8960.993166088243, -68888.6575566122, -51325.03674328765, -40787.26211634423, -43258.94036995654, -13132.588640760023, -46053.422516992396, 0.008, 0.788, 0.626, 192.0, 0.0, 0.0, 0.0, 0.0, 0.0, 0.0, 0.0, 0.0, 0.0, 1.6541571891618075E9, 0.0, 2022-06-02 10:06:29.161
9.0, 24828.965941544287, 8964.502389967727, -68870.79851279242, -51309.278763446666, -40778.88021217349, -43248.12212564017, -13127.671256979855, -46048.70629891232, 0.004, 0.794, 0.628, 192.0, 0.0, 32.0, 24.0, 208.0, 19.0, 160.0, 0.0, 0.0, 0.0, 1.6541571891618128E9, 0.0, 2022-06-02 10:06:29.161
10.0, 24831.35757820101, 8968.279834780675, -68860.4049516207, -51293.94546675032, -40764.64215095546, -43221.74706718291, -13101.676178178333, -46003.62283034597, 0.004, 0.794, 0.628, 192.0, 0.0, 0.0, 0.0, 0.0, 0.0, 0.0, 0.0, 0.0, 0.0, 1.654157189161818E9, 0.0, 2022-06-02 10:06:29.161
11.0, 24825.456717664805, 8963.697727167337, -68868.45157962461, -51295.554792351104, -40764.12806083299, -43216.33794502472, -13093.696605407788, -46001.2088419448, 0.004, 0.794, 0.628, 192.0, 0.0, 0.0, 0.0, 0.0, 0.0, 0.0, 0.0, 0.0, 0.0, 1.654157189161823E9, 0.0, 2022-06-02 10:06:29.161
12.0, 24832.519868912685, 8963.742430656246, -68882.62258560928, -51304.56254536659, -40777.986142395275, -43223.51285499488, -13107.085300336517, -46012.07178975008, 0.004, 0.794, 0.628, 192.0, 0.0, 0.0, 0.0, 0.0, 0.0, 0.0, 0.0, 0.0, 0.0, 1.654157189161828E9, 0.0, 2022-06-02 10:06:29.161
13.0, 24829.412976433396, 8961.909587610911, -68880.76739081948, -51309.79285356914, -40781.18244185239, -43232.54295975482, -13106.682968936322, -46009.367228670984, 0.004, 0.794, 0.628, 192.0, 0.0, 0.0, 0.0, 0.0, 0.0, 0.0, 0.0, 0.0, 0.0, 1.6541571891618333E9, 0.0, 2022-06-02 10:06:29.161
14.0, 24830.73172935626, 8968.279834780675, -68862.34955338831, -51296.44886212932, -40760.48472648677, -43220.87534914915, -13093.49543970769, -45999.934792510845, 0.004, 0.794, 0.628, 192.0, 0.0, 0.0, 0.0, 0.0, 0.0, 0.0, 0.0, 0.0, 0.0, 1.6541571891618383E9, 0.0, 2022-06-02 10:06:29.161
15.0, 24825.76964208718, 8969.620939447992, -68857.16394867467, -51288.648103314415, -40754.38270025048, -43211.01822984436, -13090.142678039394, -45992.737530796236, 0.004, 0.794, 0.628, 192.0, 0.0, 0.0, 0.0, 0.0, 0.0, 0.0, 0.0, 0.0, 0.0, 1.6541571891618435E9, 0.0, 2022-06-02 10:06:29.161
16.0, 24822.416880418885, 8967.564578958105, -68870.39618139222, -51294.10192896151, -40758.204848552334, -43220.473017748955, -13103.911352623863, -46013.12232173948, 0.004, 0.794, 0.628, 192.0, 0.0, 0.0, 0.0, 0.0, 0.0, 0.0, 0.0, 0.0, 0.0, 1.6541571891618488E9, 0.0, 2022-06-02 10:06:29.161
17.0, 24830.53056365616, 8966.514046968705, -68879.24747219653, -51306.10481573401, -40766.87732540099, -43235.73925921193, -13106.101823580484, -46027.24862423523, 0.004, 0.794, 0.628, 192.0, 0.0, 0.0, 0.0, 0.0, 0.0, 0.0, 0.0, 0.0, 0.0, 1.6541571891618536E9, 0.0, 2022-06-02 10:06:29.161
18.0, 24835.00091254722, 8963.273044022686, -68875.93941401714, -51315.47019666078, -40777.82968018409, -43251.43018381956, -13121.457472021279, -46042.33605174256, 0.006, 0.794, 0.63, 192.0, 0.0, 48.0, 24.0, 208.0, 19.0, 176.0, 0.0, 0.0, 0.0, 1.6541571891618588E9, 0.0, 2022-06-02 10:06:29.161
19.0, 24836.453775936818, 8969.06214583661, -68861.38842837673, -51309.59168786904, -40769.00074112425, -43250.469058807976, -13131.716922726266, -46049.93564485737, 0.006, 0.794, 0.63, 192.0, 0.0, 0.0, 0.0, 0.0, 0.0, 0.0, 0.0, 0.0, 0.0, 1.654157189161864E9, 0.0, 2022-06-02 10:06:29.161
20.0, 24830.754081100713, 8966.9163783689, -68857.92390798616, -51308.04941750162, -40756.84139214056, -43243.94234942703, -13112.226201561238, -46031.87543533748, 0.006, 0.794, 0.63, 192.0, 0.0, 0.0, 0.0, 0.0, 0.0, 0.0, 0.0, 0.0, 0.0, 1.6541571891618698E9, 0.0, 2022-06-02 10:06:29.161
21.0, 24830.463508422796, 8963.027174833676, -68864.42826562266, -51309.904612291415, -40754.092127572556, -43239.98609065844, -13096.043538575595, -46017.19033923034, 0.006, 0.794, 0.63, 192.0, 0.0, 0.0, 0.0, 0.0, 0.0, 0.0, 0.0, 0.0, 0.0, 1.654157189161875E9, 0.0, 2022-06-02 10:06:29.161
22.0, 24830.619970633983, 8958.042735820143, -68885.77418157746, -51328.076580533576, -40773.20286908184, -43251.16196288609, -13114.819003918054, -46028.76854285819, 0.006, 0.794, 0.63, 192.0, 0.0, 0.0, 0.0, 0.0, 0.0, 0.0, 0.0, 0.0, 0.0, 1.6541571891618829E9, 0.0, 2022-06-02 10:06:29.161
23.0, 24821.947493785323, 8950.398439216428, -68893.93256830366, -51337.82194111609, -40787.55268902215, -43258.448631578525, -13133.303896582593, -46026.645127134936, 0.006, 0.794, 0.63, 192.0, 0.0, 0.0, 0.0, 0.0, 0.0, 0.0, 0.0, 0.0, 0.0, 1.654157189161888E9, 0.0, 2022-06-02 10:06:29.161
24.0, 24811.732746569247, 8945.414000202894, -68893.39612643672, -51339.58772892806, -40793.96763968082, -43260.10266066821, -13156.214434649282, -46028.813246347105, 0.006, 0.794, 0.63, 192.0, 0.0, 0.0, 0.0, 0.0, 0.0, 0.0, 0.0, 0.0, 0.0, 1.6541571891618931E9, 0.0, 2022-06-02 10:06:29.161
25.0, 24812.179781458355, 8956.545168941639, -68876.83348379534, -51324.1650252539, -40769.738348691266, -43245.52932328336, -13129.325286069547, -46027.472141679784, 0.006, 0.794, 0.63, 192.0, 0.0, 0.0, 0.0, 0.0, 0.0, 0.0, 0.0, 0.0, 0.0, 1.6541571891618981E9, 0.0, 2022-06-02 10:06:29.161
26.0, 24818.57238037257, 8966.782267902168, -68879.38158266325, -51313.92792629337, -40751.566380449105, -43237.14741911262, -13096.423518231335, -46027.91917656889, 0.006, 0.794, 0.63, 192.0, 0.0, 0.0, 0.0, 0.0, 0.0, 0.0, 0.0, 0.0, 0.0, 1.6541571891619031E9, 0.0, 2022-06-02 10:06:29.161
27.0, 24827.37896768796, 8968.279834780675, -68891.58563513585, -51316.94541179483, -40762.69754918785, -43238.712041224484, -13087.147544282383, -46013.54700488413, 0.006, 0.794, 0.63, 192.0, 0.0, 0.0, 0.0, 0.0, 0.0, 0.0, 0.0, 0.0, 0.0, 1.6541571891619084E9, 0.0, 2022-06-02 10:06:29.161
28.0, 24834.19624974683, 8965.77643940168, -68889.2610537125, -51318.95706879581, -40770.2747905582, -43239.47200053597, -13082.677195391321, -45989.92121099487, 0.012, 0.8, 0.632, 192.0, 0.0, 96.0, 25.0, 0.0, 19.0, 192.0, 0.0, 0.0, 0.0, 1.6541571891619136E9, 0.0, 2022-06-02 10:06:29.161
29.0, 24824.987331031243, 8958.82504687608, -68887.5623211339, -51321.572222897084, -40774.700435960345, -43243.85294244921, -13100.178611299827, -46001.70058032282, 0.012, 0.8, 0.632, 192.0, 0.0, 0.0, 0.0, 0.0, 0.0, 0.0, 0.0, 0.0, 0.0, 1.6541571891619189E9, 0.0, 2022-06-02 10:06:29.161
30.0, 24819.421746661872, 8959.562654443103, -68880.81209430839, -51319.78408334066, -40767.726691690295, -43248.34564308472, -13108.873439892941, -46028.12034226899, 0.012, 0.8, 0.632, 192.0, 0.0, 0.0, 0.0, 0.0, 0.0, 0.0, 0.0, 0.0, 0.0, 1.654157189161924E9, 0.0, 2022-06-02 10:06:29.161
31.0, 24816.426612904863, 8956.478113708272, -68887.98700427855, -51324.723818865285, -40774.02988362669, -43254.805297232306, -13124.318495311558, -46048.41572623441, 0.012, 0.8, 0.632, 192.0, 0.0, 0.0, 0.0, 0.0, 0.0, 0.0, 0.0, 0.0, 0.0, 1.654157189161929E9, 0.0, 2022-06-02 10:06:29.161
32.0, 24818.460621650294, 8950.510197938705, -68904.19201900864, -51337.97840332728, -40792.76064548024, -43262.5613525583, -13135.851995450497, -46040.88318835297, 0.012, 0.8, 0.632, 192.0, 0.0, 0.0, 0.0, 0.0, 0.0, 0.0, 0.0, 0.0, 0.0, 1.654157189161934E9, 0.0, 2022-06-02 10:06:29.161
33.0, 24831.111709012, 8960.68024166587, -68890.02101302397, -51329.79766485663, -40786.32334307711, -43262.09196592474, -13133.750931471699, -46045.06296456611, 0.012, 0.8, 0.632, 192.0, 0.0, 0.0, 0.0, 0.0, 0.0, 0.0, 0.0, 0.0, 0.0, 1.6541571891619396E9, 0.0, 2022-06-02 10:06:29.161
34.0, 24820.181705973355, 8958.042735820143, -68876.58761460634, -51319.135882751456, -40777.04736912815, -43252.637178020144, -13113.902582395385, -46015.40219967392, 0.012, 0.8, 0.632, 192.0, 0.0, 0.0, 0.0, 0.0, 0.0, 0.0, 0.0, 0.0, 0.0, 1.6541571891619449E9, 0.0, 2022-06-02 10:06:29.161
35.0, 24811.643339591425, 8953.192407273342, -68877.72755357355, -51318.46533041779, -40777.04736912815, -43250.62552101917, -13121.569230743557, -46004.18162395735, 0.012, 0.8, 0.632, 192.0, 0.0, 0.0, 0.0, 0.0, 0.0, 0.0, 0.0, 0.0, 0.0, 1.6541571891619499E9, 0.0, 2022-06-02 10:06:29.161
36.0, 24815.376080915463, 8958.601529431526, -68874.97828900555, -51312.43035941486, -40765.58092422258, -43247.74214598443, -13104.805422402076, -46016.1621589854, 0.012, 0.8, 0.632, 192.0, 0.0, 0.0, 0.0, 0.0, 0.0, 0.0, 0.0, 0.0, 0.0, 1.6541571891619549E9, 0.0, 2022-06-02 10:06:29.161
37.0, 24818.885304794945, 8955.092305552043, -68900.50398117352, -51326.042571788144, -40789.74315997877, -43266.11527992669, -13136.41078906188, -46056.75292691623, 0.012, 0.8, 0.632, 192.0, 0.0, 0.0, 0.0, 0.0, 0.0, 0.0, 0.0, 0.0, 0.0, 1.65415718916196E9, 0.0, 2022-06-02 10:06:29.161
38.0, 24826.976636287767, 8952.521854939683, -68904.30377773092, -51330.7140863793, -40798.348581594066, -43270.71973928449, -13138.780073974141, -46055.90356062693, 0.016, 0.802, 0.632, 192.0, 0.0, 128.0, 25.0, 16.0, 19.0, 192.0, 0.0, 0.0, 0.0, 1.6541571891619651E9, 0.0, 2022-06-02 10:06:29.161
39.0, 24830.687025867348, 8963.653023678426, -68875.98411750604, -51309.14465297993, -40776.71209296132, -43243.22709360446, -13110.706282938276, -46012.04943800562, 0.016, 0.802, 0.632, 192.0, 0.0, 0.0, 0.0, 0.0, 0.0, 0.0, 0.0, 0.0, 0.0, 1.6541571891619709E9, 0.0, 2022-06-02 10:06:29.161
40.0, 24818.371214672472, 8962.289567266651, -68873.30190817142, -51308.40704541291, -40773.851069671044, -43233.99582314442, -13118.663503964366, -46005.67919083586, 0.016, 0.802, 0.632, 192.0, 0.0, 0.0, 0.0, 0.0, 0.0, 0.0, 0.0, 0.0, 0.0, 1.6541571891619759E9, 0.0, 2022-06-02 10:06:29.161
41.0, 24817.454793149805, 8960.412020732407, -68885.10362924381, -51321.75103685272, -40776.957962150336, -43250.15613438561, -13132.365123315469, -46042.69367965385, 0.016, 0.802, 0.632, 192.0, 0.0, 0.0, 0.0, 0.0, 0.0, 0.0, 0.0, 0.0, 0.0, 1.6541571891619809E9, 0.0, 2022-06-02 10:06:29.161
42.0, 24828.07187176608, 8967.34106151355, -68891.51857990249, -51331.89872883543, -40778.56728775112, -43261.734338013455, -13119.177594086837, -46056.417650749405, 0.016, 0.802, 0.632, 192.0, 0.0, 0.0, 0.0, 0.0, 0.0, 0.0, 0.0, 0.0, 0.0, 1.654157189161986E9, 0.0, 2022-06-02 10:06:29.161
43.0, 24829.77060434468, 8963.921244611889, -68888.90342580121, -51339.185397527865, -40786.591564010574, -43262.65075953612, -13110.862745149463, -46021.23600497675, 0.016, 0.802, 0.632, 192.0, 0.0, 0.0, 0.0, 0.0, 0.0, 0.0, 0.0, 0.0, 0.0, 1.6541571891619933E9, 0.0, 2022-06-02 10:06:29.161
44.0, 24829.189458988843, 8968.972738858789, -68867.13282670174, -51325.6625921324, -40768.620761468504, -43251.586646030744, -13095.372986241937, -46009.0096007597, 0.016, 0.802, 0.632, 192.0, 0.0, 0.0, 0.0, 0.0, 0.0, 0.0, 0.0, 0.0, 0.0, 1.654157189161998E9, 0.0, 2022-06-02 10:06:29.161
45.0, 24824.026206019666, 8967.497523724738, -68865.70231505661, -51322.53334790866, -40770.095976602555, -43251.49723905292, -13126.821890690553, -46044.1688947879, 0.016, 0.802, 0.632, 192.0, 0.0, 0.0, 0.0, 0.0, 0.0, 0.0, 0.0, 0.0, 0.0, 1.6541571891620033E9, 0.0, 2022-06-02 10:06:29.162
46.0, 24824.67440660887, 8966.044660335143, -68875.64884133922, -51325.59553689904, -40777.31559006162, -43253.1065646537, -13129.83937619202, -46050.695604168846, 0.016, 0.802, 0.632, 192.0, 0.0, 0.0, 0.0, 0.0, 0.0, 0.0, 0.0, 0.0, 0.0, 1.6541571891620083E9, 0.0, 2022-06-02 10:06:29.162
47.0, 24830.664674122894, 8969.151552814432, -68885.21538796609, -51328.3671532115, -40780.713055218825, -43247.250407606414, -13113.455547506279, -46034.334127227565, 0.016, 0.802, 0.632, 192.0, 0.0, 0.0, 0.0, 0.0, 0.0, 0.0, 0.0, 0.0, 0.0, 1.6541571891620138E9, 0.0, 2022-06-02 10:06:29.162
48.0, 24835.403243947418, 8970.559712715116, -68881.34853617533, -51324.56735665409, -40786.41275005493, -43252.79364023133, -13133.303896582593, -46043.23012152078, 0.01, 0.806, 0.626, 192.0, 0.0, 80.0, 25.0, 48.0, 19.0, 144.0, 0.0, 0.0, 0.0, 1.654157189162019E9, 0.0, 2022-06-02 10:06:29.162
49.0, 24826.037863020643, 8960.792000388146, -68880.16389371919, -51323.20390024232, -40780.06485462962, -43253.88887570964, -13116.07070160755, -46035.07173479459, 0.01, 0.806, 0.626, 192.0, 0.0, 0.0, 0.0, 0.0, 0.0, 0.0, 0.0, 0.0, 0.0, 1.6541571891620247E9, 0.0, 2022-06-02 10:06:29.162
50.0, 24819.24293270623, 8957.43923871985, -68873.92775701616, -51318.13005425096, -40773.20286908184, -43240.813105203284, -13097.87638162093, -46011.44594090533, 0.01, 0.806, 0.626, 192.0, 0.0, 0.0, 0.0, 0.0, 0.0, 0.0, 0.0, 0.0, 0.0, 1.6541571891620307E9, 0.0, 2022-06-02 10:06:29.162
51.0, 24820.114650739986, 8960.456724221316, -68881.6614605977, -51313.592650126535, -40768.46429925731, -43232.87823592165, -13077.49159067769, -46004.29338267963, 0.01, 0.806, 0.626, 192.0, 0.0, 0.0, 0.0, 0.0, 0.0, 0.0, 0.0, 0.0, 0.0, 1.6541571891620357E9, 0.0, 2022-06-02 10:06:29.162
52.0, 24821.63456936295, 8957.081610808566, -68905.66723414269, -51323.20390024232, -40781.09303487457, -43239.74022146943, -13104.090166579506, -46021.615984632495, 0.01, 0.806, 0.626, 192.0, 0.0, 0.0, 0.0, 0.0, 0.0, 0.0, 0.0, 0.0, 0.0, 1.6541571891620407E9, 0.0, 2022-06-02 10:06:29.162
53.0, 24821.29929319612, 8957.327479997573, -68896.05598402691, -51325.34966771003, -40782.16591860842, -43248.21153261799, -13110.259248049171, -46025.12520851198, 0.01, 0.806, 0.626, 192.0, 0.0, 0.0, 0.0, 0.0, 0.0, 0.0, 0.0, 0.0, 0.0, 1.654157189162046E9, 0.0, 2022-06-02 10:06:29.162
54.0, 24818.61708386148, 8957.081610808566, -68881.28148094195, -51320.56639439659, -40780.221316840805, -43244.6576052496, -13121.010437132174, -46024.67817362287, 0.01, 0.806, 0.626, 192.0, 0.0, 0.0, 0.0, 0.0, 0.0, 0.0, 0.0, 0.0, 0.0, 1.6541571891620512E9, 0.0, 2022-06-02 10:06:29.162
55.0, 24813.923217525866, 8956.142837541442, -68874.79947504992, -51314.86669956049, -40782.41178779743, -43236.70038422351, -13137.282507095637, -46015.245737462734, 0.01, 0.806, 0.626, 192.0, 0.0, 0.0, 0.0, 0.0, 0.0, 0.0, 0.0, 0.0, 0.0, 1.6541571891620562E9, 0.0, 2022-06-02 10:06:29.162
56.0, 24822.461583907796, 8960.68024166587, -68873.39131514923, -51310.955144280815, -40775.99683713876, -43234.532265011345, -13127.537146513123, -46028.58972890255, 0.01, 0.806, 0.626, 192.0, 0.0, 0.0, 0.0, 0.0, 0.0, 0.0, 0.0, 0.0, 0.0, 1.6541571891620612E9, 0.0, 2022-06-02 10:06:29.162
57.0, 24829.077700266567, 8961.551959699627, -68884.03074550995, -51324.00856304271, -40776.533279005685, -43252.905398953604, -13116.36127428547, -46059.61395020651, 0.01, 0.806, 0.626, 192.0, 0.0, 0.0, 0.0, 0.0, 0.0, 0.0, 0.0, 0.0, 0.0, 1.6541571891620665E9, 0.0, 2022-06-02 10:06:29.162
58.0, 24832.430461934862, 8967.385765002462, -68879.11336172979, -51321.97455429728, -40779.88604067398, -43260.192067646036, -13122.843280177509, -46056.93174087188, 0.008, 0.806, 0.628, 192.0, 0.0, 64.0, 25.0, 48.0, 19.0, 160.0, 0.0, 0.0, 0.0, 1.6541571891620717E9, 0.0, 2022-06-02 10:06:29.162
59.0, 24831.089357267545, 8971.386727259962, -68868.00454473551, -51315.40314142742, -40779.43900578487, -43251.206666375, -13126.777187201642, -46035.47406619479, 0.008, 0.806, 0.628, 192.0, 0.0, 0.0, 0.0, 0.0, 0.0, 0.0, 0.0, 0.0, 0.0, 1.6541571891620767E9, 0.0, 2022-06-02 10:06:29.162
60.0, 24829.05534852211, 8974.583026717071, -68858.19212891962, -51308.00471401271, -40764.88802014447, -43228.63140447514, -13097.094070564995, -45991.21761217328, 0.008, 0.806, 0.628, 192.0, 0.0, 0.0, 0.0, 0.0, 0.0, 0.0, 0.0, 0.0, 0.0, 1.654157189162082E9, 0.0, 2022-06-02 10:06:29.162
61.0, 24825.59082813154, 8969.017442347698, -68872.27372792647, -51315.62665887197, -40761.69172068736, -43235.78396270084, -13089.248608261181, -46003.48871987924, 0.008, 0.806, 0.628, 192.0, 0.0, 0.0, 0.0, 0.0, 0.0, 0.0, 0.0, 0.0, 0.0, 1.654157189162087E9, 0.0, 2022-06-02 10:06:29.162
62.0, 24828.49655491073, 8959.585006187559, -68900.2134084956, -51335.45265620383, -40777.44970052835, -43264.95298921502, -13120.049312120595, -46055.165953059906, 0.008, 0.806, 0.628, 192.0, 0.0, 0.0, 0.0, 0.0, 0.0, 0.0, 0.0, 0.0, 0.0, 1.654157189162092E9, 0.0, 2022-06-02 10:06:29.162
63.0, 24831.804613090113, 8962.468381222294, -68894.0666787704, -51336.1679120264, -40773.13581384848, -43272.39612011863, -13119.848146420498, -46050.762659402215, 0.008, 0.806, 0.628, 192.0, 0.0, 0.0, 0.0, 0.0, 0.0, 0.0, 0.0, 0.0, 0.0, 1.6541571891620977E9, 0.0, 2022-06-02 10:06:29.162
64.0, 24832.63162763496, 8970.671471437392, -68871.33495465934, -51320.454635674316, -40765.80444166713, -43256.95106470002, -13119.490518509212, -46028.477970180276, 0.008, 0.806, 0.628, 192.0, 0.0, 0.0, 0.0, 0.0, 0.0, 0.0, 0.0, 0.0, 0.0, 1.6541571891621044E9, 0.0, 2022-06-02 10:06:29.162
65.0, 24831.625799134472, 8974.001881361233, -68861.38842837673, -51313.2126704708, -40761.95994162082, -43244.41173606059, -13112.40501551688, -46018.464388664295, 0.008, 0.806, 0.628, 192.0, 0.0, 0.0, 0.0, 0.0, 0.0, 0.0, 0.0, 0.0, 0.0, 1.65415718916211E9, 0.0, 2022-06-02 10:06:29.162
66.0, 24837.280790481662, 8981.847343665046, -68861.14255918772, -51311.93862103685, -40768.21843006831, -43244.47879129396, -13119.110538853472, -46033.61887140499, 0.008, 0.806, 0.628, 192.0, 0.0, 0.0, 0.0, 0.0, 0.0, 0.0, 0.0, 0.0, 0.0, 1.654157189162115E9, 0.0, 2022-06-02 10:06:29.162
67.0, 24845.036845807655, 8984.708366955325, -68873.57012910488, -51313.86087106, -40761.915238131915, -43245.23875060544, -13100.647997933389, -46029.75201961423, 0.008, 0.806, 0.628, 192.0, 0.0, 0.0, 0.0, 0.0, 0.0, 0.0, 0.0, 0.0, 0.0, 1.6541571891621208E9, 0.0, 2022-06-02 10:06:29.162
68.0, 24851.20592727732, 8979.209837819319, -68877.48168438455, -51319.69467636284, -40767.83845041257, -43247.09394539523, -13112.047387605595, -46023.38177244446, 0.01, 0.804, 0.622, 192.0, 0.0, 80.0, 25.0, 32.0, 19.0, 112.0, 0.0, 0.0, 0.0, 1.654157189162126E9, 0.0, 2022-06-02 10:06:29.162
69.0, 24844.701569640827, 8972.169038315897, -68873.34661166032, -51319.895842062935, -40767.369063779006, -43243.830590704754, -13118.015303375161, -46020.72191485428, 0.01, 0.804, 0.622, 192.0, 0.0, 0.0, 0.0, 0.0, 0.0, 0.0, 0.0, 0.0, 0.0, 1.654157189162131E9, 0.0, 2022-06-02 10:06:29.162
70.0, 24822.193362974333, 8953.43827646235, -68883.31548968739, -51329.08240903407, -40779.55076450715, -43251.67605300857, -13116.182460329826, -46022.82297883308, 0.01, 0.804, 0.622, 192.0, 0.0, 0.0, 0.0, 0.0, 0.0, 0.0, 0.0, 0.0, 0.0, 1.6541571891621363E9, 0.0, 2022-06-02 10:06:29.162
71.0, 24818.840601306034, 8947.716229881791, -68891.00448978001, -51328.8141881006, -40776.086244116574, -43258.33687285625, -13110.594524216, -46048.14750530094, 0.01, 0.804, 0.622, 192.0, 0.0, 0.0, 0.0, 0.0, 0.0, 0.0, 0.0, 0.0, 0.0, 1.654157189162141E9, 0.0, 2022-06-02 10:06:29.162
72.0, 24825.613179875993, 8950.398439216428, -68900.66044338471, -51328.74713286724, -40784.557555265135, -43249.57498902977, -13130.576983759045, -46043.900673854434, 0.01, 0.804, 0.622, 192.0, 0.0, 0.0, 0.0, 0.0, 0.0, 0.0, 0.0, 0.0, 0.0, 1.6541571891621463E9, 0.0, 2022-06-02 10:06:29.162
73.0, 24831.53639215665, 8964.167113800897, -68884.4554286546, -51313.77146408218, -40781.71888371932, -43241.0589743923, -13124.6984749673, -46024.09702826703, 0.01, 0.804, 0.622, 192.0, 0.0, 0.0, 0.0, 0.0, 0.0, 0.0, 0.0, 0.0, 0.0, 1.6541571891621516E9, 0.0, 2022-06-02 10:06:29.162
74.0, 24827.06604326559, 8969.084497581065, -68873.45837038259, -51301.656818587406, -40775.192174338365, -43234.956948155996, -13128.83354769153, -46018.84436832004, 0.01, 0.804, 0.622, 192.0, 0.0, 0.0, 0.0, 0.0, 0.0, 0.0, 0.0, 0.0, 0.0, 1.6541571891621566E9, 0.0, 2022-06-02 10:06:29.162
75.0, 24824.473240908774, 8970.850285393035, -68862.9083469997, -51289.63158007045, -40758.67423518589, -43222.05999160528, -13097.406994987368, -45999.26424017719, 0.01, 0.804, 0.622, 192.0, 0.0, 0.0, 0.0, 0.0, 0.0, 0.0, 0.0, 0.0, 0.0, 1.6541571891621616E9, 0.0, 2022-06-02 10:06:29.162
76.0, 24820.06994725108, 8963.20598878932, -68868.45157962461, -51292.31378940509, -40750.76171764871, -43221.27768054935, -13057.956166023752, -45986.94842898231, 0.01, 0.804, 0.622, 192.0, 0.0, 0.0, 0.0, 0.0, 0.0, 0.0, 0.0, 0.0, 0.0, 1.6541571891621668E9, 0.0, 2022-06-02 10:06:29.162
77.0, 24826.082566509554, 8960.032041076665, -68890.0657165129, -51307.53532737915, -40767.95020913485, -43238.93555866904, -13098.50223046568, -46018.64320261994, 0.01, 0.804, 0.622, 192.0, 0.0, 0.0, 0.0, 0.0, 0.0, 0.0, 0.0, 0.0, 0.0, 1.654157189162172E9, 0.0, 2022-06-02 10:06:29.162
78.0, 24844.947438829833, 8974.247750550241, -68879.67215534118, -51304.56254536659, -40769.78305218018, -43243.830590704754, -13120.205774331782, -46035.518769683695, 0.004, 0.808, 0.622, 192.0, 0.0, 32.0, 25.0, 64.0, 19.0, 112.0, 0.0, 0.0, 0.0, 1.6541571891621778E9, 0.0, 2022-06-02 10:06:29.162
79.0, 24836.900810825922, 8966.53639871316, -68876.96759426208, -51314.799644327126, -40767.41376726792, -43254.69353851003, -13110.84039340501, -46045.55470294413, 0.004, 0.808, 0.622, 192.0, 0.0, 0.0, 0.0, 0.0, 0.0, 0.0, 0.0, 0.0, 0.0, 1.6541571891621828E9, 0.0, 2022-06-02 10:06:29.162
80.0, 24832.855145079513, 8957.908625353411, -68876.72172507308, -51317.39244668394, -40763.99395036625, -43248.52445704037, -13097.07171882054, -46030.422571947885, 0.004, 0.808, 0.622, 192.0, 0.0, 0.0, 0.0, 0.0, 0.0, 0.0, 0.0, 0.0, 0.0, 1.654157189162188E9, 0.0, 2022-06-02 10:06:29.162
81.0, 24829.636493877948, 8951.381915972463, -68891.69739385812, -51331.18347301287, -40778.94726740685, -43263.410718847605, -13116.718902196753, -46063.59256071956, 0.004, 0.808, 0.622, 192.0, 0.0, 0.0, 0.0, 0.0, 0.0, 0.0, 0.0, 0.0, 0.0, 1.6541571891621933E9, 0.0, 2022-06-02 10:06:29.162
82.0, 24825.076738009066, 8947.738581626247, -68911.34457723434, -51346.248548775744, -40797.432160071396, -43281.739149300956, -13152.928728214352, -46094.97440993481, 0.004, 0.808, 0.622, 192.0, 0.0, 0.0, 0.0, 0.0, 0.0, 0.0, 0.0, 0.0, 0.0, 1.6541571891621983E9, 0.0, 2022-06-02 10:06:29.162
83.0, 24822.14865948542, 8940.451912933817, -68910.15993477822, -51353.28934827916, -40810.59733755557, -43287.97528600398, -13169.51372260019, -46079.68581672738, 0.004, 0.808, 0.622, 192.0, 0.0, 0.0, 0.0, 0.0, 0.0, 0.0, 0.0, 0.0, 0.0, 1.6541571891622033E9, 0.0, 2022-06-02 10:06:29.162
84.0, 24819.891133295434, 8947.604471159515, -68892.0103182805, -51345.35447899753, -40795.822834470615, -43277.246448665435, -13140.07647515255, -46056.35059551604, 0.004, 0.808, 0.622, 192.0, 0.0, 0.0, 0.0, 0.0, 0.0, 0.0, 0.0, 0.0, 0.0, 1.6541571891622083E9, 0.0, 2022-06-02 10:06:29.162
85.0, 24822.52863914116, 8955.405229974416, -68868.78685579143, -51327.69660087784, -40774.36515979352, -43261.75668975791, -13113.902582395385, -46047.83458087857, 0.004, 0.808, 0.622, 192.0, 0.0, 0.0, 0.0, 0.0, 0.0, 0.0, 0.0, 0.0, 0.0, 1.6541571891622136E9, 0.0, 2022-06-02 10:06:29.162
86.0, 24825.032034520154, 8953.103000295521, -68868.83155928034, -51319.605269385014, -40768.486651001775, -43252.011329175395, -13095.708262408765, -46041.330223242076, 0.004, 0.808, 0.622, 192.0, 0.0, 0.0, 0.0, 0.0, 0.0, 0.0, 0.0, 0.0, 0.0, 1.6541571891622205E9, 0.0, 2022-06-02 10:06:29.162
87.0, 24826.551953143116, 8955.673450907881, -68886.46708565559, -51322.756865353214, -40771.32532254759, -43257.01811993338, -13091.59554142899, -46045.241778521755, 0.004, 0.808, 0.622, 192.0, 0.0, 0.0, 0.0, 0.0, 0.0, 0.0, 0.0, 0.0, 0.0, 1.6541571891622255E9, 0.0, 2022-06-02 10:06:29.162
88.0, 24825.791993831637, 8961.797828888635, -68886.66825135569, -51323.69563862034, -40779.61781974052, -43264.95298921502, -13114.863707406963, -46052.32728151409, 0.008, 0.806, 0.632, 192.0, 0.0, 64.0, 25.0, 48.0, 19.0, 192.0, 0.0, 0.0, 0.0, 1.6541571891622305E9, 0.0, 2022-06-02 10:06:29.162
89.0, 24815.28667393764, 8950.0631630496, -68886.04240251094, -51325.17085375439, -40789.094959389564, -43257.80043098932, -13131.336943070524, -46045.509999455215, 0.008, 0.806, 0.632, 192.0, 0.0, 0.0, 0.0, 0.0, 0.0, 0.0, 0.0, 0.0, 0.0, 1.654157189162236E9, 0.0, 2022-06-02 10:06:29.162
90.0, 24817.611255360993, 8950.644308405437, -68876.2523384395, -51312.54211813714, -40777.293238317165, -43242.66829999308, -13116.383626029925, -46038.53625518516, 0.008, 0.806, 0.632, 192.0, 0.0, 0.0, 0.0, 0.0, 0.0, 0.0, 0.0, 0.0, 0.0, 1.6541571891622412E9, 0.0, 2022-06-02 10:06:29.162
91.0, 24821.29929319612, 8953.460628206805, -68876.52055937298, -51306.79771981212, -40758.87540088599, -43232.721773710466, -13074.854084831964, -46021.43717067685, 0.008, 0.806, 0.632, 192.0, 0.0, 0.0, 0.0, 0.0, 0.0, 0.0, 0.0, 0.0, 0.0, 1.6541571891622462E9, 0.0, 2022-06-02 10:06:29.162
92.0, 24822.506287396704, 8952.119523539486, -68894.20078923712, -51315.291382705145, -40771.280619058685, -43233.95111965551, -13098.546933954589, -46024.43230443386, 0.008, 0.806, 0.632, 192.0, 0.0, 0.0, 0.0, 0.0, 0.0, 0.0, 0.0, 0.0, 0.0, 1.6541571891622512E9, 0.0, 2022-06-02 10:06:29.162
93.0, 24829.122403755475, 8957.39453523094, -68886.89176880024, -51319.87349031848, -40782.657656986434, -43247.09394539523, -13136.768416973164, -46053.04253733665, 0.008, 0.806, 0.632, 192.0, 0.0, 0.0, 0.0, 0.0, 0.0, 0.0, 0.0, 0.0, 0.0, 1.6541571891622565E9, 0.0, 2022-06-02 10:06:29.162
94.0, 24833.413938690894, 8956.142837541442, -68876.27469018397, -51315.067865260586, -40780.69070347437, -43247.98801517344, -13140.79173097512, -46053.84720013705, 0.008, 0.806, 0.632, 192.0, 0.0, 0.0, 0.0, 0.0, 0.0, 0.0, 0.0, 0.0, 0.0, 1.654157189162264E9, 0.0, 2022-06-02 10:06:29.162
95.0, 24841.751139372725, 8966.044660335143, -68859.98026847605, -51291.88910626044, -40757.8695723855, -43222.90935789458, -13088.82392511653, -46000.04655123312, 0.008, 0.806, 0.632, 192.0, 0.0, 0.0, 0.0, 0.0, 0.0, 0.0, 0.0, 0.0, 0.0, 1.654157189162269E9, 0.0, 2022-06-02 10:06:29.162
96.0, 24841.19234576134, 8977.041718607154, -68856.13576842974, -51280.534420077136, -40750.15822054842, -43211.50996822238, -13090.50030595068, -45997.565507598585, 0.008, 0.806, 0.632, 192.0, 0.0, 0.0, 0.0, 0.0, 0.0, 0.0, 0.0, 0.0, 0.0, 1.6541571891622744E9, 0.0, 2022-06-02 10:06:29.162
97.0, 24837.750177115224, 8970.157381314919, -68878.21929195158, -51295.89006851793, -40773.851069671044, -43234.1522853556, -13140.478806552746, -46047.409897733916, 0.008, 0.806, 0.632, 192.0, 0.0, 0.0, 0.0, 0.0, 0.0, 0.0, 0.0, 0.0, 0.0, 1.6541571891622796E9, 0.0, 2022-06-02 10:06:29.162
98.0, 24842.19817426183, 8972.280797038175, -68875.3582686613, -51294.88424001745, -40773.515793504215, -43243.4059075601, -13115.69072195181, -46035.317603983596, 0.01, 0.8, 0.634, 192.0, 0.0, 80.0, 25.0, 0.0, 19.0, 208.0, 0.0, 0.0, 0.0, 1.6541571891622846E9, 0.0, 2022-06-02 10:06:29.162
99.0, 24832.34105495704, 8963.809485889613, -68878.33105067385, -51294.61601908398, -40771.615895225514, -43247.809201217795, -13105.632436946922, -46030.08729578106, 0.01, 0.8, 0.634, 192.0, 0.0, 0.0, 0.0, 0.0, 0.0, 0.0, 0.0, 0.0, 0.0, 1.6541571891622899E9, 0.0, 2022-06-02 10:06:29.162
100.0, 24838.845412593535, 8963.854189378522, -68871.33495465934, -51285.27298990166, -40769.89481090246, -43238.42146854657, -13120.853974920987, -46036.412839461904, 0.01, 0.8, 0.634, 192.0, 0.0, 0.0, 0.0, 0.0, 0.0, 0.0, 0.0, 0.0, 0.0, 1.6541571891622949E9, 0.0, 2022-06-02 10:06:29.162
101.0, 24838.554839915614, 8968.704517925325, -68869.39035289173, -51280.62382705496, -40764.39628176645, -43231.82770393226, -13105.095995079995, -46036.47989469527, 0.01, 0.8, 0.634, 192.0, 0.0, 0.0, 0.0, 0.0, 0.0, 0.0, 0.0, 0.0, 0.0, 1.6541571891623E9, 0.0, 2022-06-02 10:06:29.162
102.0, 24826.909581054402, 8961.842532377546, -68892.09972525832, -51299.9580860088, -40783.305857575644, -43251.4078320751, -13128.520623269156, -46060.329206029084, 0.01, 0.8, 0.634, 192.0, 0.0, 0.0, 0.0, 0.0, 0.0, 0.0, 0.0, 0.0, 0.0, 1.6541571891623056E9, 0.0, 2022-06-02 10:06:29.162
103.0, 24829.211810733297, 8963.518913211694, -68890.17747523516, -51306.68596108985, -40792.06774140212, -43255.96758794398, -13134.64500124991, -46039.989118574755, 0.01, 0.8, 0.634, 192.0, 0.0, 0.0, 0.0, 0.0, 0.0, 0.0, 0.0, 0.0, 0.0, 1.6541571891623108E9, 0.0, 2022-06-02 10:06:29.162
104.0, 24829.591790389037, 8967.229302791275, -68876.38644890624, -51305.143690722434, -40778.23201158429, -43253.66535826509, -13136.254326850692, -46044.481819210276, 0.01, 0.8, 0.634, 192.0, 0.0, 0.0, 0.0, 0.0, 0.0, 0.0, 0.0, 0.0, 0.0, 1.6541571891623158E9, 0.0, 2022-06-02 10:06:29.162
105.0, 24818.840601306034, 8957.260424764208, -68874.37479190527, -51313.99498152673, -40774.47691851579, -43260.77321300188, -13150.961774702284, -46072.91323815742, 0.01, 0.8, 0.634, 192.0, 0.0, 0.0, 0.0, 0.0, 0.0, 0.0, 0.0, 0.0, 0.0, 1.6541571896418831E9, 0.0, 2022-06-02 10:06:29.641
106.0, 24818.86295305049, 8958.981509087267, -68874.41949539418, -51311.7598070812, -40769.09014810206, -43250.58081753026, -13127.023056390652, -46060.21744730681, 0.01, 0.8, 0.634, 192.0, 0.0, 0.0, 0.0, 0.0, 0.0, 0.0, 0.0, 0.0, 0.0, 1.6541571896419296E9, 0.0, 2022-06-02 10:06:29.641
107.0, 24820.137002484444, 8957.662756164404, -68888.4116874232, -51318.64414437344, -40767.92785739039, -43246.22222736147, -13093.920122852342, -46032.948319071336, 0.012, 0.796, 0.63, 192.0, 0.0, 96.0, 24.0, 224.0, 19.0, 176.0, 0.0, 0.0, 0.0, 1.6541571896419585E9, 0.0, 2022-06-02 10:06:29.641
108.0, 24816.314854182587, 8955.069953807588, -68897.84412358333, -51331.83167360207, -40783.439968042374, -43262.74016651394, -13125.145509856406, -46050.51679021321, 0.012, 0.796, 0.63, 192.0, 0.0, 0.0, 0.0, 0.0, 0.0, 0.0, 0.0, 0.0, 0.0, 1.6541571896419847E9, 0.0, 2022-06-02 10:06:29.641
109.0, 24810.34693841302, 8952.410096217405, -68893.03849852545, -51331.20582475732, -40787.06095064413, -43264.21538164799, -13149.598318290511, -46060.21744730681, 0.012, 0.796, 0.63, 192.0, 0.0, 0.0, 0.0, 0.0, 0.0, 0.0, 0.0, 0.0, 0.0, 1.654157189642006E9, 0.0, 2022-06-02 10:06:29.642
110.0, 24815.376080915463, 8951.404267716916, -68881.4602948976, -51321.706333363814, -40778.94726740685, -43248.92678844056, -13143.093960654016, -46052.573150703094, 0.012, 0.796, 0.63, 192.0, 0.0, 0.0, 0.0, 0.0, 0.0, 0.0, 0.0, 0.0, 0.0, 1.6541571896420195E9, 0.0, 2022-06-02 10:06:29.642
111.0, 24812.29154018063, 8942.821197846079, -68894.13373400376, -51320.47698741877, -40783.372912809005, -43243.56236977129, -13123.066797622061, -46042.42545872038, 0.012, 0.796, 0.63, 192.0, 0.0, 0.0, 0.0, 0.0, 0.0, 0.0, 0.0, 0.0, 0.0, 1.6541571896420395E9, 0.0, 2022-06-02 10:06:29.642
112.0, 24814.347900670517, 8942.396514701428, -68905.77899286497, -51324.299135720634, -40782.478843030796, -43246.356337828205, -13108.336998026014, -46042.62662442048, 0.012, 0.796, 0.63, 192.0, 0.0, 0.0, 0.0, 0.0, 0.0, 0.0, 0.0, 0.0, 0.0, 1.6541571896420512E9, 0.0, 2022-06-02 10:06:29.642
113.0, 24809.251702934707, 8943.156474012909, -68901.66627188519, -51325.573185154586, -40787.1280058775, -43255.31938735478, -13121.345713299002, -46063.01141536372, 0.012, 0.796, 0.63, 192.0, 0.0, 0.0, 0.0, 0.0, 0.0, 0.0, 0.0, 0.0, 0.0, 1.6541571896420636E9, 0.0, 2022-06-02 10:06:29.642
114.0, 24811.665691335882, 8947.380953714963, -68885.23773971054, -51311.13395823645, -40776.15329934994, -43241.43895404803, -13105.855954391474, -46035.5634731726, 0.012, 0.796, 0.63, 192.0, 0.0, 0.0, 0.0, 0.0, 0.0, 0.0, 0.0, 0.0, 0.0, 1.6541571896420698E9, 0.0, 2022-06-02 10:06:29.642
115.0, 24817.320682683076, 8952.34304098404, -68873.63718433824, -51296.58297259605, -40770.61006672503, -43218.97545087045, -13099.373948499437, -45998.593687843524, 0.012, 0.796, 0.63, 192.0, 0.0, 0.0, 0.0, 0.0, 0.0, 0.0, 0.0, 0.0, 0.0, 1.6541571896420763E9, 0.0, 2022-06-02 10:06:29.642
116.0, 24818.125345483466, 8955.405229974416, -68876.22998669505, -51293.610190583495, -40764.217467810806, -43214.88508163513, -13100.960922355764, -45992.08933020703, 0.012, 0.796, 0.63, 192.0, 0.0, 0.0, 0.0, 0.0, 0.0, 0.0, 0.0, 0.0, 0.0, 1.654157189642083E9, 0.0, 2022-06-02 10:06:29.642
117.0, 24815.107859982, 8950.733715383258, -68897.39708869423, -51305.836594800545, -40777.0250173837, -43226.016250373876, -13116.987123130219, -46010.998906016226, 0.012, 0.794, 0.634, 192.0, 0.0, 96.0, 24.0, 208.0, 19.0, 208.0, 0.0, 0.0, 0.0, 1.65415718964209E9, 0.0, 2022-06-02 10:06:29.642
118.0, 24810.168124457377, 8943.178825757364, -68908.88588534427, -51325.81905434359, -40797.45451181585, -43257.263989122395, -13135.986105917229, -46047.02991807818, 0.012, 0.794, 0.634, 192.0, 0.0, 0.0, 0.0, 0.0, 0.0, 0.0, 0.0, 0.0, 0.0, 1.654157189642097E9, 0.0, 2022-06-02 10:06:29.642
119.0, 24823.33330194155, 8959.428543976372, -68887.5623211339, -51316.23015597226, -40786.815081455126, -43256.459326322, -13136.366085572969, -46043.74421164325, 0.012, 0.794, 0.634, 192.0, 0.0, 0.0, 0.0, 0.0, 0.0, 0.0, 0.0, 0.0, 0.0, 1.6541571896421044E9, 0.0, 2022-06-02 10:06:29.642
120.0, 24825.63553162045, 8964.524741712183, -68867.75867554649, -51295.37597839547, -40765.06683410011, -43231.26891032087, -13117.612971974966, -46009.2107664598, 0.012, 0.794, 0.634, 192.0, 0.0, 0.0, 0.0, 0.0, 0.0, 0.0, 0.0, 0.0, 0.0, 1.65415718964211E9, 0.0, 2022-06-02 10:06:29.642
121.0, 24805.60836858849, 8945.458703691806, -68878.84514079633, -51304.67430408887, -40770.2747905582, -43236.61097724569, -13125.033751134128, -46025.90751956791, 0.012, 0.794, 0.634, 192.0, 0.0, 0.0, 0.0, 0.0, 0.0, 0.0, 0.0, 0.0, 0.0, 1.654157189642115E9, 0.0, 2022-06-02 10:06:29.642
122.0, 24820.42757516236, 8957.68510790886, -68889.95395779061, -51308.988190768745, -40776.108595861035, -43246.64691050612, -13127.671256979855, -46048.90746461242, 0.012, 0.794, 0.634, 192.0, 0.0, 0.0, 0.0, 0.0, 0.0, 0.0, 0.0, 0.0, 0.0, 1.6541571896421204E9, 0.0, 2022-06-02 10:06:29.642
123.0, 24827.66954036588, 8959.316785254096, -68886.26591995549, -51310.12812973597, -40782.0765116306, -43258.80625948981, -13138.780073974141, -46065.89479039846, 0.012, 0.794, 0.634, 192.0, 0.0, 0.0, 0.0, 0.0, 0.0, 0.0, 0.0, 0.0, 0.0, 1.654157189642126E9, 0.0, 2022-06-02 10:06:29.642
124.0, 24817.454793149805, 8954.086477051555, -68873.16779770468, -51305.76953956718, -40776.35446505004, -43253.57595128727, -13134.153262871894, -46061.35738627403, 0.012, 0.794, 0.634, 192.0, 0.0, 0.0, 0.0, 0.0, 0.0, 0.0, 0.0, 0.0, 0.0, 1.654157189642131E9, 0.0, 2022-06-02 10:06:29.642
125.0, 24806.167162199876, 8952.164227028397, -68863.08716095533, -51301.2097836983, -40763.524563732695, -43243.45061104901, -13094.92595135283, -46024.901691067425, 0.012, 0.794, 0.634, 192.0, 0.0, 0.0, 0.0, 0.0, 0.0, 0.0, 0.0, 0.0, 0.0, 1.6541571896421363E9, 0.0, 2022-06-02 10:06:29.642
126.0, 24801.71916505327, 8939.356677455507, -68875.8053035504, -51311.04455125863, -40775.88507841648, -43244.63525350514, -13108.985198615217, -46022.73357185526, 0.012, 0.794, 0.634, 192.0, 0.0, 0.0, 0.0, 0.0, 0.0, 0.0, 0.0, 0.0, 0.0, 1.6541571896421416E9, 0.0, 2022-06-02 10:06:29.642
127.0, 24809.318758168076, 8940.317802467085, -68893.50788515901, -51324.03091478717, -40787.17270936641, -43257.35339610021, -13130.867556436964, -46054.69656642635, 0.012, 0.792, 0.63, 192.0, 0.0, 96.0, 24.0, 192.0, 19.0, 176.0, 0.0, 0.0, 0.0, 1.6541571896421468E9, 0.0, 2022-06-02 10:06:29.642
128.0, 24811.553932613606, 8944.452875191317, -68895.38543169326, -51326.22138574379, -40790.279601845694, -43259.27564612337, -13143.36218158748, -46052.64020593646, 0.012, 0.792, 0.63, 192.0, 0.0, 0.0, 0.0, 0.0, 0.0, 0.0, 0.0, 0.0, 0.0, 1.6541571896421607E9, 0.0, 2022-06-02 10:06:29.642
129.0, 24799.05930746309, 8936.987392543244, -68887.58467287835, -51323.15919675341, -40787.17270936641, -43249.351471585214, -13125.525489512145, -46024.96874630079, 0.012, 0.792, 0.63, 192.0, 0.0, 0.0, 0.0, 0.0, 0.0, 0.0, 0.0, 0.0, 0.0, 1.6541571896421661E9, 0.0, 2022-06-02 10:06:29.642
130.0, 24792.24202540422, 8942.284755979152, -68875.64884133922, -51314.73258909376, -40775.03571212717, -43236.007480145396, -13095.462393219757, -46012.87645255047, 0.012, 0.792, 0.63, 192.0, 0.0, 0.0, 0.0, 0.0, 0.0, 0.0, 0.0, 0.0, 0.0, 1.6541571896421733E9, 0.0, 2022-06-02 10:06:29.642
131.0, 24802.255606920196, 8952.186578772853, -68873.57012910488, -51306.887126789945, -40769.29131380216, -43233.43702953304, -13119.065835364561, -46049.19803729034, 0.012, 0.792, 0.63, 192.0, 0.0, 0.0, 0.0, 0.0, 0.0, 0.0, 0.0, 0.0, 0.0, 1.6541571896421793E9, 0.0, 2022-06-02 10:06:29.642
132.0, 24811.464525635784, 8946.9115670814, -68894.22314098157, -51317.57126063958, -40775.616857483015, -43240.36607031418, -13139.428274563346, -46065.60421772054, 0.012, 0.792, 0.63, 192.0, 0.0, 0.0, 0.0, 0.0, 0.0, 0.0, 0.0, 0.0, 0.0, 1.6541571896421847E9, 0.0, 2022-06-02 10:06:29.642
133.0, 24810.81632504658, 8935.266308220185, -68903.07443178588, -51328.858891589516, -40788.37970356699, -43249.7090994965, -13138.288335596126, -46046.80640063363, 0.012, 0.792, 0.63, 192.0, 0.0, 0.0, 0.0, 0.0, 0.0, 0.0, 0.0, 0.0, 0.0, 1.65415718964219E9, 0.0, 2022-06-02 10:06:29.642
134.0, 24807.977653500755, 8936.540357654138, -68883.00256526501, -51316.96776353929, -40777.0250173837, -43232.989994643925, -13109.052253848584, -46006.30503968061, 0.012, 0.792, 0.63, 192.0, 0.0, 0.0, 0.0, 0.0, 0.0, 0.0, 0.0, 0.0, 0.0, 1.6541571896421955E9, 0.0, 2022-06-02 10:06:29.642
135.0, 24806.569493600073, 8941.457741434306, -68863.13186444425, -51302.550888365615, -40767.7713951792, -43216.51675898037, -13099.798631644087, -45995.12916745296, 0.012, 0.792, 0.63, 192.0, 0.0, 0.0, 0.0, 0.0, 0.0, 0.0, 0.0, 0.0, 0.0, 1.6541571896422007E9, 0.0, 2022-06-02 10:06:29.642
136.0, 24796.57826382855, 8936.249784976219, -68876.47585588407, -51307.22240295677, -40778.276715073196, -43224.63044221765, -13120.339884798514, -46023.985269544755, 0.012, 0.792, 0.63, 192.0, 0.0, 0.0, 0.0, 0.0, 0.0, 0.0, 0.0, 0.0, 0.0, 1.654157189642206E9, 0.0, 2022-06-02 10:06:29.642
137.0, 24795.259510905686, 8929.745427339725, -68905.73428937607, -51322.689810119846, -40793.92293619191, -43242.73535522644, -13137.394265817913, -46052.68490942537, 0.012, 0.798, 0.626, 192.0, 0.0, 96.0, 24.0, 240.0, 19.0, 144.0, 0.0, 0.0, 0.0, 1.654157189642211E9, 0.0, 2022-06-02 10:06:29.642
138.0, 24814.034976248146, 8947.805636859614, -68887.67407985617, -51309.79285356914, -40784.73636922078, -43240.63429124765, -13130.308762825582, -46042.44781046484, 0.012, 0.798, 0.626, 192.0, 0.0, 0.0, 0.0, 0.0, 0.0, 0.0, 0.0, 0.0, 0.0, 1.654157189642216E9, 0.0, 2022-06-02 10:06:29.642
139.0, 24808.022356989666, 8944.475226935772, -68879.62745185226, -51305.68013258936, -40784.289334331675, -43244.00940466039, -13131.761626215175, -46041.26316800871, 0.012, 0.798, 0.626, 192.0, 0.0, 0.0, 0.0, 0.0, 0.0, 0.0, 0.0, 0.0, 0.0, 1.6541571896422212E9, 0.0, 2022-06-02 10:06:29.642
140.0, 24805.42955463285, 8944.139950768942, -68868.65274532471, -51294.660722572895, -40778.902563917945, -43231.55948299879, -13125.21256508977, -46027.3156794686, 0.012, 0.798, 0.626, 192.0, 0.0, 0.0, 0.0, 0.0, 0.0, 0.0, 0.0, 0.0, 0.0, 1.6541571896422267E9, 0.0, 2022-06-02 10:06:29.642
141.0, 24806.413031388885, 8937.926165810368, -68871.33495465934, -51295.57714409556, -40775.50509876074, -43233.5040847664, -13129.951134914296, -46046.359365744516, 0.012, 0.798, 0.626, 192.0, 0.0, 0.0, 0.0, 0.0, 0.0, 0.0, 0.0, 0.0, 0.0, 1.6541571896422317E9, 0.0, 2022-06-02 10:06:29.642
142.0, 24803.797877287612, 8938.104979766009, -68888.54579788994, -51310.41870241389, -40781.36125580803, -43249.53028554086, -13138.064818151572, -46078.724691715805, 0.012, 0.798, 0.626, 192.0, 0.0, 0.0, 0.0, 0.0, 0.0, 0.0, 0.0, 0.0, 0.0, 1.654157189642237E9, 0.0, 2022-06-02 10:06:29.642
143.0, 24808.603502345504, 8940.653078633915, -68888.07641125636, -51313.27972570417, -40791.03956115718, -43257.42045133358, -13150.559443302089, -46059.72570892879, 0.012, 0.798, 0.626, 192.0, 0.0, 0.0, 0.0, 0.0, 0.0, 0.0, 0.0, 0.0, 0.0, 1.6541571896422422E9, 0.0, 2022-06-02 10:06:29.642
144.0, 24815.018453004177, 8944.922261824879, -68867.31164065738, -51297.0076557407, -40770.94534289186, -43241.99774765942, -13117.031826619128, -46027.695659124336, 0.012, 0.798, 0.626, 192.0, 0.0, 0.0, 0.0, 0.0, 0.0, 0.0, 0.0, 0.0, 0.0, 1.6541571896422474E9, 0.0, 2022-06-02 10:06:29.642
145.0, 24817.34303442753, 8946.755104870213, -68852.96182071709, -51286.748205035714, -40752.08047057158, -43226.59739572971, -13093.048404818584, -46011.69181009434, 0.012, 0.798, 0.626, 192.0, 0.0, 0.0, 0.0, 0.0, 0.0, 0.0, 0.0, 0.0, 0.0, 1.654157189642254E9, 0.0, 2022-06-02 10:06:29.642
146.0, 24818.728842583758, 8945.570462414082, -68858.14742543071, -51291.12914694895, -40755.92497061789, -43225.725677695955, -13099.39630024389, -46018.57614738657, 0.012, 0.798, 0.626, 192.0, 0.0, 0.0, 0.0, 0.0, 0.0, 0.0, 0.0, 0.0, 0.0, 1.6541571896422596E9, 0.0, 2022-06-02 10:06:29.642
147.0, 24808.804668045603, 8937.255613476707, -68884.2095594656, -51314.39731292693, -40782.2776773307, -43249.53028554086, -13132.901565182396, -46063.83842990857, 0.01, 0.796, 0.628, 192.0, 0.0, 80.0, 24.0, 224.0, 19.0, 160.0, 0.0, 0.0, 0.0, 1.654157189642265E9, 0.0, 2022-06-02 10:06:29.642
148.0, 24808.603502345504, 8937.859110577001, -68884.76835307699, -51318.152405995424, -40786.41275005493, -43249.97732042996, -13127.224222090748, -46035.29525223914, 0.01, 0.796, 0.628, 192.0, 0.0, 0.0, 0.0, 0.0, 0.0, 0.0, 0.0, 0.0, 0.0, 1.6541571896422703E9, 0.0, 2022-06-02 10:06:29.642
149.0, 24814.973749515266, 8942.798846101625, -68865.36703888977, -51305.12133897798, -40780.53424126318, -43232.11827661017, -13119.4458150203, -46007.86966179248, 0.01, 0.796, 0.628, 192.0, 0.0, 0.0, 0.0, 0.0, 0.0, 0.0, 0.0, 0.0, 0.0, 1.654157189642276E9, 0.0, 2022-06-02 10:06:29.642
150.0, 24832.1622410014, 8957.238073019753, -68842.68001826764, -51286.52468759116, -40766.318531789606, -43216.51675898037, -13124.609067989477, -46011.78121707216, 0.01, 0.796, 0.628, 192.0, 0.0, 0.0, 0.0, 0.0, 0.0, 0.0, 0.0, 0.0, 0.0, 1.6541571896422834E9, 0.0, 2022-06-02 10:06:29.642
151.0, 24829.837659578046, 8955.762857885702, -68845.36222760228, -51283.261332900685, -40757.154316562934, -43209.587718199225, -13112.44971900579, -46006.17092921388, 0.01, 0.796, 0.628, 192.0, 0.0, 0.0, 0.0, 0.0, 0.0, 0.0, 0.0, 0.0, 0.0, 1.6541571896422887E9, 0.0, 2022-06-02 10:06:29.642
152.0, 24816.471316393774, 8934.95338379781, -68874.93358551664, -51308.83172855756, -40777.82968018409, -43232.96764289947, -13124.094977867006, -46035.85404585052, 0.01, 0.796, 0.628, 192.0, 0.0, 0.0, 0.0, 0.0, 0.0, 0.0, 0.0, 0.0, 0.0, 1.6541571896422937E9, 0.0, 2022-06-02 10:06:29.642
153.0, 24812.917389025377, 8932.561747141093, -68883.27078619848, -51321.39340894144, -40793.989991425275, -43247.29511109533, -13156.169731160371, -46052.03670883617, 0.01, 0.796, 0.628, 192.0, 0.0, 0.0, 0.0, 0.0, 0.0, 0.0, 0.0, 0.0, 0.0, 1.6541571896422987E9, 0.0, 2022-06-02 10:06:29.642
154.0, 24812.67151983637, 8935.9592122983, -68867.22223367957, -51313.72676059327, -40782.21062209733, -43235.49339002292, -13133.058027393583, -46027.85212133553, 0.01, 0.796, 0.628, 192.0, 0.0, 0.0, 0.0, 0.0, 0.0, 0.0, 0.0, 0.0, 0.0, 1.654157189642304E9, 0.0, 2022-06-02 10:06:29.642
155.0, 24809.788144801634, 8931.824139574068, -68853.8558904953, -51308.38469366845, -40766.83262191208, -43224.63044221765, -13110.885096893919, -46014.64224036244, 0.01, 0.796, 0.628, 192.0, 0.0, 0.0, 0.0, 0.0, 0.0, 0.0, 0.0, 0.0, 0.0, 1.6541571896423092E9, 0.0, 2022-06-02 10:06:29.642
