%OpenBCI Raw EEG Data
%Number of channels = 8
%Sample Rate = 250 Hz
%Board = OpenBCI_GUI$BoardCytonSerial
Sample Index, EXG Channel 0, EXG Channel 1, EXG Channel 2, EXG Channel 3, EXG Channel 4, EXG Channel 5, EXG Channel 6, EXG Channel 7, Accel Channel 0, Accel Channel 1, Accel Channel 2, Other, Other, Other, Other, Other, Other, Other, Analog Channel 0, Analog Channel 1, Analog Channel 2, Timestamp, Other, Timestamp (Formatted)
0.0, 0.0, 0.0, 0.0, 0.0, 0.0, 0.0, 0.0, 0.0, -0.05, 0.906, 0.47000000000000003, 192.0, 254.0, 112.0, 28.0, 80.0, 14.0, 176.0, 0.0, 0.0, 0.0, 1.654154972989046E9, 0.0, 2022-06-02 09:29:32.989
1.0, 19820.387043999082, -9467.617805912234, -63030.5782592986, -29648.426729253144, -15393.154667991957, -40078.39889268862, -11688.26361754699, -33173.4309403218, -0.05, 0.906, 0.47000000000000003, 192.0, 0.0, 0.0, 0.0, 0.0, 0.0, 0.0, 0.0, 0.0, 0.0, 1.65415497300505E9, 0.0, 2022-06-02 09:29:33.005
2.0, 19828.21015455844, -9454.49733191697, -63013.278009090194, -29634.121612801748, -15381.263539941734, -40065.07725299326, -11670.382221982745, -33163.01502740563, -0.05, 0.906, 0.47000000000000003, 192.0, 0.0, 0.0, 0.0, 0.0, 0.0, 0.0, 0.0, 0.0, 0.0, 1.6541549734839528E9, 0.0, 2022-06-02 09:29:33.483
3.0, 19827.651360947057, -9451.032811526396, -63009.9699509108, -29633.54046744591, -15377.195522450867, -40066.12778498266, -11665.621300413764, -33194.82155976553, -0.05, 0.906, 0.47000000000000003, 192.0, 0.0, 0.0, 0.0, 0.0, 0.0, 0.0, 0.0, 0.0, 0.0, 1.6541549734841115E9, 0.0, 2022-06-02 09:29:33.484
4.0, 19825.416186501527, -9455.39140169518, -63016.2731428472, -29639.173107048646, -15380.66004284144, -40066.77598557186, -11673.578521439853, -33174.77204498912, -0.05, 0.906, 0.47000000000000003, 192.0, 0.0, 0.0, 0.0, 0.0, 0.0, 0.0, 0.0, 0.0, 0.0, 1.6541549734841175E9, 0.0, 2022-06-02 09:29:33.484
5.0, 19825.05855859024, -9463.415677954636, -63028.0748639196, -29648.62789495324, -15390.204237723858, -40073.2579914639, -11676.439544730132, -33155.39308254637, -0.05, 0.906, 0.47000000000000003, 192.0, 0.0, 0.0, 0.0, 0.0, 0.0, 0.0, 0.0, 0.0, 0.0, 1.6541549734841232E9, 0.0, 2022-06-02 09:29:33.484
6.0, 19823.985674856387, -9463.259215743448, -63029.5277273092, -29648.136156575223, -15398.921418061427, -40075.761386842896, -11681.44633548812, -33180.807015992046, -0.05, 0.906, 0.47000000000000003, 192.0, 0.0, 0.0, 0.0, 0.0, 0.0, 0.0, 0.0, 0.0, 0.0, 1.6541549734841292E9, 0.0, 2022-06-02 09:29:33.484
7.0, 19841.68825646499, -9441.555671877346, -63009.27704683269, -29628.62308366574, -15381.062374241636, -40056.69534882252, -11678.495905220021, -33177.27544036811, -0.04, 0.91, 0.47200000000000003, 192.0, 254.0, 192.0, 28.0, 112.0, 14.0, 192.0, 0.0, 0.0, 0.0, 1.654154973484135E9, 0.0, 2022-06-02 09:29:33.484
8.0, 19838.938991896986, -9443.254404455949, -63011.95925616733, -29629.070118554846, -15382.068202742124, -40056.62829358915, -11698.165440340692, -33184.11507417144, -0.04, 0.91, 0.47200000000000003, 192.0, 0.0, 0.0, 0.0, 0.0, 0.0, 0.0, 0.0, 0.0, 0.0, 1.6541549734841404E9, 0.0, 2022-06-02 09:29:33.484
9.0, 19833.775738927812, -9452.77624759391, -63016.764881225216, -29634.90392385768, -15378.71544107383, -40064.920790782075, -11685.246132045524, -33185.38912360539, -0.04, 0.91, 0.47200000000000003, 192.0, 0.0, 0.0, 0.0, 0.0, 0.0, 0.0, 0.0, 0.0, 0.0, 1.654154973484146E9, 0.0, 2022-06-02 09:29:33.484
10.0, 19827.204326057952, -9464.265044243937, -63032.43345408839, -29649.790185664915, -15387.85730455605, -40082.84688983523, -11692.93513213815, -33173.877975210904, -0.04, 0.91, 0.47200000000000003, 192.0, 0.0, 0.0, 0.0, 0.0, 0.0, 0.0, 0.0, 0.0, 0.0, 1.6541549734841516E9, 0.0, 2022-06-02 09:29:33.484
11.0, 19814.82145962971, -9469.361241979748, -63040.323619881114, -29654.998142123004, -15399.48021167281, -40086.19965150352, -11689.69412919213, -33189.90417598536, -0.04, 0.91, 0.47200000000000003, 192.0, 0.0, 0.0, 0.0, 0.0, 0.0, 0.0, 0.0, 0.0, 0.0, 1.654154973484157E9, 0.0, 2022-06-02 09:29:33.484
12.0, 19820.16352655453, -9457.984204051996, -63021.68226500539, -29641.140060560712, -15378.111943973536, -40070.575782129265, -11654.937166564128, -33165.987809418184, -0.04, 0.91, 0.47200000000000003, 192.0, 0.0, 0.0, 0.0, 0.0, 0.0, 0.0, 0.0, 0.0, 0.0, 1.6541549734841626E9, 0.0, 2022-06-02 09:29:33.484
13.0, 19824.388006256584, -9450.228148726004, -63014.68616899088, -29631.729976145027, -15367.628975823996, -40061.16569771358, -11650.623279884254, -33180.76231250314, -0.04, 0.91, 0.47200000000000003, 192.0, 0.0, 0.0, 0.0, 0.0, 0.0, 0.0, 0.0, 0.0, 0.0, 1.654154973484168E9, 0.0, 2022-06-02 09:29:33.484
14.0, 19830.624142959612, -9445.53428239039, -63013.65798874593, -29629.83007786633, -15366.578443834596, -40060.42809014655, -11653.439599685622, -33186.14908291687, -0.04, 0.91, 0.47200000000000003, 192.0, 0.0, 0.0, 0.0, 0.0, 0.0, 0.0, 0.0, 0.0, 0.0, 1.6541549734841738E9, 0.0, 2022-06-02 09:29:33.484
15.0, 19831.58526797119, -9454.229110983504, -63025.638523773974, -29642.01177859447, -15383.074031242613, -40069.99463677343, -11673.600873184309, -33152.04032087807, -0.04, 0.91, 0.47200000000000003, 192.0, 0.0, 0.0, 0.0, 0.0, 0.0, 0.0, 0.0, 0.0, 0.0, 1.6541549734841793E9, 0.0, 2022-06-02 09:29:33.484
16.0, 19822.7786806558, -9464.667375644132, -63034.64627678946, -29652.20417406609, -15397.177981993913, -40081.6622473791, -11686.69899543512, -33176.71664675673, -0.04, 0.91, 0.47200000000000003, 192.0, 0.0, 0.0, 0.0, 0.0, 0.0, 0.0, 0.0, 0.0, 0.0, 1.6541549734841847E9, 0.0, 2022-06-02 09:29:33.484
17.0, 19824.276247534304, -9458.028907540907, -63026.89022146347, -29645.096319329303, -15387.94671153387, -40072.0062937744, -11669.823428371363, -33190.462969596745, -0.032, 0.912, 0.47000000000000003, 192.0, 255.0, 0.0, 28.0, 128.0, 14.0, 176.0, 0.0, 0.0, 0.0, 1.6541549734841905E9, 0.0, 2022-06-02 09:29:33.484
18.0, 19830.132404581596, -9446.115427746228, -63016.071977147105, -29636.110918058268, -15377.799019551161, -40059.668130835074, -11663.229663757047, -33176.537832801085, -0.032, 0.912, 0.47000000000000003, 192.0, 0.0, 0.0, 0.0, 0.0, 0.0, 0.0, 0.0, 0.0, 0.0, 1.6541549734841957E9, 0.0, 2022-06-02 09:29:33.484
19.0, 19831.182936570996, -9447.635346369188, -63020.49762254926, -29643.82226989535, -15379.318938174123, -40066.26189544939, -11671.566864438875, -33197.97315573373, -0.032, 0.912, 0.47000000000000003, 192.0, 0.0, 0.0, 0.0, 0.0, 0.0, 0.0, 0.0, 0.0, 0.0, 1.6541549734842014E9, 0.0, 2022-06-02 09:29:33.484
20.0, 19824.566820212225, -9462.92393957662, -63037.596707057564, -29664.944668405613, -15386.85147605556, -40085.663209636594, -11665.397782969212, -33183.44452183777, -0.032, 0.912, 0.47000000000000003, 192.0, 0.0, 0.0, 0.0, 0.0, 0.0, 0.0, 0.0, 0.0, 0.0, 1.654154973484207E9, 0.0, 2022-06-02 09:29:33.484
21.0, 19815.693177663466, -9470.25531175796, -63041.26239314824, -29667.62687774025, -15394.696938359373, -40087.563107915295, -11674.830219129351, -33151.19095458877, -0.032, 0.912, 0.47000000000000003, 192.0, 0.0, 0.0, 0.0, 0.0, 0.0, 0.0, 0.0, 0.0, 0.0, 1.6541549734842124E9, 0.0, 2022-06-02 09:29:33.484
22.0, 19833.574573227714, -9448.574119636312, -63013.94856142385, -29639.038996581912, -15375.005051494249, -40063.7585000704, -11667.588253925831, -33183.109245670945, -0.032, 0.912, 0.47000000000000003, 192.0, 0.0, 0.0, 0.0, 0.0, 0.0, 0.0, 0.0, 0.0, 0.0, 1.6541549734842293E9, 0.0, 2022-06-02 09:29:33.484
23.0, 19840.21304133094, -9441.086285243784, -63001.92332290689, -29628.33251098782, -15365.080876956092, -40053.00731098739, -11657.038230542927, -33150.118070854915, -0.032, 0.912, 0.47000000000000003, 192.0, 0.0, 0.0, 0.0, 0.0, 0.0, 0.0, 0.0, 0.0, 0.0, 1.6541549734842348E9, 0.0, 2022-06-02 09:29:33.484
24.0, 19829.707721436946, -9450.87634931521, -63011.244000344755, -29635.82034538035, -15373.194560193368, -40056.82945928925, -11661.620338156265, -33158.45527153674, -0.032, 0.912, 0.47000000000000003, 192.0, 0.0, 0.0, 0.0, 0.0, 0.0, 0.0, 0.0, 0.0, 0.0, 1.65415497348424E9, 0.0, 2022-06-02 09:29:33.484
25.0, 19829.55125922576, -9456.307823217849, -63021.92813419439, -29645.34218851831, -15380.704746330352, -40066.48541289394, -11669.108172548793, -33185.2326613942, -0.032, 0.912, 0.47000000000000003, 192.0, 0.0, 0.0, 0.0, 0.0, 0.0, 0.0, 0.0, 0.0, 0.0, 1.6541549734842453E9, 0.0, 2022-06-02 09:29:33.484
26.0, 19822.73397716689, -9464.332099477304, -63035.83091924559, -29658.127386346747, -15395.680415115407, -40080.52230841188, -11688.822411158373, -33205.70685931526, -0.032, 0.912, 0.47000000000000003, 192.0, 0.0, 0.0, 0.0, 0.0, 0.0, 0.0, 0.0, 0.0, 0.0, 1.6541549734842503E9, 0.0, 2022-06-02 09:29:33.484
27.0, 19824.388006256584, -9456.911320318142, -63021.883430705486, -29648.71730193106, -15384.638653354485, -40068.65353210611, -11681.714556421586, -33181.05288518106, -0.032, 0.914, 0.464, 192.0, 255.0, 0.0, 28.0, 144.0, 14.0, 128.0, 0.0, 0.0, 0.0, 1.6541549734842553E9, 0.0, 2022-06-02 09:29:33.484
28.0, 19832.25582030485, -9442.762666077931, -63008.159459609924, -29633.24989476799, -15371.272310170212, -40044.848924261205, -11676.372489496767, -33148.46404176522, -0.032, 0.914, 0.464, 192.0, 0.0, 0.0, 0.0, 0.0, 0.0, 0.0, 0.0, 0.0, 0.0, 1.6541549734842608E9, 0.0, 2022-06-02 09:29:33.484
29.0, 19829.68536969249, -9445.377820179203, -63010.72991022228, -29634.076909312837, -15366.980775234793, -40048.15698244059, -11656.300622975901, -33166.32308558501, -0.032, 0.914, 0.464, 192.0, 0.0, 0.0, 0.0, 0.0, 0.0, 0.0, 0.0, 0.0, 0.0, 1.6541549734842658E9, 0.0, 2022-06-02 09:29:33.484
30.0, 19821.504631221847, -9463.192160510083, -63021.458747560835, -29647.510307730474, -15372.836932282084, -40068.31825593928, -11643.716590847564, -33168.69237049727, -0.032, 0.914, 0.464, 192.0, 0.0, 0.0, 0.0, 0.0, 0.0, 0.0, 0.0, 0.0, 0.0, 1.654154973484271E9, 0.0, 2022-06-02 09:29:33.484
31.0, 19815.804936385746, -9467.796619867877, -63022.88925920597, -29649.633723453728, -15379.4306968964, -40071.3580931852, -11659.608681155287, -33165.25020185116, -0.032, 0.914, 0.464, 192.0, 0.0, 0.0, 0.0, 0.0, 0.0, 0.0, 0.0, 0.0, 0.0, 1.6541549734842763E9, 0.0, 2022-06-02 09:29:33.484
32.0, 19821.102299821654, -9452.932709805096, -63010.93107592238, -29633.24989476799, -15371.719345059319, -40053.07436622076, -11659.318108477368, -33163.21619310572, -0.032, 0.914, 0.464, 192.0, 0.0, 0.0, 0.0, 0.0, 0.0, 0.0, 0.0, 0.0, 0.0, 1.6541549734842815E9, 0.0, 2022-06-02 09:29:33.484
33.0, 19826.153794068552, -9445.780151579398, -63007.73477646527, -29629.025415065935, -15367.405458379444, -40046.815877773275, -11657.552320665398, -33166.546603029565, -0.032, 0.914, 0.464, 192.0, 0.0, 0.0, 0.0, 0.0, 0.0, 0.0, 0.0, 0.0, 0.0, 1.6541549734842896E9, 0.0, 2022-06-02 09:29:33.484
34.0, 19833.30635229425, -9442.427389911103, -63011.19929685585, -29631.729976145027, -15370.132371202992, -40054.88485752164, -11659.273404988457, -33142.920809140305, -0.032, 0.914, 0.464, 192.0, 0.0, 0.0, 0.0, 0.0, 0.0, 0.0, 0.0, 0.0, 0.0, 1.654154973484295E9, 0.0, 2022-06-02 09:29:33.484
35.0, 19832.769910427323, -9449.267023714427, -63022.03989291667, -29640.178935549135, -15381.621167853018, -40063.84790704821, -11668.638785915231, -33158.61173374793, -0.032, 0.914, 0.464, 192.0, 0.0, 0.0, 0.0, 0.0, 0.0, 0.0, 0.0, 0.0, 0.0, 1.6541549734843001E9, 0.0, 2022-06-02 09:29:33.484
36.0, 19839.900116908564, -9443.902605045152, -63020.45291906034, -29637.563781447865, -15379.90008352996, -40058.39408140112, -11662.134428278736, -33166.837175707486, -0.032, 0.914, 0.464, 192.0, 0.0, 0.0, 0.0, 0.0, 0.0, 0.0, 0.0, 0.0, 0.0, 1.6541549734843054E9, 0.0, 2022-06-02 09:29:33.484
37.0, 19849.220794346427, -9430.335096160781, -63008.9194189214, -29626.76788887595, -15367.89719675746, -40047.01704347337, -11651.182073495636, -33169.340571086475, -0.028, 0.91, 0.47000000000000003, 192.0, 255.0, 32.0, 28.0, 112.0, 14.0, 176.0, 0.0, 0.0, 0.0, 1.6541549734843106E9, 0.0, 2022-06-02 09:29:33.484
38.0, 19840.6824279645, -9435.05131424085, -63009.61232299952, -29627.214923765056, -15367.763086290728, -40045.54182833932, -11657.015878798471, -33153.113204611924, -0.028, 0.91, 0.47000000000000003, 192.0, 0.0, 0.0, 0.0, 0.0, 0.0, 0.0, 0.0, 0.0, 0.0, 1.654154973484316E9, 0.0, 2022-06-02 09:29:33.484
39.0, 19836.39089302908, -9439.544014876368, -63012.38393931198, -29630.835906366818, -15365.885539756482, -40049.341624896726, -11649.21511998357, -33152.88968716737, -0.028, 0.91, 0.47000000000000003, 192.0, 0.0, 0.0, 0.0, 0.0, 0.0, 0.0, 0.0, 0.0, 0.0, 1.6541549734843225E9, 0.0, 2022-06-02 09:29:33.484
40.0, 19831.27234354882, -9449.021154525419, -63026.66670401892, -29646.01274085197, -15376.301452672657, -40064.987846015436, -11657.30645147639, -33176.60488803445, -0.028, 0.91, 0.47000000000000003, 192.0, 0.0, 0.0, 0.0, 0.0, 0.0, 0.0, 0.0, 0.0, 0.0, 1.654154973484329E9, 0.0, 2022-06-02 09:29:33.484
41.0, 19825.572648712714, -9456.978375551507, -63033.90866922244, -29651.935953132626, -15384.303377187656, -40069.324084439766, -11671.343346994323, -33167.01598966312, -0.028, 0.91, 0.47000000000000003, 192.0, 0.0, 0.0, 0.0, 0.0, 0.0, 0.0, 0.0, 0.0, 0.0, 1.6541549734843345E9, 0.0, 2022-06-02 09:29:33.484
42.0, 19823.8292126452, -9454.407924939147, -63026.376131341, -29647.018569352458, -15382.582292864598, -40067.75946232789, -11666.537721936433, -33168.491204797174, -0.028, 0.91, 0.47000000000000003, 192.0, 0.0, 0.0, 0.0, 0.0, 0.0, 0.0, 0.0, 0.0, 0.0, 1.6541549734843402E9, 0.0, 2022-06-02 09:29:33.484
43.0, 19814.59794218516, -9454.542035405879, -63024.23036387329, -29644.269304784455, -15387.47732490031, -40065.99367451593, -11671.566864438875, -33171.35222808745, -0.028, 0.91, 0.47000000000000003, 192.0, 0.0, 0.0, 0.0, 0.0, 0.0, 0.0, 0.0, 0.0, 0.0, 1.6541549734843478E9, 0.0, 2022-06-02 09:29:33.484
44.0, 19822.59986670016, -9449.915224303631, -63015.26731434671, -29635.73093840253, -15378.022536995715, -40058.66230233459, -11666.515370191977, -33168.84883270846, -0.028, 0.91, 0.47000000000000003, 192.0, 0.0, 0.0, 0.0, 0.0, 0.0, 0.0, 0.0, 0.0, 0.0, 1.6541549734843533E9, 0.0, 2022-06-02 09:29:33.484
45.0, 19818.196573042464, -9464.689727388588, -63030.60061104305, -29653.45587175559, -15389.399574923465, -40080.49995666742, -11681.64750118822, -33192.966364975735, -0.028, 0.91, 0.47000000000000003, 192.0, 0.0, 0.0, 0.0, 0.0, 0.0, 0.0, 0.0, 0.0, 0.0, 1.6541549734843588E9, 0.0, 2022-06-02 09:29:33.484
46.0, 19828.50072723636, -9453.580910394301, -63021.19052662737, -29643.710511173074, -15383.029327753704, -40072.676846108065, -11676.774820896962, -33189.79241726308, -0.028, 0.91, 0.47000000000000003, 192.0, 0.0, 0.0, 0.0, 0.0, 0.0, 0.0, 0.0, 0.0, 0.0, 1.654154973484364E9, 0.0, 2022-06-02 09:29:33.484
47.0, 19833.999256372364, -9443.746142833967, -63008.80766019913, -29631.23823776701, -15368.880673513493, -40055.04131973282, -11639.983849523527, -33123.78771588656, -0.022, 0.914, 0.466, 192.0, 255.0, 80.0, 28.0, 144.0, 14.0, 144.0, 0.0, 0.0, 0.0, 1.6541549734843693E9, 0.0, 2022-06-02 09:29:33.484
48.0, 19822.7786806558, -9447.568291135824, -63013.702692234845, -29637.653188425684, -15375.09445847207, -40062.12682272516, -11644.834178070329, -33175.50965255614, -0.022, 0.914, 0.466, 192.0, 0.0, 0.0, 0.0, 0.0, 0.0, 0.0, 0.0, 0.0, 0.0, 1.6541549734843743E9, 0.0, 2022-06-02 09:29:33.484
49.0, 19826.48907023538, -9444.39434342317, -63013.3227125791, -29637.943761103605, -15375.60854859454, -40064.630218104154, -11658.893425332717, -33175.62141127842, -0.022, 0.914, 0.466, 192.0, 0.0, 0.0, 0.0, 0.0, 0.0, 0.0, 0.0, 0.0, 0.0, 1.6541549734843795E9, 0.0, 2022-06-02 09:29:33.484
50.0, 19837.463776762936, -9439.544014876368, -63011.06518638912, -29632.400528478687, -15376.413211394933, -40059.51166862389, -11670.225759771558, -33152.46500402272, -0.022, 0.914, 0.466, 192.0, 0.0, 0.0, 0.0, 0.0, 0.0, 0.0, 0.0, 0.0, 0.0, 1.6541549734843845E9, 0.0, 2022-06-02 09:29:33.484
51.0, 19833.373407527615, -9444.416695167625, -63015.289666091165, -29634.1439645462, -15382.045850997669, -40062.395043658624, -11677.132448808248, -33188.786588762596, -0.022, 0.914, 0.466, 192.0, 0.0, 0.0, 0.0, 0.0, 0.0, 0.0, 0.0, 0.0, 0.0, 1.654154973484391E9, 0.0, 2022-06-02 09:29:33.484
52.0, 19824.45506148995, -9446.897738802165, -63017.83776495908, -29636.53560120292, -15384.146914976469, -40061.52332562487, -11681.133411065748, -33175.86728046743, -0.022, 0.914, 0.466, 192.0, 0.0, 0.0, 0.0, 0.0, 0.0, 0.0, 0.0, 0.0, 0.0, 1.6541549734843965E9, 0.0, 2022-06-02 09:29:33.484
53.0, 19824.276247534304, -9443.38851492268, -63014.105023635035, -29634.1439645462, -15377.03906023968, -40059.31050292379, -11668.079992303848, -33166.63601000739, -0.022, 0.914, 0.466, 192.0, 0.0, 0.0, 0.0, 0.0, 0.0, 0.0, 0.0, 0.0, 0.0, 1.6541549734844024E9, 0.0, 2022-06-02 09:29:33.484
54.0, 19826.824346402213, -9444.751971334455, -63013.278009090194, -29636.222676780544, -15376.167342205925, -40063.512630881385, -11651.562053151376, -33154.96839940172, -0.022, 0.914, 0.466, 192.0, 0.0, 0.0, 0.0, 0.0, 0.0, 0.0, 0.0, 0.0, 0.0, 1.6541549734844077E9, 0.0, 2022-06-02 09:29:33.484
55.0, 19838.044922118774, -9441.421561410614, -63012.96508466782, -29634.814516879862, -15374.870941027517, -40059.824593046265, -11664.548416679909, -33169.18410887529, -0.022, 0.914, 0.466, 192.0, 0.0, 0.0, 0.0, 0.0, 0.0, 0.0, 0.0, 0.0, 0.0, 1.654154973484413E9, 0.0, 2022-06-02 09:29:33.484
56.0, 19830.26651504833, -9447.210663224538, -63021.50345104974, -29644.269304784455, -15386.069164999624, -40067.781814072354, -11672.63974817273, -33170.34639958697, -0.022, 0.914, 0.466, 192.0, 0.0, 0.0, 0.0, 0.0, 0.0, 0.0, 0.0, 0.0, 0.0, 1.6541549734844184E9, 0.0, 2022-06-02 09:29:33.484
57.0, 19839.20721283045, -9434.492520629468, -62998.97289263879, -29625.24797025299, -15366.846664768062, -40049.11810745217, -11633.367733164756, -33137.73520442667, -0.024, 0.914, 0.466, 192.0, 255.0, 64.0, 28.0, 144.0, 14.0, 144.0, 0.0, 0.0, 0.0, 1.6541549734844236E9, 0.0, 2022-06-02 09:29:33.484
58.0, 19847.097378623173, -9422.936668746075, -62987.79702041114, -29610.629929379218, -15356.073123940603, -40034.65652878959, -11633.233622698024, -33149.71573945472, -0.024, 0.914, 0.466, 192.0, 0.0, 0.0, 0.0, 0.0, 0.0, 0.0, 0.0, 0.0, 0.0, 1.654154973484429E9, 0.0, 2022-06-02 09:29:33.484
59.0, 19840.436558775495, -9433.576099106802, -63000.80573568413, -29624.018624307948, -15367.360754890533, -40047.01704347337, -11649.125713005747, -33166.01016116264, -0.024, 0.914, 0.466, 192.0, 0.0, 0.0, 0.0, 0.0, 0.0, 0.0, 0.0, 0.0, 0.0, 1.654154973484434E9, 0.0, 2022-06-02 09:29:33.484
60.0, 19834.088663350187, -9447.814160324831, -63016.54136378066, -29641.67650242764, -15383.2304934538, -40064.09377623723, -11653.551358407898, -33160.22105934871, -0.024, 0.914, 0.466, 192.0, 0.0, 0.0, 0.0, 0.0, 0.0, 0.0, 0.0, 0.0, 0.0, 1.65415497348444E9, 0.0, 2022-06-02 09:29:33.484
61.0, 19823.516288222825, -9456.5313406624, -63026.75611099674, -29651.310104287877, -15395.747470348773, -40073.03447401935, -11665.509541691488, -33168.781777475095, -0.024, 0.914, 0.466, 192.0, 0.0, 0.0, 0.0, 0.0, 0.0, 0.0, 0.0, 0.0, 0.0, 1.654154973484445E9, 0.0, 2022-06-02 09:29:33.484
62.0, 19832.166413327028, -9442.136817233184, -63014.01561665721, -29636.714415158563, -15384.61630161003, -40056.62829358915, -11653.439599685622, -33167.463024552235, -0.024, 0.914, 0.466, 192.0, 0.0, 0.0, 0.0, 0.0, 0.0, 0.0, 0.0, 0.0, 0.0, 1.6541549734844503E9, 0.0, 2022-06-02 09:29:33.484
63.0, 19843.252878576863, -9427.876404270697, -63001.386881039965, -29623.3927754632, -15371.09349621457, -40041.80908701528, -11634.753541320986, -33167.530079785596, -0.024, 0.914, 0.466, 192.0, 0.0, 0.0, 0.0, 0.0, 0.0, 0.0, 0.0, 0.0, 0.0, 1.6541549734844556E9, 0.0, 2022-06-02 09:29:33.484
64.0, 19851.947707169977, -9420.410921622626, -62999.37522403899, -29623.035147551913, -15366.734906045784, -40041.22794165945, -11637.413398911167, -33196.98967897769, -0.024, 0.914, 0.466, 192.0, 0.0, 0.0, 0.0, 0.0, 0.0, 0.0, 0.0, 0.0, 0.0, 1.6541549734844637E9, 0.0, 2022-06-02 09:29:33.484
65.0, 19845.063369877742, -9433.754913062443, -63018.66477950392, -29641.96707510556, -15383.454010898355, -40060.092813979725, -11663.11790503477, -33152.912038911825, -0.024, 0.914, 0.466, 192.0, 0.0, 0.0, 0.0, 0.0, 0.0, 0.0, 0.0, 0.0, 0.0, 1.6541549734844687E9, 0.0, 2022-06-02 09:29:33.484
66.0, 19836.12267209562, -9445.668392857122, -63028.2760296197, -29648.382025764233, -15395.591008137586, -40069.324084439766, -11661.173303267158, -33134.09187008046, -0.024, 0.914, 0.466, 192.0, 0.0, 0.0, 0.0, 0.0, 0.0, 0.0, 0.0, 0.0, 0.0, 1.654154973484474E9, 0.0, 2022-06-02 09:29:33.484
67.0, 19841.710608209447, -9433.374933406703, -63012.2721805897, -29624.264493496954, -15379.698917829863, -40045.31831089477, -11629.25501218498, -33147.458213264734, -0.024, 0.916, 0.468, 192.0, 255.0, 64.0, 28.0, 160.0, 14.0, 160.0, 0.0, 0.0, 0.0, 1.6541549734844792E9, 0.0, 2022-06-02 09:29:33.484
68.0, 19847.11973036763, -9418.175747177094, -62998.257636816226, -29604.930234543113, -15362.733943788284, -40029.67208977605, -11608.57964856382, -33148.97813188769, -0.024, 0.916, 0.468, 192.0, 0.0, 0.0, 0.0, 0.0, 0.0, 0.0, 0.0, 0.0, 0.0, 1.6541549734844844E9, 0.0, 2022-06-02 09:29:33.484
69.0, 19835.16154708404, -9429.038694982373, -63016.80958471413, -29621.694042884596, -15374.401554393955, -40048.08992720723, -11630.551413363388, -33162.635047749885, -0.024, 0.916, 0.468, 192.0, 0.0, 0.0, 0.0, 0.0, 0.0, 0.0, 0.0, 0.0, 0.0, 1.6541549734844894E9, 0.0, 2022-06-02 09:29:33.484
70.0, 19839.609544230647, -9430.223337438505, -63030.22063138731, -29629.00306332148, -15379.073068985113, -40056.42712788905, -11645.504730403987, -33167.06069315204, -0.024, 0.916, 0.468, 192.0, 0.0, 0.0, 0.0, 0.0, 0.0, 0.0, 0.0, 0.0, 0.0, 1.6541549734844944E9, 0.0, 2022-06-02 09:29:33.484
71.0, 19842.090587865187, -9431.586793850278, -63035.4285878454, -29633.316950001354, -15385.935054532893, -40061.61273260268, -11648.633974627732, -33163.327951827996, -0.024, 0.916, 0.468, 192.0, 0.0, 0.0, 0.0, 0.0, 0.0, 0.0, 0.0, 0.0, 0.0, 1.6541549734844997E9, 0.0, 2022-06-02 09:29:33.484
72.0, 19852.17122461453, -9426.445892625557, -63031.00294244325, -29627.81842086535, -15382.671699842418, -40055.913037766586, -11651.718515362563, -33175.88963221188, -0.024, 0.916, 0.468, 192.0, 0.0, 0.0, 0.0, 0.0, 0.0, 0.0, 0.0, 0.0, 0.0, 1.6541549734845047E9, 0.0, 2022-06-02 09:29:33.484
73.0, 19847.097378623173, -9427.429369381593, -63033.34987561106, -29631.05942381137, -15378.782496307194, -40058.84111629023, -11648.25399497199, -33184.51740557163, -0.024, 0.916, 0.468, 192.0, 0.0, 0.0, 0.0, 0.0, 0.0, 0.0, 0.0, 0.0, 0.0, 1.65415497348451E9, 0.0, 2022-06-02 09:29:33.484
74.0, 19838.246087818872, -9433.978430506997, -63035.07095993411, -29637.34026400331, -15379.587159107587, -40066.46306114949, -11648.768085094463, -33153.4261290343, -0.024, 0.916, 0.468, 192.0, 0.0, 0.0, 0.0, 0.0, 0.0, 0.0, 0.0, 0.0, 0.0, 1.6541549734845152E9, 0.0, 2022-06-02 09:29:33.484
75.0, 19833.7310354389, -9443.947308534063, -63042.02235245972, -29642.72703441704, -15389.265464456734, -40073.41445367509, -11651.003259539993, -33164.22202160621, -0.024, 0.916, 0.468, 192.0, 0.0, 0.0, 0.0, 0.0, 0.0, 0.0, 0.0, 0.0, 0.0, 1.654154973484521E9, 0.0, 2022-06-02 09:29:33.484
76.0, 19826.73493942439, -9447.6800498581, -63047.69969555136, -29645.43159549613, -15401.067185529137, -40075.98490428745, -11664.883692846739, -33178.12480665741, -0.024, 0.916, 0.468, 192.0, 0.0, 0.0, 0.0, 0.0, 0.0, 0.0, 0.0, 0.0, 0.0, 1.654154973484526E9, 0.0, 2022-06-02 09:29:33.484
77.0, 19826.466718490927, -9440.415732910125, -63042.51409083773, -29641.92237161665, -15398.183810494402, -40070.575782129265, -11663.542588179422, -33188.227795151215, -0.024, 0.914, 0.466, 192.0, 255.0, 64.0, 28.0, 144.0, 14.0, 144.0, 0.0, 0.0, 0.0, 1.6541549734845312E9, 0.0, 2022-06-02 09:29:33.484
78.0, 19827.137270824584, -9436.951212519552, -63041.374151870514, -29641.609447194274, -15396.641540126986, -40067.915924539084, -11646.264689715468, -33178.013047935136, -0.024, 0.914, 0.466, 192.0, 0.0, 0.0, 0.0, 0.0, 0.0, 0.0, 0.0, 0.0, 0.0, 1.6541549734845364E9, 0.0, 2022-06-02 09:29:33.484
79.0, 19833.50751799435, -9435.565404363324, -63037.28378263519, -29638.279037270433, -15388.594912123075, -40062.08211923625, -11639.73798033452, -33146.541791742064, -0.024, 0.914, 0.466, 192.0, 0.0, 0.0, 0.0, 0.0, 0.0, 0.0, 0.0, 0.0, 0.0, 1.6541549734845417E9, 0.0, 2022-06-02 09:29:33.484
80.0, 19851.657134492056, -9425.842395525266, -63031.78525349918, -29628.891304599205, -15384.057507998647, -40056.15890695559, -11641.235547213024, -33157.76236745863, -0.024, 0.914, 0.466, 192.0, 0.0, 0.0, 0.0, 0.0, 0.0, 0.0, 0.0, 0.0, 0.0, 1.6541549734845467E9, 0.0, 2022-06-02 09:29:33.484
81.0, 19844.41516928854, -9433.889023529175, -63038.33431462459, -29635.77564189144, -15396.2839122157, -40067.67005535008, -11654.512483419478, -33177.90128921286, -0.024, 0.914, 0.466, 192.0, 0.0, 0.0, 0.0, 0.0, 0.0, 0.0, 0.0, 0.0, 0.0, 1.6541549734845524E9, 0.0, 2022-06-02 09:29:33.484
82.0, 19843.610506488145, -9424.948325747053, -63024.29741910666, -29623.973920819037, -15382.202313208856, -40057.03062498935, -11643.627183869743, -33156.93535291378, -0.024, 0.914, 0.466, 192.0, 0.0, 0.0, 0.0, 0.0, 0.0, 0.0, 0.0, 0.0, 0.0, 1.6541549734845574E9, 0.0, 2022-06-02 09:29:33.484
83.0, 19837.01674187383, -9425.328305402792, -63024.63269527349, -29623.43747895211, -15379.833028296594, -40056.65064533361, -11650.466817673067, -33144.75365218564, -0.024, 0.914, 0.466, 192.0, 0.0, 0.0, 0.0, 0.0, 0.0, 0.0, 0.0, 0.0, 0.0, 1.6541549734845626E9, 0.0, 2022-06-02 09:29:33.484
84.0, 19839.16250934154, -9420.85795651173, -63019.67060800441, -29619.72708937253, -15376.14499046147, -40052.56027609829, -11637.368695422256, -33140.73033818368, -0.024, 0.914, 0.466, 192.0, 0.0, 0.0, 0.0, 0.0, 0.0, 0.0, 0.0, 0.0, 0.0, 1.6541549734845676E9, 0.0, 2022-06-02 09:29:33.484
85.0, 19833.149890083063, -9430.871538027708, -63030.51120406523, -29636.468545969554, -15386.315034188634, -40071.000465273915, -11642.375486180244, -33174.70498975575, -0.024, 0.914, 0.466, 192.0, 0.0, 0.0, 0.0, 0.0, 0.0, 0.0, 0.0, 0.0, 0.0, 1.654154973484573E9, 0.0, 2022-06-02 09:29:33.484
86.0, 19823.15866031154, -9439.05227649835, -63040.323619881114, -29647.420900752655, -15396.2839122157, -40082.73513111295, -11645.571785637354, -33180.09176016948, -0.024, 0.914, 0.466, 192.0, 0.0, 0.0, 0.0, 0.0, 0.0, 0.0, 0.0, 0.0, 0.0, 1.6541549734845805E9, 0.0, 2022-06-02 09:29:33.484
87.0, 19821.482279477394, -9432.592622350767, -63030.73472150978, -29635.82034538035, -15385.957406277348, -40070.084043751245, -11633.479491887032, -33165.361960573435, -0.028, 0.92, 0.468, 192.0, 255.0, 32.0, 28.0, 192.0, 14.0, 160.0, 0.0, 0.0, 0.0, 1.6541549734845853E9, 0.0, 2022-06-02 09:29:33.484
88.0, 19824.477413234403, -9433.352581662248, -63029.68418952038, -29632.020548822948, -15382.738755075785, -40064.51845938188, -11631.266669185958, -33155.28132382409, -0.028, 0.92, 0.468, 192.0, 0.0, 0.0, 0.0, 0.0, 0.0, 0.0, 0.0, 0.0, 0.0, 1.6541549734845903E9, 0.0, 2022-06-02 09:29:33.484
89.0, 19838.536660496793, -9423.048427468351, -63018.84359345956, -29621.559932417862, -15368.031307224192, -40053.811973787786, -11606.34447411829, -33138.450460249245, -0.028, 0.92, 0.468, 192.0, 0.0, 0.0, 0.0, 0.0, 0.0, 0.0, 0.0, 0.0, 0.0, 1.6541549734845955E9, 0.0, 2022-06-02 09:29:33.484
90.0, 19837.709645951945, -9430.715075816523, -63025.68322726289, -29631.90879010067, -15375.787362550183, -40067.49124139443, -11625.410512138667, -33161.31629482702, -0.028, 0.92, 0.468, 192.0, 0.0, 0.0, 0.0, 0.0, 0.0, 0.0, 0.0, 0.0, 0.0, 1.6541549734846008E9, 0.0, 2022-06-02 09:29:33.484
91.0, 19823.225715544908, -9445.131950990195, -63040.614192559035, -29647.040921096912, -15393.534647647697, -40081.416378190086, -11648.052829271894, -33177.18603339029, -0.028, 0.92, 0.468, 192.0, 0.0, 0.0, 0.0, 0.0, 0.0, 0.0, 0.0, 0.0, 0.0, 1.654154973484606E9, 0.0, 2022-06-02 09:29:33.484
92.0, 19817.190744541975, -9449.065858014328, -63039.72012278082, -29646.43742399662, -15391.746508091273, -40077.92950605506, -11638.665096600664, -33181.41051309234, -0.028, 0.92, 0.468, 192.0, 0.0, 0.0, 0.0, 0.0, 0.0, 0.0, 0.0, 0.0, 0.0, 1.6541549734846113E9, 0.0, 2022-06-02 09:29:33.484
93.0, 19817.68248291999, -9448.39530568067, -63036.52382332371, -29646.10214782979, -15390.293644701678, -40077.95185779952, -11641.079085001837, -33190.55237657456, -0.028, 0.92, 0.468, 192.0, 0.0, 0.0, 0.0, 0.0, 0.0, 0.0, 0.0, 0.0, 0.0, 1.6541549734846165E9, 0.0, 2022-06-02 09:29:33.484
94.0, 19820.49880272136, -9442.852073055754, -63033.99807620026, -29644.87280188475, -15389.556037134653, -40078.84592757773, -11648.343401949813, -33175.979039189704, -0.028, 0.92, 0.468, 192.0, 0.0, 0.0, 0.0, 0.0, 0.0, 0.0, 0.0, 0.0, 0.0, 1.6541549734846215E9, 0.0, 2022-06-02 09:29:33.484
95.0, 19820.811727143733, -9448.06002951384, -63039.67541929191, -29649.16433682017, -15389.645444112473, -40076.811918832296, -11635.334686676822, -33161.07042563801, -0.028, 0.92, 0.468, 192.0, 0.0, 0.0, 0.0, 0.0, 0.0, 0.0, 0.0, 0.0, 0.0, 1.6541549734846296E9, 0.0, 2022-06-02 09:29:33.484
96.0, 19819.35886375414, -9449.82581732581, -63040.882413492494, -29651.95830487708, -15392.774688336218, -40076.27547696537, -11631.981925008527, -33146.698253953255, -0.026000000000000002, 0.924, 0.464, 192.0, 255.0, 48.0, 28.0, 224.0, 14.0, 128.0, 0.0, 0.0, 0.0, 1.654154973484635E9, 0.0, 2022-06-02 09:29:33.484
97.0, 19818.621256187114, -9447.031849268897, -63033.059302933136, -29645.43159549613, -15391.05360401316, -40069.659360606594, -11633.16656746466, -33151.794451689064, -0.026000000000000002, 0.924, 0.464, 192.0, 0.0, 0.0, 0.0, 0.0, 0.0, 0.0, 0.0, 0.0, 0.0, 1.6541549734846404E9, 0.0, 2022-06-02 09:29:33.484
98.0, 19825.86322139063, -9435.945384019064, -63017.86011670353, -29629.852429610783, -15375.966176505826, -40055.756575555395, -11620.381369636223, -33161.40570180484, -0.026000000000000002, 0.924, 0.464, 192.0, 0.0, 0.0, 0.0, 0.0, 0.0, 0.0, 0.0, 0.0, 0.0, 1.654154973484646E9, 0.0, 2022-06-02 09:29:33.484
99.0, 19823.292770778273, -9440.30397418785, -63026.15261389645, -29635.90975235817, -15380.056545741147, -40059.601075601706, -11632.831291297829, -33153.2249633342, -0.026000000000000002, 0.924, 0.464, 192.0, 0.0, 0.0, 0.0, 0.0, 0.0, 0.0, 0.0, 0.0, 0.0, 1.654154973484651E9, 0.0, 2022-06-02 09:29:33.484
100.0, 19814.083852062686, -9452.195102238073, -63045.37511412801, -29652.40533976619, -15393.914627303438, -40077.147194999125, -11638.910965789672, -33169.675847253304, -0.026000000000000002, 0.924, 0.464, 192.0, 0.0, 0.0, 0.0, 0.0, 0.0, 0.0, 0.0, 0.0, 0.0, 1.6541549734846563E9, 0.0, 2022-06-02 09:29:33.484
101.0, 19818.084814320187, -9449.714058603533, -63043.51991933822, -29650.57249672085, -15393.154667991957, -40077.95185779952, -11636.675791344142, -33182.86337648194, -0.026000000000000002, 0.924, 0.464, 192.0, 0.0, 0.0, 0.0, 0.0, 0.0, 0.0, 0.0, 0.0, 0.0, 1.6541549734846616E9, 0.0, 2022-06-02 09:29:33.484
102.0, 19822.01872134432, -9444.327288189805, -63034.66862853392, -29642.257647783477, -15387.298510944667, -40068.54177338383, -11634.619430854253, -33150.31923655501, -0.026000000000000002, 0.924, 0.464, 192.0, 0.0, 0.0, 0.0, 0.0, 0.0, 0.0, 0.0, 0.0, 0.0, 1.6541549734846668E9, 0.0, 2022-06-02 09:29:33.484
103.0, 19823.046901589263, -9439.275793942905, -63027.49371856377, -29632.4452319676, -15377.106115473047, -40060.092813979725, -11620.023741724937, -33135.3212160255, -0.026000000000000002, 0.924, 0.464, 192.0, 0.0, 0.0, 0.0, 0.0, 0.0, 0.0, 0.0, 0.0, 0.0, 1.654154973484672E9, 0.0, 2022-06-02 09:29:33.484
104.0, 19821.839907388676, -9441.48861664398, -63030.265334876225, -29631.14883078919, -15376.122638717014, -40062.35034016971, -11620.940163247606, -33154.05197787905, -0.026000000000000002, 0.924, 0.464, 192.0, 0.0, 0.0, 0.0, 0.0, 0.0, 0.0, 0.0, 0.0, 0.0, 1.6541549734846773E9, 0.0, 2022-06-02 09:29:33.484
105.0, 19823.78450915629, -9446.763628335433, -63041.508262337244, -29639.10605181528, -15383.386955664988, -40071.71572109649, -11639.805035567884, -33165.71958848472, -0.026000000000000002, 0.924, 0.464, 192.0, 0.0, 0.0, 0.0, 0.0, 0.0, 0.0, 0.0, 0.0, 0.0, 1.6541549734846823E9, 0.0, 2022-06-02 09:29:33.484
106.0, 19823.181012055997, -9451.077515015306, -63046.269183906224, -29646.839755396817, -15388.885484800994, -40079.33766595575, -11644.096570503303, -33183.44452183777, -0.028, 0.918, 0.464, 192.0, 255.0, 32.0, 28.0, 176.0, 14.0, 128.0, 0.0, 0.0, 0.0, 1.6541549734846876E9, 0.0, 2022-06-02 09:29:33.484
107.0, 19819.895305621067, -9449.132913247695, -63037.35083786856, -29641.25181928299, -15386.493848144275, -40069.681712351055, -11638.285116944924, -33144.3736725299, -0.028, 0.918, 0.464, 192.0, 0.0, 0.0, 0.0, 0.0, 0.0, 0.0, 0.0, 0.0, 0.0, 1.6541549734846957E9, 0.0, 2022-06-02 09:29:33.484
108.0, 19826.578477213203, -9432.905546773141, -63021.68226500539, -29627.997234820992, -15377.173170706414, -40056.71770056697, -11638.642744856208, -33153.403777289845, -0.028, 0.918, 0.464, 192.0, 0.0, 0.0, 0.0, 0.0, 0.0, 0.0, 0.0, 0.0, 0.0, 1.654154973484701E9, 0.0, 2022-06-02 09:29:33.484
109.0, 19845.152776855564, -9416.722883787499, -63008.584142754575, -29614.027394536424, -15359.828217009095, -40042.7031567935, -11634.35120992079, -33147.34645454246, -0.028, 0.918, 0.464, 192.0, 0.0, 0.0, 0.0, 0.0, 0.0, 0.0, 0.0, 0.0, 0.0, 1.654154973484706E9, 0.0, 2022-06-02 09:29:33.484
110.0, 19823.44923298946, -9449.021154525419, -63043.45286410485, -29649.231392053534, -15388.930188289904, -40076.0072560319, -11634.954707021083, -33153.269666823115, -0.028, 0.918, 0.464, 192.0, 0.0, 0.0, 0.0, 0.0, 0.0, 0.0, 0.0, 0.0, 0.0, 1.6541549734847107E9, 0.0, 2022-06-02 09:29:33.484
111.0, 19819.001235842854, -9454.787904594887, -63046.5821083286, -29656.428653768144, -15397.356795949556, -40083.5621456578, -11625.63402958322, -33172.42511182131, -0.028, 0.918, 0.464, 192.0, 0.0, 0.0, 0.0, 0.0, 0.0, 0.0, 0.0, 0.0, 0.0, 1.6541549734847162E9, 0.0, 2022-06-02 09:29:33.484
112.0, 19819.671788176514, -9451.591605137779, -63038.71429428033, -29650.10311008729, -15391.455935413354, -40079.5611834003, -11645.124750748248, -33175.17437638931, -0.028, 0.918, 0.464, 192.0, 0.0, 0.0, 0.0, 0.0, 0.0, 0.0, 0.0, 0.0, 0.0, 1.6541549734847217E9, 0.0, 2022-06-02 09:29:33.484
113.0, 19814.910866607534, -9455.369049950725, -63041.66472454843, -29652.271229299455, -15390.964197035337, -40082.73513111295, -11649.036306027927, -33186.23848989469, -0.028, 0.918, 0.464, 192.0, 0.0, 0.0, 0.0, 0.0, 0.0, 0.0, 0.0, 0.0, 0.0, 1.654154973484727E9, 0.0, 2022-06-02 09:29:33.484
114.0, 19818.956532353943, -9453.580910394301, -63041.172986170415, -29650.840717654315, -15386.829124311105, -40080.54466015633, -11642.844872813806, -33172.64862926586, -0.028, 0.918, 0.464, 192.0, 0.0, 0.0, 0.0, 0.0, 0.0, 0.0, 0.0, 0.0, 0.0, 1.6541549734847322E9, 0.0, 2022-06-02 09:29:33.484
115.0, 19823.292770778273, -9463.952119821563, -63054.40521888796, -29659.177918336147, -15397.826182583116, -40092.97223007348, -11662.670870145665, -33161.651570993854, -0.028, 0.918, 0.464, 192.0, 0.0, 0.0, 0.0, 0.0, 0.0, 0.0, 0.0, 0.0, 0.0, 1.6541549734847372E9, 0.0, 2022-06-02 09:29:33.484
116.0, 19807.914770593023, -9463.415677954636, -63055.90278576646, -29656.562764234874, -15400.977778551314, -40092.8604713512, -11668.370564981768, -33175.37554208941, -0.028, 0.92, 0.464, 192.0, 255.0, 32.0, 28.0, 192.0, 14.0, 128.0, 0.0, 0.0, 0.0, 1.6541549734847429E9, 0.0, 2022-06-02 09:29:33.484
117.0, 19805.25491300284, -9456.665451129133, -63045.03983796118, -29643.91167687317, -15390.718327846329, -40078.890631066635, -11645.30356470389, -33183.69039102679, -0.028, 0.92, 0.464, 192.0, 0.0, 0.0, 0.0, 0.0, 0.0, 0.0, 0.0, 0.0, 0.0, 1.654154973484748E9, 0.0, 2022-06-02 09:29:33.484
118.0, 19811.69221540597, -9452.172750493617, -63037.64141054647, -29637.541429703408, -15383.2304934538, -40072.09570075222, -11632.943050020105, -33170.41345482033, -0.028, 0.92, 0.464, 192.0, 0.0, 0.0, 0.0, 0.0, 0.0, 0.0, 0.0, 0.0, 0.0, 1.6541549734847531E9, 0.0, 2022-06-02 09:29:33.484
119.0, 19809.859372360632, -9458.341831963282, -63043.4305123604, -29644.20224955109, -15385.80094406616, -40078.622410133175, -11633.658305842675, -33155.95187615775, -0.028, 0.92, 0.464, 192.0, 0.0, 0.0, 0.0, 0.0, 0.0, 0.0, 0.0, 0.0, 0.0, 1.6541549734847584E9, 0.0, 2022-06-02 09:29:33.484
120.0, 19810.082889805188, -9461.87340758722, -63048.10202695156, -29650.371331020753, -15391.433583668899, -40086.579631159264, -11640.810864068373, -33190.12769342991, -0.028, 0.92, 0.464, 192.0, 0.0, 0.0, 0.0, 0.0, 0.0, 0.0, 0.0, 0.0, 0.0, 1.6541549734847636E9, 0.0, 2022-06-02 09:29:33.484
121.0, 19811.334587494683, -9459.72764011951, -63045.37511412801, -29648.47143274205, -15393.825220325616, -40085.59615440323, -11645.97411703755, -33183.869204982424, -0.028, 0.92, 0.464, 192.0, 0.0, 0.0, 0.0, 0.0, 0.0, 0.0, 0.0, 0.0, 0.0, 1.6541549734847689E9, 0.0, 2022-06-02 09:29:33.484
122.0, 19807.19951477045, -9458.140666263183, -63043.58697457159, -29645.029264095934, -15393.132316247502, -40083.47273867998, -11645.795303081906, -33150.29688481055, -0.028, 0.92, 0.464, 192.0, 0.0, 0.0, 0.0, 0.0, 0.0, 0.0, 0.0, 0.0, 0.0, 1.6541549739637787E9, 0.0, 2022-06-02 09:29:33.963
123.0, 19823.717453922924, -9436.839453797276, -63022.59868652805, -29620.688214384107, -15374.937996260882, -40056.56123835579, -11630.104378474281, -33152.80028018955, -0.028, 0.92, 0.464, 192.0, 0.0, 0.0, 0.0, 0.0, 0.0, 0.0, 0.0, 0.0, 0.0, 1.654154973963853E9, 0.0, 2022-06-02 09:29:33.963
124.0, 19817.481317219892, -9443.723791089511, -63027.31490460812, -29627.81842086535, -15377.687260828885, -40060.226924446455, -11639.760332078975, -33162.635047749885, -0.028, 0.92, 0.464, 192.0, 0.0, 0.0, 0.0, 0.0, 0.0, 0.0, 0.0, 0.0, 0.0, 1.6541549739639637E9, 0.0, 2022-06-02 09:29:33.963
125.0, 19801.20924725643, -9461.87340758722, -63048.86198626304, -29651.57832522134, -15393.80286858116, -40083.80801484681, -11652.724343863052, -33188.47366434022, -0.028, 0.92, 0.464, 192.0, 0.0, 0.0, 0.0, 0.0, 0.0, 0.0, 0.0, 0.0, 0.0, 1.6541549739639697E9, 0.0, 2022-06-02 09:29:33.963
126.0, 19805.791354869765, -9460.398192453169, -63048.10202695156, -29650.863069398772, -15393.467592414332, -40080.2093839895, -11655.674774131152, -33185.79145500559, -0.028, 0.92, 0.458, 192.0, 255.0, 32.0, 28.0, 192.0, 14.0, 80.0, 0.0, 0.0, 0.0, 1.654154973963977E9, 0.0, 2022-06-02 09:29:33.963
127.0, 19804.673767647, -9458.855922085753, -63045.151596683456, -29645.543354218407, -15392.931150547403, -40071.60396237421, -11643.649535614197, -33163.57382101701, -0.028, 0.92, 0.458, 192.0, 0.0, 0.0, 0.0, 0.0, 0.0, 0.0, 0.0, 0.0, 0.0, 1.6541549739639833E9, 0.0, 2022-06-02 09:29:33.963
128.0, 19823.65039868956, -9434.984259007486, -63021.168174882914, -29620.688214384107, -15370.311185158633, -40046.74882253991, -11602.254104882968, -33126.93931185476, -0.028, 0.92, 0.458, 192.0, 0.0, 0.0, 0.0, 0.0, 0.0, 0.0, 0.0, 0.0, 0.0, 1.6541549739639952E9, 0.0, 2022-06-02 09:29:33.963
129.0, 19823.270419033815, -9436.682991586089, -63023.559811539635, -29625.42678420863, -15365.75142928975, -40051.04035747533, -11605.852735740273, -33146.98882663117, -0.028, 0.92, 0.458, 192.0, 0.0, 0.0, 0.0, 0.0, 0.0, 0.0, 0.0, 0.0, 0.0, 1.6541549739640007E9, 0.0, 2022-06-02 09:29:33.964
130.0, 19808.40650897104, -9458.520645918923, -63047.92321299592, -29651.15364207669, -15387.253807455756, -40076.92367755457, -11640.386180923722, -33186.46200733924, -0.028, 0.92, 0.458, 192.0, 0.0, 0.0, 0.0, 0.0, 0.0, 0.0, 0.0, 0.0, 0.0, 1.654154973964006E9, 0.0, 2022-06-02 09:29:33.964
131.0, 19797.074174532198, -9468.333061734804, -63058.786160801195, -29661.502499759496, -15404.62111289753, -40087.07136953728, -11662.156780023191, -33189.121864929424, -0.028, 0.92, 0.458, 192.0, 0.0, 0.0, 0.0, 0.0, 0.0, 0.0, 0.0, 0.0, 0.0, 1.6541549739640112E9, 0.0, 2022-06-02 09:29:33.964
132.0, 19793.274377974794, -9468.288358245893, -63050.113683952535, -29650.796014165404, -15399.435508183898, -40071.80512807431, -11647.806960082884, -33154.76723370162, -0.028, 0.92, 0.458, 192.0, 0.0, 0.0, 0.0, 0.0, 0.0, 0.0, 0.0, 0.0, 0.0, 1.6541549739640164E9, 0.0, 2022-06-02 09:29:33.964
133.0, 19798.01294779932, -9462.342794220782, -63042.5811460711, -29643.3975867507, -15391.2324179688, -40066.08308149375, -11640.699105346097, -33158.499975025654, -0.028, 0.92, 0.458, 192.0, 0.0, 0.0, 0.0, 0.0, 0.0, 0.0, 0.0, 0.0, 0.0, 1.6541549739640217E9, 0.0, 2022-06-02 09:29:33.964
134.0, 19804.33849148017, -9462.49925643197, -63045.5315763392, -29648.560839719874, -15386.918531288926, -40071.559258885296, -11641.056733257383, -33191.647612052875, -0.028, 0.92, 0.458, 192.0, 0.0, 0.0, 0.0, 0.0, 0.0, 0.0, 0.0, 0.0, 0.0, 1.6541549739640267E9, 0.0, 2022-06-02 09:29:33.964
135.0, 19806.506610692337, -9470.657643158156, -63055.05341947716, -29663.178880593645, -15392.864095314038, -40087.02666604837, -11648.857492072284, -33190.64178355238, -0.028, 0.92, 0.458, 192.0, 0.0, 0.0, 0.0, 0.0, 0.0, 0.0, 0.0, 0.0, 0.0, 1.654154973964032E9, 0.0, 2022-06-02 09:29:33.964
136.0, 19797.856485588134, -9474.032756570907, -63058.20501544536, -29669.839700441327, -15404.576409408619, -40096.369695230685, -11664.079030046349, -33183.466873582234, -0.022, 0.914, 0.462, 192.0, 255.0, 80.0, 28.0, 144.0, 14.0, 112.0, 0.0, 0.0, 0.0, 1.6541549739640377E9, 0.0, 2022-06-02 09:29:33.964
137.0, 19808.764136882324, -9458.744163363477, -63042.5811460711, -29650.05840659838, -15394.13814474799, -40073.77208158637, -11657.909948576684, -33171.35222808745, -0.022, 0.914, 0.462, 192.0, 0.0, 0.0, 0.0, 0.0, 0.0, 0.0, 0.0, 0.0, 0.0, 1.654154973964043E9, 0.0, 2022-06-02 09:29:33.964
138.0, 19813.458003217936, -9446.87538705771, -63027.2254976303, -29631.90879010067, -15379.833028296594, -40053.16377319858, -11624.292924915902, -33141.2220765617, -0.022, 0.914, 0.462, 192.0, 0.0, 0.0, 0.0, 0.0, 0.0, 0.0, 0.0, 0.0, 0.0, 1.654154973964048E9, 0.0, 2022-06-02 09:29:33.964
139.0, 19807.803011870743, -9453.647965627666, -63032.61226804403, -29637.049691325392, -15383.252845198256, -40060.69631108002, -11626.014009238961, -33159.75167271515, -0.022, 0.914, 0.462, 192.0, 0.0, 0.0, 0.0, 0.0, 0.0, 0.0, 0.0, 0.0, 0.0, 1.6541549739640532E9, 0.0, 2022-06-02 09:29:33.964
140.0, 19804.33849148017, -9467.215474512039, -63052.39356188698, -29654.30523804489, -15395.635711626497, -40078.756520599905, -11642.01785826896, -33189.01010620715, -0.022, 0.914, 0.462, 192.0, 0.0, 0.0, 0.0, 0.0, 0.0, 0.0, 0.0, 0.0, 0.0, 1.6541549739640584E9, 0.0, 2022-06-02 09:29:33.964
141.0, 19799.644625144556, -9472.490486203491, -63059.836692790595, -29658.663828213674, -15404.531705919708, -40082.93629681305, -11658.178169510147, -33194.06160045405, -0.022, 0.914, 0.462, 192.0, 0.0, 0.0, 0.0, 0.0, 0.0, 0.0, 0.0, 0.0, 0.0, 1.654154973964064E9, 0.0, 2022-06-02 09:29:33.964
142.0, 19812.653340417546, -9454.564387150334, -63041.508262337244, -29639.01664483746, -15383.297548687167, -40064.36199717069, -11639.268593700957, -33176.06844616753, -0.022, 0.914, 0.462, 192.0, 0.0, 0.0, 0.0, 0.0, 0.0, 0.0, 0.0, 0.0, 0.0, 1.654154973964069E9, 0.0, 2022-06-02 09:29:33.964
143.0, 19812.608636928635, -9450.451666170558, -63035.294477378666, -29635.10508955778, -15372.792228793172, -40060.56220061328, -11622.72830280403, -33161.07042563801, -0.022, 0.914, 0.462, 192.0, 0.0, 0.0, 0.0, 0.0, 0.0, 0.0, 0.0, 0.0, 0.0, 1.6541549739640744E9, 0.0, 2022-06-02 09:29:33.964
144.0, 19812.29571250626, -9449.11056150324, -63033.48398607779, -29634.09926105729, -15369.595929336063, -40059.668130835074, -11626.997485994994, -33158.164698858825, -0.022, 0.914, 0.462, 192.0, 0.0, 0.0, 0.0, 0.0, 0.0, 0.0, 0.0, 0.0, 0.0, 1.6541549739640806E9, 0.0, 2022-06-02 09:29:33.964
145.0, 19818.129517809095, -9452.373916193714, -63038.781349513694, -29639.284865770922, -15376.927301517404, -40065.323122182264, -11634.328858176334, -33177.11897815693, -0.022, 0.914, 0.462, 192.0, 0.0, 0.0, 0.0, 0.0, 0.0, 0.0, 0.0, 0.0, 0.0, 1.654154973964086E9, 0.0, 2022-06-02 09:29:33.964
146.0, 19814.15090729605, -9459.951157564063, -63045.26335540573, -29647.264438541468, -15383.163438220436, -40071.17927922956, -11633.099512231292, -33173.118015899425, -0.022, 0.908, 0.464, 192.0, 255.0, 80.0, 28.0, 96.0, 14.0, 128.0, 0.0, 0.0, 0.0, 1.6541549739640925E9, 0.0, 2022-06-02 09:29:33.964
147.0, 19811.11107005013, -9454.653794128155, -63038.088445435584, -29640.06717682686, -15378.536627118187, -40063.3561686702, -11630.976096508039, -33161.025722149105, -0.022, 0.908, 0.464, 192.0, 0.0, 0.0, 0.0, 0.0, 0.0, 0.0, 0.0, 0.0, 0.0, 1.6541549739640975E9, 0.0, 2022-06-02 09:29:33.964
148.0, 19812.005139828343, -9450.697535359566, -63029.68418952038, -29630.61238892226, -15373.66394682693, -40053.96843599897, -11636.474625644045, -33171.88866995438, -0.022, 0.908, 0.464, 192.0, 0.0, 0.0, 0.0, 0.0, 0.0, 0.0, 0.0, 0.0, 0.0, 1.654154973964104E9, 0.0, 2022-06-02 09:29:33.964
149.0, 19811.15577353904, -9450.384610937192, -63032.74637851076, -29632.691101156608, -15377.262577684234, -40057.12003196717, -11646.82348332685, -33184.785626505094, -0.022, 0.908, 0.464, 192.0, 0.0, 0.0, 0.0, 0.0, 0.0, 0.0, 0.0, 0.0, 0.0, 1.6541549739641092E9, 0.0, 2022-06-02 09:29:33.964
150.0, 19807.40068047055, -9463.192160510083, -63044.39163737198, -29646.213906552068, -15383.901045787461, -40071.000465273915, -11636.385218666222, -33182.483396826196, -0.022, 0.908, 0.464, 192.0, 0.0, 0.0, 0.0, 0.0, 0.0, 0.0, 0.0, 0.0, 0.0, 1.6541549739641168E9, 0.0, 2022-06-02 09:29:33.964
151.0, 19799.801087355743, -9473.786887381899, -63052.974707242814, -29655.378121778744, -15395.300435459667, -40080.65641887861, -11650.288003717424, -33171.5310420431, -0.022, 0.908, 0.464, 192.0, 0.0, 0.0, 0.0, 0.0, 0.0, 0.0, 0.0, 0.0, 0.0, 1.654154973964122E9, 0.0, 2022-06-02 09:29:33.964
152.0, 19797.834133843677, -9469.204779768561, -63047.029143217704, -29648.784357164426, -15390.181885979402, -40070.91105829609, -11636.45227389959, -33161.74097797167, -0.022, 0.908, 0.464, 192.0, 0.0, 0.0, 0.0, 0.0, 0.0, 0.0, 0.0, 0.0, 0.0, 1.6541549739641273E9, 0.0, 2022-06-02 09:29:33.964
153.0, 19811.222828772407, -9457.559520907345, -63036.63558204599, -29639.553086704385, -15375.027403238702, -40058.84111629023, -11622.661247570664, -33160.62339074891, -0.022, 0.908, 0.464, 192.0, 0.0, 0.0, 0.0, 0.0, 0.0, 0.0, 0.0, 0.0, 0.0, 1.6541549739641323E9, 0.0, 2022-06-02 09:29:33.964
154.0, 19820.252933532352, -9449.021154525419, -63026.13026215199, -29632.311121500865, -15362.823350766106, -40051.59915108671, -11614.212288166558, -33142.920809140305, -0.022, 0.908, 0.464, 192.0, 0.0, 0.0, 0.0, 0.0, 0.0, 0.0, 0.0, 0.0, 0.0, 1.6541549739641376E9, 0.0, 2022-06-02 09:29:33.964
155.0, 19818.86712537612, -9458.230073241004, -63038.55783206914, -29644.492822229007, -15370.221778180812, -40066.93244778305, -11622.77300629294, -33166.79247221857, -0.022, 0.908, 0.464, 192.0, 0.0, 0.0, 0.0, 0.0, 0.0, 0.0, 0.0, 0.0, 0.0, 1.6541549739641435E9, 0.0, 2022-06-02 09:29:33.964
156.0, 19808.8758956046, -9471.194085025083, -63054.13699795449, -29660.317857303366, -15382.895217286972, -40081.192860745534, -11634.798244809896, -33189.30067888507, -0.022, 0.91, 0.464, 192.0, 255.0, 80.0, 28.0, 112.0, 14.0, 128.0, 0.0, 0.0, 0.0, 1.6541549739641488E9, 0.0, 2022-06-02 09:29:33.964
157.0, 19800.53869492277, -9471.328195491815, -63055.45575087736, -29660.742540448016, -15386.225627210812, -40079.22590723347, -11654.780704352941, -33190.01593470763, -0.022, 0.91, 0.464, 192.0, 0.0, 0.0, 0.0, 0.0, 0.0, 0.0, 0.0, 0.0, 0.0, 1.6541549739641545E9, 0.0, 2022-06-02 09:29:33.964
158.0, 19817.63777943108, -9448.81998882532, -63034.02042794471, -29634.211019779566, -15369.171246191412, -40049.2522179189, -11640.050904756894, -33146.11710859741, -0.022, 0.91, 0.464, 192.0, 0.0, 0.0, 0.0, 0.0, 0.0, 0.0, 0.0, 0.0, 0.0, 1.6541549739641595E9, 0.0, 2022-06-02 09:29:33.964
159.0, 19821.325817266206, -9446.115427746228, -63032.768730255215, -29627.438441209608, -15364.745600789262, -40040.46798234797, -11615.843965511796, -33124.5700269425, -0.022, 0.91, 0.464, 192.0, 0.0, 0.0, 0.0, 0.0, 0.0, 0.0, 0.0, 0.0, 0.0, 1.6541549739641652E9, 0.0, 2022-06-02 09:29:33.964
160.0, 19821.21405854393, -9459.146494763672, -63042.53644258219, -29638.68136867063, -15373.28396717119, -40053.74491855442, -11612.91588698815, -33139.79156491656, -0.022, 0.91, 0.464, 192.0, 0.0, 0.0, 0.0, 0.0, 0.0, 0.0, 0.0, 0.0, 0.0, 1.654154973964171E9, 0.0, 2022-06-02 09:29:33.964
161.0, 19824.477413234403, -9462.365145965237, -63042.29057339318, -29640.357749504776, -15381.218836452823, -40056.874162778164, -11630.819634296851, -33160.869259937914, -0.022, 0.91, 0.464, 192.0, 0.0, 0.0, 0.0, 0.0, 0.0, 0.0, 0.0, 0.0, 0.0, 1.6541549739641764E9, 0.0, 2022-06-02 09:29:33.964
162.0, 19822.488107977882, -9459.168846508128, -63038.69194253587, -29637.899057614693, -15379.050717240658, -40054.10254646571, -11642.151968735692, -33175.57670778951, -0.022, 0.91, 0.464, 192.0, 0.0, 0.0, 0.0, 0.0, 0.0, 0.0, 0.0, 0.0, 0.0, 1.6541549739641817E9, 0.0, 2022-06-02 09:29:33.964
163.0, 19817.548372453257, -9452.798599338365, -63031.606439543546, -29631.774679633938, -15368.098362457558, -40047.53113359584, -11618.25795391297, -33153.31437031202, -0.022, 0.91, 0.464, 192.0, 0.0, 0.0, 0.0, 0.0, 0.0, 0.0, 0.0, 0.0, 0.0, 1.654154973964187E9, 0.0, 2022-06-02 09:29:33.964
164.0, 19814.754404396346, -9452.351564449258, -63028.09721566406, -29630.075947055335, -15365.103228700547, -40047.26291266238, -11607.640875296698, -33130.403832245334, -0.022, 0.91, 0.464, 192.0, 0.0, 0.0, 0.0, 0.0, 0.0, 0.0, 0.0, 0.0, 0.0, 1.654154973964192E9, 0.0, 2022-06-02 09:29:33.964
165.0, 19800.24812224485, -9471.529361191913, -63050.895995008475, -29653.21000256658, -15388.371394678521, -40073.41445367509, -11642.06256175787, -33194.0839521985, -0.022, 0.91, 0.464, 192.0, 0.0, 0.0, 0.0, 0.0, 0.0, 0.0, 0.0, 0.0, 0.0, 1.6541549739641972E9, 0.0, 2022-06-02 09:29:33.964
166.0, 19802.43859320147, -9467.72956463451, -63053.44409387638, -29657.210964824077, -15396.082746515602, -40080.05292177831, -11657.149989265203, -33201.57178659103, -0.026000000000000002, 0.912, 0.466, 192.0, 255.0, 48.0, 28.0, 128.0, 14.0, 144.0, 0.0, 0.0, 0.0, 1.6541549739642024E9, 0.0, 2022-06-02 09:29:33.964
167.0, 19810.284055505283, -9457.179541251606, -63047.4314746179, -29648.851412397795, -15389.354871434554, -40069.949933284515, -11645.30356470389, -33149.626332476895, -0.026000000000000002, 0.912, 0.466, 192.0, 0.0, 0.0, 0.0, 0.0, 0.0, 0.0, 0.0, 0.0, 0.0, 1.6541549739642076E9, 0.0, 2022-06-02 09:29:33.964
168.0, 19823.8292126452, -9441.19804396606, -63032.90284072195, -29634.30042675739, -15377.486095128786, -40050.28039816384, -11636.295811688402, -33143.41254751832, -0.026000000000000002, 0.912, 0.466, 192.0, 0.0, 0.0, 0.0, 0.0, 0.0, 0.0, 0.0, 0.0, 0.0, 1.654154973964213E9, 0.0, 2022-06-02 09:29:33.964
169.0, 19835.58623022869, -9431.832663039288, -63019.80471847114, -29622.297539984887, -15361.638708309974, -40035.416488101066, -11628.53975636241, -33152.68852146727, -0.026000000000000002, 0.912, 0.466, 192.0, 0.0, 0.0, 0.0, 0.0, 0.0, 0.0, 0.0, 0.0, 0.0, 1.654154973964218E9, 0.0, 2022-06-02 09:29:33.964
170.0, 19816.6766544195, -9458.163018007639, -63048.34789614057, -29647.91263913067, -15382.738755075785, -40062.73031982545, -11642.241375713513, -33169.675847253304, -0.026000000000000002, 0.912, 0.466, 192.0, 0.0, 0.0, 0.0, 0.0, 0.0, 0.0, 0.0, 0.0, 0.0, 1.6541549739642231E9, 0.0, 2022-06-02 09:29:33.964
171.0, 19813.010968328832, -9461.739297120488, -63055.34399215508, -29654.171127578156, -15391.94767379137, -40073.01212227489, -11663.609643412787, -33192.072295197526, -0.026000000000000002, 0.912, 0.466, 192.0, 0.0, 0.0, 0.0, 0.0, 0.0, 0.0, 0.0, 0.0, 0.0, 1.6541549739642303E9, 0.0, 2022-06-02 09:29:33.964
172.0, 19811.178125283495, -9460.912282575642, -63052.90765200945, -29649.186688564623, -15389.265464456734, -40067.37948267216, -11655.808884597885, -33178.46008282424, -0.026000000000000002, 0.912, 0.466, 192.0, 0.0, 0.0, 0.0, 0.0, 0.0, 0.0, 0.0, 0.0, 0.0, 1.6541549739642355E9, 0.0, 2022-06-02 09:29:33.964
173.0, 19816.63195093059, -9448.708230103044, -63041.374151870514, -29635.306255257878, -15380.637691096985, -40053.096717965214, -11648.92454730565, -33162.88091693889, -0.026000000000000002, 0.912, 0.466, 192.0, 0.0, 0.0, 0.0, 0.0, 0.0, 0.0, 0.0, 0.0, 0.0, 1.6541549739642408E9, 0.0, 2022-06-02 09:29:33.964
174.0, 19816.408433486038, -9446.853035313254, -63039.65306754745, -29634.926275602138, -15374.42390613841, -40050.16863944157, -11636.519329132954, -33145.53596324158, -0.026000000000000002, 0.912, 0.466, 192.0, 0.0, 0.0, 0.0, 0.0, 0.0, 0.0, 0.0, 0.0, 0.0, 1.654154973964246E9, 0.0, 2022-06-02 09:29:33.964
175.0, 19823.337474267184, -9444.796674823365, -63036.38971285698, -29633.652226168186, -15364.94676648936, -40049.54279059682, -11603.259933383457, -33149.51457375462, -0.022, 0.906, 0.466, 192.0, 255.0, 80.0, 28.0, 80.0, 14.0, 144.0, 0.0, 0.0, 0.0, 1.6541549739642513E9, 0.0, 2022-06-02 09:29:33.964
176.0, 19819.828250387698, -9449.132913247695, -63042.424683859914, -29638.703720415084, -15373.731002060296, -40056.382424400144, -11620.649590569687, -33164.26672509512, -0.022, 0.906, 0.466, 192.0, 0.0, 0.0, 0.0, 0.0, 0.0, 0.0, 0.0, 0.0, 0.0, 1.6541549739642568E9, 0.0, 2022-06-02 09:29:33.964
177.0, 19819.44827073196, -9444.72961959, -63039.11662568052, -29634.52394420194, -15373.507484615742, -40049.319273152265, -11632.496015130999, -33151.928562155794, -0.022, 0.906, 0.466, 192.0, 0.0, 0.0, 0.0, 0.0, 0.0, 0.0, 0.0, 0.0, 0.0, 1.6541549739642622E9, 0.0, 2022-06-02 09:29:33.964
178.0, 19814.754404396346, -9446.271889957416, -63040.36832337002, -29634.702758157586, -15371.786400292684, -40043.73133703844, -11628.048017984393, -33147.16764058681, -0.022, 0.906, 0.466, 192.0, 0.0, 0.0, 0.0, 0.0, 0.0, 0.0, 0.0, 0.0, 0.0, 1.6541549739642675E9, 0.0, 2022-06-02 09:29:33.964
179.0, 19810.596979927657, -9451.949233049063, -63041.84353850407, -29637.474374470043, -15370.333536903088, -40047.06174696228, -11621.610715581264, -33148.66520746532, -0.022, 0.906, 0.466, 192.0, 0.0, 0.0, 0.0, 0.0, 0.0, 0.0, 0.0, 0.0, 0.0, 1.6541549739642725E9, 0.0, 2022-06-02 09:29:33.964
180.0, 19809.88172410509, -9458.185369752095, -63045.48687285029, -29643.263476283966, -15378.402516651455, -40057.6564738341, -11632.92069827565, -33156.555373258045, -0.022, 0.906, 0.466, 192.0, 0.0, 0.0, 0.0, 0.0, 0.0, 0.0, 0.0, 0.0, 0.0, 1.654154973964278E9, 0.0, 2022-06-02 09:29:33.964
181.0, 19811.088718305673, -9459.30295697486, -63041.172986170415, -29645.029264095934, -15383.006976009248, -40059.91400002408, -11640.497939645998, -33168.826480964, -0.022, 0.906, 0.466, 192.0, 0.0, 0.0, 0.0, 0.0, 0.0, 0.0, 0.0, 0.0, 0.0, 1.6541549739642832E9, 0.0, 2022-06-02 09:29:33.964
182.0, 19816.92252360851, -9451.815122582331, -63030.399445342955, -29636.692063414106, -15375.630900338996, -40052.11324120918, -11632.496015130999, -33168.31239084154, -0.022, 0.906, 0.466, 192.0, 0.0, 0.0, 0.0, 0.0, 0.0, 0.0, 0.0, 0.0, 0.0, 1.6541549739642885E9, 0.0, 2022-06-02 09:29:33.964
183.0, 19821.661093433035, -9447.009497524441, -63023.626866773, -29629.897133099694, -15369.238301424779, -40044.26777890537, -11622.638895826209, -33119.5185326956, -0.022, 0.906, 0.466, 192.0, 0.0, 0.0, 0.0, 0.0, 0.0, 0.0, 0.0, 0.0, 0.0, 1.6541549739642937E9, 0.0, 2022-06-02 09:29:33.964
184.0, 19820.901134121556, -9449.132913247695, -63025.1244336515, -29630.522981944443, -15368.299528157655, -40047.82170627376, -11627.131596461726, -33132.571951457496, -0.022, 0.906, 0.466, 192.0, 0.0, 0.0, 0.0, 0.0, 0.0, 0.0, 0.0, 0.0, 0.0, 1.6541549739642987E9, 0.0, 2022-06-02 09:29:33.964
185.0, 19831.00412261535, -9443.6790876006, -63031.33821861008, -29637.720243659052, -15376.61437709503, -40056.71770056697, -11652.322012462857, -33167.64183850787, -0.024, 0.912, 0.46, 192.0, 255.0, 64.0, 28.0, 128.0, 14.0, 96.0, 0.0, 0.0, 0.0, 1.654154973964304E9, 0.0, 2022-06-02 09:29:33.964
186.0, 19831.428805760002, -9446.607166124246, -63036.25560239024, -29647.018569352458, -15385.488019643786, -40066.97715127196, -11648.298698460902, -33173.676809510805, -0.024, 0.912, 0.46, 192.0, 0.0, 0.0, 0.0, 0.0, 0.0, 0.0, 0.0, 0.0, 0.0, 1.6541549739643097E9, 0.0, 2022-06-02 09:29:33.964
187.0, 19811.11107005013, -9461.895759331675, -63032.6793232774, -29643.039958839414, -15380.972967263815, -40064.2055349595, -11628.584459851321, -33153.91786741232, -0.024, 0.912, 0.46, 192.0, 0.0, 0.0, 0.0, 0.0, 0.0, 0.0, 0.0, 0.0, 0.0, 1.6541549739643147E9, 0.0, 2022-06-02 09:29:33.964
188.0, 19812.139250295073, -9460.465247686536, -63020.117642893514, -29630.38887147771, -15369.774743291706, -40053.56610459877, -11622.616544081753, -33165.54077452907, -0.024, 0.912, 0.46, 192.0, 0.0, 0.0, 0.0, 0.0, 0.0, 0.0, 0.0, 0.0, 0.0, 1.65415497396432E9, 0.0, 2022-06-02 09:29:33.964
189.0, 19806.663072903524, -9465.360279722248, -63025.28089586269, -29634.367481990754, -15373.596891593563, -40054.59428484372, -11619.599058580287, -33128.83921013346, -0.024, 0.912, 0.46, 192.0, 0.0, 0.0, 0.0, 0.0, 0.0, 0.0, 0.0, 0.0, 0.0, 1.6541549739643254E9, 0.0, 2022-06-02 09:29:33.964
190.0, 19806.10427929214, -9471.708175147554, -63031.40527384345, -29638.100223314792, -15379.989490507782, -40061.12099422467, -11630.149081963193, -33157.18122210279, -0.024, 0.912, 0.46, 192.0, 0.0, 0.0, 0.0, 0.0, 0.0, 0.0, 0.0, 0.0, 0.0, 1.654154973964331E9, 0.0, 2022-06-02 09:29:33.964
191.0, 19809.01000607133, -9473.49631470398, -63032.366398855025, -29638.61431343726, -15386.449144655366, -40062.752671569906, -11643.336611191824, -33168.98294317519, -0.024, 0.912, 0.46, 192.0, 0.0, 0.0, 0.0, 0.0, 0.0, 0.0, 0.0, 0.0, 0.0, 1.654154973964336E9, 0.0, 2022-06-02 09:29:33.964
192.0, 19815.290846263273, -9462.25338724296, -63025.34795109605, -29630.76885113345, -15380.2800631857, -40055.5554098553, -11639.223890212046, -33153.58259124548, -0.024, 0.912, 0.46, 192.0, 0.0, 0.0, 0.0, 0.0, 0.0, 0.0, 0.0, 0.0, 0.0, 1.6541549739643433E9, 0.0, 2022-06-02 09:29:33.964
193.0, 19816.564895697225, -9452.798599338365, -63019.15651788194, -29625.784412119916, -15372.61341483753, -40051.777965042354, -11633.3453814203, -33134.7177189252, -0.024, 0.912, 0.46, 192.0, 0.0, 0.0, 0.0, 0.0, 0.0, 0.0, 0.0, 0.0, 0.0, 1.6541549739643507E9, 0.0, 2022-06-02 09:29:33.964
194.0, 19808.63002641559, -9459.615881397234, -63027.65018077495, -29633.47341221254, -15380.101249230058, -40060.6069041022, -11638.240413456013, -33164.55729777304, -0.024, 0.912, 0.46, 192.0, 0.0, 0.0, 0.0, 0.0, 0.0, 0.0, 0.0, 0.0, 0.0, 1.654154973964356E9, 0.0, 2022-06-02 09:29:33.964
195.0, 19813.949741595956, -9464.555616921856, -63036.277954134704, -29638.43549948162, -15382.828162053605, -40068.09473849473, -11633.993582009505, -33186.17143466132, -0.026000000000000002, 0.908, 0.462, 192.0, 255.0, 48.0, 28.0, 96.0, 14.0, 112.0, 0.0, 0.0, 0.0, 1.6541549739643612E9, 0.0, 2022-06-02 09:29:33.964
196.0, 19817.324855008705, -9465.941425078086, -63041.84353850407, -29641.654150683185, -15385.778592321705, -40071.22398271847, -11637.189881466615, -33165.630181506895, -0.026000000000000002, 0.908, 0.462, 192.0, 0.0, 0.0, 0.0, 0.0, 0.0, 0.0, 0.0, 0.0, 0.0, 1.6541549739643664E9, 0.0, 2022-06-02 09:29:33.964
197.0, 19820.632913188092, -9453.469151672025, -63027.58312554159, -29628.556028432376, -15372.32284215961, -40057.61177034519, -11635.357038421278, -33161.13748087138, -0.026000000000000002, 0.908, 0.462, 192.0, 0.0, 0.0, 0.0, 0.0, 0.0, 0.0, 0.0, 0.0, 0.0, 1.654154973964372E9, 0.0, 2022-06-02 09:29:33.964
198.0, 19820.409395743536, -9444.81902656782, -63014.7755759687, -29618.788316105405, -15364.544435089165, -40045.29595915031, -11623.06357897086, -33150.45334702174, -0.026000000000000002, 0.908, 0.462, 192.0, 0.0, 0.0, 0.0, 0.0, 0.0, 0.0, 0.0, 0.0, 0.0, 1.6541549739643772E9, 0.0, 2022-06-02 09:29:33.964
199.0, 19823.695102178466, -9440.862767799232, -63011.98160791178, -29617.134287015713, -15362.733943788284, -40042.63610156013, -11619.040264968904, -33153.2249633342, -0.026000000000000002, 0.908, 0.462, 192.0, 0.0, 0.0, 0.0, 0.0, 0.0, 0.0, 0.0, 0.0, 0.0, 1.6541549739643824E9, 0.0, 2022-06-02 09:29:33.964
200.0, 19828.232506302895, -9444.751971334455, -63018.97770392629, -29621.895208584694, -15365.237339167279, -40049.72160455246, -11625.835195283318, -33155.25897207963, -0.026000000000000002, 0.908, 0.462, 192.0, 0.0, 0.0, 0.0, 0.0, 0.0, 0.0, 0.0, 0.0, 0.0, 1.654154973964388E9, 0.0, 2022-06-02 09:29:33.964
201.0, 19821.437575988482, -9454.139704005684, -63034.42275934491, -29635.753290146982, -15380.32476667461, -40061.94800876952, -11642.01785826896, -33155.16956510181, -0.026000000000000002, 0.908, 0.462, 192.0, 0.0, 0.0, 0.0, 0.0, 0.0, 0.0, 0.0, 0.0, 0.0, 1.6541549739643931E9, 0.0, 2022-06-02 09:29:33.964
202.0, 19818.241276531375, -9451.479846415503, -63029.30420986465, -29632.646397667697, -15378.246054440267, -40056.33772091124, -11641.883747802229, -33157.449443036254, -0.026000000000000002, 0.908, 0.462, 192.0, 0.0, 0.0, 0.0, 0.0, 0.0, 0.0, 0.0, 0.0, 0.0, 1.6541549739643986E9, 0.0, 2022-06-02 09:29:33.964
203.0, 19829.037169103285, -9436.347715419259, -63009.925247421896, -29613.401545691675, -15359.716458286817, -40035.32708112324, -11621.677770814631, -33133.26485553561, -0.026000000000000002, 0.908, 0.462, 192.0, 0.0, 0.0, 0.0, 0.0, 0.0, 0.0, 0.0, 0.0, 0.0, 1.654154973964404E9, 0.0, 2022-06-02 09:29:33.964
204.0, 19831.138233082085, -9433.978430506997, -63006.058395631124, -29613.13332475821, -15358.934147230882, -40033.00249969989, -11621.096625458793, -33131.49906772364, -0.026000000000000002, 0.908, 0.462, 192.0, 0.0, 0.0, 0.0, 0.0, 0.0, 0.0, 0.0, 0.0, 0.0, 1.654154973964409E9, 0.0, 2022-06-02 09:29:33.964
205.0, 19812.72039565091, -9461.06874478683, -63033.28282037769, -29640.804784393884, -15381.755278319752, -40060.04811049082, -11649.192768239114, -33171.151062387355, -0.026000000000000002, 0.91, 0.464, 192.0, 255.0, 48.0, 28.0, 112.0, 14.0, 128.0, 0.0, 0.0, 0.0, 1.6541549739644144E9, 0.0, 2022-06-02 09:29:33.964
206.0, 19807.087756048175, -9470.59058792479, -63042.24586990427, -29649.231392053534, -15392.99820578077, -40070.62048561817, -11661.039192800426, -33175.93433570079, -0.026000000000000002, 0.91, 0.464, 192.0, 0.0, 0.0, 0.0, 0.0, 0.0, 0.0, 0.0, 0.0, 0.0, 1.6541549739644196E9, 0.0, 2022-06-02 09:29:33.964
207.0, 19816.564895697225, -9458.051259285363, -63026.08555866308, -29634.702758157586, -15382.649348097963, -40054.840154032725, -11643.046038513905, -33144.15015508534, -0.026000000000000002, 0.91, 0.464, 192.0, 0.0, 0.0, 0.0, 0.0, 0.0, 0.0, 0.0, 0.0, 0.0, 1.6541549739644248E9, 0.0, 2022-06-02 09:29:33.964
208.0, 19821.996369599863, -9450.652831870655, -63017.59189577006, -29626.29850224239, -15371.60758633704, -40044.8042207723, -11625.052884227382, -33145.08892835247, -0.026000000000000002, 0.91, 0.464, 192.0, 0.0, 0.0, 0.0, 0.0, 0.0, 0.0, 0.0, 0.0, 0.0, 1.65415497396443E9, 0.0, 2022-06-02 09:29:33.964
209.0, 19827.49489873587, -9445.44487541257, -63011.80279395614, -29619.34710971679, -15361.437542609876, -40038.97041546946, -11621.655419070175, -33138.092832337956, -0.026000000000000002, 0.91, 0.464, 192.0, 0.0, 0.0, 0.0, 0.0, 0.0, 0.0, 0.0, 0.0, 0.0, 1.6541549739644353E9, 0.0, 2022-06-02 09:29:33.964
210.0, 19824.656227190048, -9454.16205575014, -63023.49275630627, -29628.600731921284, -15370.355888647544, -40052.11324120918, -11633.188919209113, -33152.80028018955, -0.026000000000000002, 0.91, 0.464, 192.0, 0.0, 0.0, 0.0, 0.0, 0.0, 0.0, 0.0, 0.0, 0.0, 1.6541549739644406E9, 0.0, 2022-06-02 09:29:33.964
211.0, 19813.79327938477, -9460.44289594208, -63033.30517212215, -29637.80965063687, -15382.649348097963, -40062.77502331436, -11651.897329318206, -33188.25014689567, -0.026000000000000002, 0.91, 0.464, 192.0, 0.0, 0.0, 0.0, 0.0, 0.0, 0.0, 0.0, 0.0, 0.0, 1.6541549739644458E9, 0.0, 2022-06-02 09:29:33.964
212.0, 19808.07123280421, -9459.191198252583, -63033.193413399866, -29635.216848280055, -15385.644481854973, -40057.0529767338, -11654.132503763736, -33169.631143764396, -0.026000000000000002, 0.91, 0.464, 192.0, 0.0, 0.0, 0.0, 0.0, 0.0, 0.0, 0.0, 0.0, 0.0, 1.6541549739644513E9, 0.0, 2022-06-02 09:29:33.964
213.0, 19811.759270639333, -9452.642137127177, -63024.05154991765, -29624.68917664161, -15377.46374338433, -40043.7536887829, -11636.273459943946, -33109.95198606873, -0.026000000000000002, 0.91, 0.464, 192.0, 0.0, 0.0, 0.0, 0.0, 0.0, 0.0, 0.0, 0.0, 0.0, 1.6541549739644563E9, 0.0, 2022-06-02 09:29:33.964
214.0, 19811.803974128245, -9451.256328970949, -63022.44222431687, -29621.515228928954, -15370.981737492293, -40039.93154048104, -11635.558204121377, -33148.575800487495, -0.026000000000000002, 0.91, 0.464, 192.0, 0.0, 0.0, 0.0, 0.0, 0.0, 0.0, 0.0, 0.0, 0.0, 1.6541549739644637E9, 0.0, 2022-06-02 09:29:33.964
215.0, 19794.48137217538, -9467.327233234315, -63042.73760828229, -29641.54239196091, -15387.432621411399, -40063.71379658148, -11659.54162592192, -33172.11218739893, -0.026000000000000002, 0.916, 0.464, 192.0, 255.0, 48.0, 28.0, 160.0, 14.0, 128.0, 0.0, 0.0, 0.0, 1.6541549739644692E9, 0.0, 2022-06-02 09:29:33.964
216.0, 19786.05476451573, -9479.799506640376, -63055.12047471052, -29654.19347932261, -15403.011787296748, -40075.1578897426, -11662.961442823584, -33180.181167147304, -0.026000000000000002, 0.916, 0.464, 192.0, 0.0, 0.0, 0.0, 0.0, 0.0, 0.0, 0.0, 0.0, 0.0, 1.6541549739644747E9, 0.0, 2022-06-02 09:29:33.964
217.0, 19802.81857285721, -9463.147457021172, -63039.67541929191, -29640.87183962725, -15390.159534234946, -40060.45044189101, -11649.550396150398, -33196.00620222166, -0.026000000000000002, 0.916, 0.464, 192.0, 0.0, 0.0, 0.0, 0.0, 0.0, 0.0, 0.0, 0.0, 0.0, 1.65415497396448E9, 0.0, 2022-06-02 09:29:33.964
218.0, 19813.279189262295, -9445.780151579398, -63021.23523011628, -29625.382080719723, -15372.501656115253, -40045.92180799506, -11619.263782413458, -33182.63985903739, -0.026000000000000002, 0.916, 0.464, 192.0, 0.0, 0.0, 0.0, 0.0, 0.0, 0.0, 0.0, 0.0, 0.0, 1.6541549739644852E9, 0.0, 2022-06-02 09:29:33.964
219.0, 19823.06925333372, -9444.573157378813, -63016.94369518086, -29619.883551583716, -15370.624109581007, -40045.631235317145, -11630.193785452102, -33139.009253860626, -0.026000000000000002, 0.916, 0.464, 192.0, 0.0, 0.0, 0.0, 0.0, 0.0, 0.0, 0.0, 0.0, 0.0, 1.6541549739644911E9, 0.0, 2022-06-02 09:29:33.964
220.0, 19839.87776516411, -9445.780151579398, -63021.23523011628, -29623.99627256349, -15371.205254936845, -40050.12393595266, -11651.517349662465, -33135.3212160255, -0.026000000000000002, 0.916, 0.464, 192.0, 0.0, 0.0, 0.0, 0.0, 0.0, 0.0, 0.0, 0.0, 0.0, 1.6541549739644964E9, 0.0, 2022-06-02 09:29:33.964
221.0, 19839.609544230647, -9456.35252670676, -63032.008770943736, -29638.904886115182, -15378.71544107383, -40063.28911343683, -11651.472646173555, -33170.56991703152, -0.026000000000000002, 0.916, 0.464, 192.0, 0.0, 0.0, 0.0, 0.0, 0.0, 0.0, 0.0, 0.0, 0.0, 1.654154973964502E9, 0.0, 2022-06-02 09:29:33.964
222.0, 19809.81466887172, -9462.700422132066, -63029.9300587094, -29641.028301838436, -15378.983662007293, -40063.28911343683, -11643.582480380832, -33167.239507107675, -0.026000000000000002, 0.916, 0.464, 192.0, 0.0, 0.0, 0.0, 0.0, 0.0, 0.0, 0.0, 0.0, 0.0, 1.6541549739645076E9, 0.0, 2022-06-02 09:29:33.964
223.0, 19796.96241580992, -9452.686840616088, -63017.99422717026, -29630.411223222167, -15365.75142928975, -40052.24735167591, -11630.841986041307, -33175.979039189704, -0.026000000000000002, 0.916, 0.464, 192.0, 0.0, 0.0, 0.0, 0.0, 0.0, 0.0, 0.0, 0.0, 0.0, 1.6541549739645154E9, 0.0, 2022-06-02 09:29:33.964
224.0, 19804.941988580464, -9445.511930645935, -63010.372282311, -29623.281016740922, -15356.050772196148, -40043.21724691597, -11618.190898679602, -33154.76723370162, -0.026000000000000002, 0.916, 0.464, 192.0, 0.0, 0.0, 0.0, 0.0, 0.0, 0.0, 0.0, 0.0, 0.0, 1.6541549739645207E9, 0.0, 2022-06-02 09:29:33.964
225.0, 19801.365709467616, -9461.135800020194, -63032.72402676631, -29644.4481187401, -15375.809714294639, -40064.65256984861, -11637.122826233248, -33165.25020185116, -0.024, 0.914, 0.462, 192.0, 255.0, 64.0, 28.0, 144.0, 14.0, 112.0, 0.0, 0.0, 0.0, 1.654154973964526E9, 0.0, 2022-06-02 09:29:33.964
226.0, 19806.797183370254, -9462.387497709691, -63040.05539894765, -29648.53848797542, -15386.024461510715, -40068.38531117264, -11647.650497871697, -33177.387199090386, -0.024, 0.914, 0.462, 192.0, 0.0, 0.0, 0.0, 0.0, 0.0, 0.0, 0.0, 0.0, 0.0, 1.6541549739645312E9, 0.0, 2022-06-02 09:29:33.964
227.0, 19816.341378252673, -9457.715983118533, -63028.81247148663, -29639.10605181528, -15378.08959222908, -40056.71770056697, -11641.146140235203, -33167.105396640945, -0.024, 0.914, 0.462, 192.0, 0.0, 0.0, 0.0, 0.0, 0.0, 0.0, 0.0, 0.0, 0.0, 1.6541549739645364E9, 0.0, 2022-06-02 09:29:33.964
228.0, 19823.136308567086, -9445.422523668114, -63016.38490156948, -29629.047766810392, -15365.214987422823, -40044.96068298348, -11632.093683730804, -33159.841079692975, -0.024, 0.914, 0.462, 192.0, 0.0, 0.0, 0.0, 0.0, 0.0, 0.0, 0.0, 0.0, 0.0, 1.6541549739645417E9, 0.0, 2022-06-02 09:29:33.964
229.0, 19823.806860900746, -9446.942442291074, -63015.20025911335, -29627.259627253967, -15359.872920498005, -40043.239598660424, -11622.951820248583, -33146.60884697543, -0.024, 0.914, 0.462, 192.0, 0.0, 0.0, 0.0, 0.0, 0.0, 0.0, 0.0, 0.0, 0.0, 1.654154973964547E9, 0.0, 2022-06-02 09:29:33.964
230.0, 19826.10909057964, -9458.811218596842, -63035.07095993411, -29642.77173790595, -15372.032269481691, -40057.701177323004, -11639.268593700957, -33166.390140818374, -0.024, 0.914, 0.462, 192.0, 0.0, 0.0, 0.0, 0.0, 0.0, 0.0, 0.0, 0.0, 0.0, 1.654154973964552E9, 0.0, 2022-06-02 09:29:33.964
231.0, 19815.20143928545, -9465.516741933436, -63047.05149496216, -29651.086586843325, -15386.471496399821, -40066.954799527506, -11667.811771370385, -33191.5358533306, -0.024, 0.914, 0.462, 192.0, 0.0, 0.0, 0.0, 0.0, 0.0, 0.0, 0.0, 0.0, 0.0, 1.6541549739645572E9, 0.0, 2022-06-02 09:29:33.964
232.0, 19814.10620380714, -9460.06291628634, -63039.65306754745, -29642.704682672585, -15381.621167853018, -40058.86346803468, -11659.273404988457, -33167.19480361877, -0.024, 0.914, 0.462, 192.0, 0.0, 0.0, 0.0, 0.0, 0.0, 0.0, 0.0, 0.0, 0.0, 1.6541549739645624E9, 0.0, 2022-06-02 09:29:33.964
233.0, 19832.568744727225, -9442.136817233184, -63020.676436504895, -29624.152734774678, -15361.906929243438, -40038.0986974357, -11622.951820248583, -33156.354207557946, -0.024, 0.914, 0.462, 192.0, 0.0, 0.0, 0.0, 0.0, 0.0, 0.0, 0.0, 0.0, 0.0, 1.6541549739645677E9, 0.0, 2022-06-02 09:29:33.964
234.0, 19839.6318959751, -9437.934689275586, -63013.00978815673, -29618.318929471843, -15351.356905860534, -40034.74593576741, -11613.072349199338, -33146.273570808604, -0.024, 0.914, 0.462, 192.0, 0.0, 0.0, 0.0, 0.0, 0.0, 0.0, 0.0, 0.0, 0.0, 1.654154973964573E9, 0.0, 2022-06-02 09:29:33.964
235.0, 19828.63483770309, -9455.190235995084, -63034.42275934491, -29641.564743705363, -15369.059487469136, -40058.84111629023, -11644.051867014394, -33168.290039097075, -0.028, 0.914, 0.462, 192.0, 255.0, 32.0, 28.0, 144.0, 14.0, 112.0, 0.0, 0.0, 0.0, 1.65415497396458E9, 0.0, 2022-06-02 09:29:33.964
236.0, 19824.812689401235, -9467.975433823518, -63050.739532797284, -29656.71922644606, -15385.71153708834, -40071.44750016302, -11658.982832310538, -33172.40276007685, -0.028, 0.914, 0.462, 192.0, 0.0, 0.0, 0.0, 0.0, 0.0, 0.0, 0.0, 0.0, 0.0, 1.6541549739645853E9, 0.0, 2022-06-02 09:29:33.964
237.0, 19825.147965568063, -9460.867579086731, -63044.168119927424, -29647.934990875125, -15389.533685390197, -40065.21136345999, -11665.688355647131, -33196.22971966621, -0.028, 0.914, 0.462, 192.0, 0.0, 0.0, 0.0, 0.0, 0.0, 0.0, 0.0, 0.0, 0.0, 1.6541549739645908E9, 0.0, 2022-06-02 09:29:33.964
238.0, 19835.58623022869, -9442.360334677736, -63024.96797144032, -29631.61821742275, -15369.37241189151, -40049.87806676365, -11642.375486180244, -33172.53687054358, -0.028, 0.914, 0.462, 192.0, 0.0, 0.0, 0.0, 0.0, 0.0, 0.0, 0.0, 0.0, 0.0, 1.654154973964596E9, 0.0, 2022-06-02 09:29:33.964
239.0, 19838.894288408075, -9438.225261953505, -63021.81637547212, -29626.43261270912, -15361.3257838876, -40043.7536887829, -11641.727285591041, -33131.81199214602, -0.028, 0.914, 0.462, 192.0, 0.0, 0.0, 0.0, 0.0, 0.0, 0.0, 0.0, 0.0, 0.0, 1.6541549739646013E9, 0.0, 2022-06-02 09:29:33.964
240.0, 19825.97498011291, -9454.16205575014, -63041.08357919259, -29641.408281494176, -15378.693089329374, -40062.14917446961, -11659.273404988457, -33149.358111543435, -0.028, 0.914, 0.462, 192.0, 0.0, 0.0, 0.0, 0.0, 0.0, 0.0, 0.0, 0.0, 0.0, 1.6541549739646063E9, 0.0, 2022-06-02 09:29:33.964
241.0, 19825.192669056974, -9459.548826163867, -63051.723009553316, -29647.331493774833, -15391.90297030246, -40072.36392168569, -11652.478474674044, -33180.315277614034, -0.028, 0.914, 0.462, 192.0, 0.0, 0.0, 0.0, 0.0, 0.0, 0.0, 0.0, 0.0, 0.0, 1.6541549739646115E9, 0.0, 2022-06-02 09:29:33.964
242.0, 19828.813651658733, -9452.575081893812, -63044.21282341634, -29639.351921004287, -15381.844685297572, -40065.07725299326, -11648.321050205357, -33185.79145500559, -0.028, 0.914, 0.462, 192.0, 0.0, 0.0, 0.0, 0.0, 0.0, 0.0, 0.0, 0.0, 0.0, 1.6541549739646168E9, 0.0, 2022-06-02 09:29:33.964
243.0, 19832.00995111584, -9439.34284917627, -63028.20897438633, -29624.82328710834, -15365.952594989849, -40050.05688071929, -11634.328858176334, -33164.49024253967, -0.028, 0.914, 0.462, 192.0, 0.0, 0.0, 0.0, 0.0, 0.0, 0.0, 0.0, 0.0, 0.0, 1.6541549744445996E9, 0.0, 2022-06-02 09:29:34.444
244.0, 19850.472492035926, -9420.030941966885, -63013.076843390096, -29607.14305724419, -15350.865167482516, -40036.24350264591, -11615.218116667047, -33139.322178283, -0.028, 0.914, 0.462, 192.0, 0.0, 0.0, 0.0, 0.0, 0.0, 0.0, 0.0, 0.0, 0.0, 1.654154974444772E9, 0.0, 2022-06-02 09:29:34.444
245.0, 19842.179994843005, -9437.465302642024, -63032.500509321755, -29626.700833642582, -15365.170283933912, -40055.71187206649, -11639.648573356697, -33156.80124244705, -0.026000000000000002, 0.906, 0.462, 192.0, 255.0, 48.0, 28.0, 80.0, 14.0, 112.0, 0.0, 0.0, 0.0, 1.6541549744447782E9, 0.0, 2022-06-02 09:29:34.444
246.0, 19842.40351228756, -9448.01532602493, -63047.20795717335, -29641.184764049623, -15376.927301517404, -40066.21719196048, -11655.227739242047, -33176.85075722346, -0.026000000000000002, 0.906, 0.462, 192.0, 0.0, 0.0, 0.0, 0.0, 0.0, 0.0, 0.0, 0.0, 0.0, 1.6541549744447842E9, 0.0, 2022-06-02 09:29:34.444
247.0, 19840.280096564307, -9447.121256246717, -63046.559756584145, -29638.659016926173, -15379.4306968964, -40057.991750000925, -11655.563015408876, -33161.00337040465, -0.026000000000000002, 0.906, 0.462, 192.0, 0.0, 0.0, 0.0, 0.0, 0.0, 0.0, 0.0, 0.0, 0.0, 1.65415497444479E9, 0.0, 2022-06-02 09:29:34.444
248.0, 19842.53762275429, -9436.034790996884, -63037.30613437964, -29630.299464499887, -15370.288833414179, -40050.54861909731, -11643.426018169645, -33164.49024253967, -0.026000000000000002, 0.906, 0.462, 192.0, 0.0, 0.0, 0.0, 0.0, 0.0, 0.0, 0.0, 0.0, 0.0, 1.6541549744447968E9, 0.0, 2022-06-02 09:29:34.444
249.0, 19848.72905596841, -9430.6256688387, -63030.48885232078, -29624.510362685964, -15362.532778088187, -40047.10645045119, -11637.3463436778, -33154.74488195716, -0.026000000000000002, 0.906, 0.462, 192.0, 0.0, 0.0, 0.0, 0.0, 0.0, 0.0, 0.0, 0.0, 0.0, 1.654154974444804E9, 0.0, 2022-06-02 09:29:34.444
250.0, 19847.03032338981, -9438.113503231229, -63035.76386401223, -29631.461755211563, -15361.437542609876, -40055.823630788764, -11639.514462889965, -33162.03155064959, -0.026000000000000002, 0.906, 0.462, 192.0, 0.0, 0.0, 0.0, 0.0, 0.0, 0.0, 0.0, 0.0, 0.0, 1.6541549744448097E9, 0.0, 2022-06-02 09:29:34.444
251.0, 19832.389930771584, -9449.512892903434, -63049.15255894096, -29645.789223407417, -15376.815542795128, -40071.760424585395, -11672.12565805026, -33185.61264104994, -0.026000000000000002, 0.906, 0.462, 192.0, 0.0, 0.0, 0.0, 0.0, 0.0, 0.0, 0.0, 0.0, 0.0, 1.6541549744448164E9, 0.0, 2022-06-02 09:29:34.444
252.0, 19828.187802813984, -9453.424448183114, -63048.6831723074, -29646.01274085197, -15382.068202742124, -40072.76625308589, -11657.239396243025, -33170.54756528707, -0.026000000000000002, 0.906, 0.462, 192.0, 0.0, 0.0, 0.0, 0.0, 0.0, 0.0, 0.0, 0.0, 0.0, 1.654154974444822E9, 0.0, 2022-06-02 09:29:34.444
253.0, 19831.11588133763, -9446.920090546619, -63039.273087891714, -29637.608484936773, -15375.675603827907, -40064.18318321505, -11644.275384458946, -33168.3794460749, -0.026000000000000002, 0.906, 0.462, 192.0, 0.0, 0.0, 0.0, 0.0, 0.0, 0.0, 0.0, 0.0, 0.0, 1.6541549744448285E9, 0.0, 2022-06-02 09:29:34.444
254.0, 19842.06823612073, -9434.000782251453, -63027.113738908025, -29627.214923765056, -15360.901100742949, -40053.63315983214, -11630.238488941013, -33182.03636193709, -0.026000000000000002, 0.906, 0.462, 192.0, 0.0, 0.0, 0.0, 0.0, 0.0, 0.0, 0.0, 0.0, 0.0, 1.654154974444836E9, 0.0, 2022-06-02 09:29:34.444
255.0, 19843.8340239327, -9442.762666077931, -63037.66376229093, -29640.469508227052, -15369.595929336063, -40067.64770360562, -11645.169454237159, -33182.349286359466, -0.03, 0.916, 0.47200000000000003, 192.0, 255.0, 16.0, 28.0, 160.0, 14.0, 192.0, 0.0, 0.0, 0.0, 1.6541549744448428E9, 0.0, 2022-06-02 09:29:34.444
0.0, 19837.329666296206, -9451.524549904412, -63046.91738449543, -29649.2984472869, -15382.291720186679, -40075.627276376166, -11658.669907888165, -33158.14234711437, -0.03, 0.916, 0.47200000000000003, 192.0, 0.0, 0.0, 0.0, 0.0, 0.0, 0.0, 0.0, 0.0, 0.0, 1.654154974444858E9, 0.0, 2022-06-02 09:29:34.444
1.0, 19847.387951301094, -9433.86667178472, -63024.78915748467, -29625.91852258665, -15369.886502013982, -40049.92277025256, -11651.53970140692, -33158.20940234773, -0.03, 0.916, 0.47200000000000003, 192.0, 0.0, 0.0, 0.0, 0.0, 0.0, 0.0, 0.0, 0.0, 0.0, 1.6541549744448633E9, 0.0, 2022-06-02 09:29:34.444
2.0, 19847.142082112085, -9424.635401324678, -63014.50735503523, -29615.748478859485, -15361.124618187503, -40038.23280790244, -11646.287041459924, -33179.28709736909, -0.03, 0.916, 0.47200000000000003, 192.0, 0.0, 0.0, 0.0, 0.0, 0.0, 0.0, 0.0, 0.0, 0.0, 1.654154974444869E9, 0.0, 2022-06-02 09:29:34.444
3.0, 19845.84568093368, -9421.684971056578, -63007.84653518755, -29614.653243381174, -15354.597908806552, -40034.567121811764, -11625.879898772228, -33162.12095762741, -0.03, 0.916, 0.47200000000000003, 192.0, 0.0, 0.0, 0.0, 0.0, 0.0, 0.0, 0.0, 0.0, 0.0, 1.6541549744448748E9, 0.0, 2022-06-02 09:29:34.444
4.0, 19838.35784654115, -9436.10184623025, -63016.764881225216, -29624.66682489715, -15361.929280987893, -40042.41258411558, -11627.355113906278, -33116.79161987205, -0.03, 0.916, 0.47200000000000003, 192.0, 0.0, 0.0, 0.0, 0.0, 0.0, 0.0, 0.0, 0.0, 0.0, 1.65415497444488E9, 0.0, 2022-06-02 09:29:34.444
5.0, 19833.48516624989, -9449.579948136801, -63029.840651731574, -29637.63083668123, -15380.682394585896, -40054.90720926609, -11651.003259539993, -33151.794451689064, -0.03, 0.916, 0.47200000000000003, 192.0, 0.0, 0.0, 0.0, 0.0, 0.0, 0.0, 0.0, 0.0, 0.0, 1.6541549744448855E9, 0.0, 2022-06-02 09:29:34.444
6.0, 19839.721302952923, -9440.594546865768, -63021.592858027565, -29629.047766810392, -15374.513313116231, -40047.240560917926, -11643.046038513905, -33166.2783820961, -0.03, 0.916, 0.47200000000000003, 192.0, 0.0, 0.0, 0.0, 0.0, 0.0, 0.0, 0.0, 0.0, 0.0, 1.6541549744448907E9, 0.0, 2022-06-02 09:29:34.444
7.0, 19829.528907481304, -9437.934689275586, -63018.41891031491, -29625.158563275167, -15371.294661914668, -40042.23377015993, -11647.985774038527, -33155.348379057454, -0.03, 0.916, 0.47200000000000003, 192.0, 0.0, 0.0, 0.0, 0.0, 0.0, 0.0, 0.0, 0.0, 0.0, 1.6541549744448962E9, 0.0, 2022-06-02 09:29:34.444
8.0, 19841.777663442812, -9430.335096160781, -63011.46751778931, -29618.3412812163, -15360.677583298397, -40035.23767414542, -11634.105340731781, -33155.147213357355, -0.036000000000000004, 0.918, 0.47000000000000003, 192.0, 254.0, 224.0, 28.0, 176.0, 14.0, 176.0, 0.0, 0.0, 0.0, 1.6541549744449017E9, 0.0, 2022-06-02 09:29:34.444
9.0, 19858.31795433974, -9430.737427560976, -63018.150689381444, -29626.96905457605, -15359.269423397713, -40048.916941752075, -11635.647611099197, -33170.122882142416, -0.036000000000000004, 0.918, 0.47000000000000003, 192.0, 0.0, 0.0, 0.0, 0.0, 0.0, 0.0, 0.0, 0.0, 0.0, 1.6541549744449077E9, 0.0, 2022-06-02 09:29:34.444
10.0, 19852.01476240334, -9434.24665144046, -63023.89508770646, -29634.881572113227, -15367.51721710172, -40056.02479648886, -11650.153893250692, -33152.219134833715, -0.036000000000000004, 0.918, 0.47000000000000003, 192.0, 0.0, 0.0, 0.0, 0.0, 0.0, 0.0, 0.0, 0.0, 0.0, 1.654154974444913E9, 0.0, 2022-06-02 09:29:34.444
11.0, 19852.46179729245, -9420.38856987817, -63007.0195206427, -29619.458868439066, -15352.675658783397, -40037.2493311464, -11625.522270860944, -33143.14432658486, -0.036000000000000004, 0.918, 0.47000000000000003, 192.0, 0.0, 0.0, 0.0, 0.0, 0.0, 0.0, 0.0, 0.0, 0.0, 1.6541549744449184E9, 0.0, 2022-06-02 09:29:34.444
12.0, 19841.218869831428, -9420.67914255609, -63005.81252644212, -29618.609502149764, -15349.121731415002, -40035.26002588988, -11610.367788120246, -33151.794451689064, -0.036000000000000004, 0.918, 0.47000000000000003, 192.0, 0.0, 0.0, 0.0, 0.0, 0.0, 0.0, 0.0, 0.0, 0.0, 1.654154974444924E9, 0.0, 2022-06-02 09:29:34.444
13.0, 19844.504576266358, -9431.609145594733, -63018.66477950392, -29632.780508134427, -15362.152798432446, -40047.82170627376, -11623.577669093333, -33152.353245300445, -0.036000000000000004, 0.918, 0.47000000000000003, 192.0, 0.0, 0.0, 0.0, 0.0, 0.0, 0.0, 0.0, 0.0, 0.0, 1.6541549744449291E9, 0.0, 2022-06-02 09:29:34.444
14.0, 19861.26838460784, -9432.838491539776, -63023.80568072864, -29636.982636092027, -15365.416153122922, -40050.101584208205, -11648.030477527438, -33149.358111543435, -0.036000000000000004, 0.918, 0.47000000000000003, 192.0, 0.0, 0.0, 0.0, 0.0, 0.0, 0.0, 0.0, 0.0, 0.0, 1.6541549744449344E9, 0.0, 2022-06-02 09:29:34.444
15.0, 19834.28982905028, -9443.924956789608, -63039.54130882517, -29651.220697310055, -15383.275196942712, -40065.16665997108, -11668.415268470677, -33184.56210906054, -0.036000000000000004, 0.918, 0.47000000000000003, 192.0, 0.0, 0.0, 0.0, 0.0, 0.0, 0.0, 0.0, 0.0, 0.0, 1.65415497444494E9, 0.0, 2022-06-02 09:29:34.444
16.0, 19824.92444812351, -9441.130988732695, -63036.09914017906, -29647.175031563645, -15379.497752129764, -40057.87999127865, -11638.821558811851, -33172.02278042112, -0.036000000000000004, 0.918, 0.47000000000000003, 192.0, 0.0, 0.0, 0.0, 0.0, 0.0, 0.0, 0.0, 0.0, 0.0, 1.654154974444945E9, 0.0, 2022-06-02 09:29:34.444
17.0, 19843.901079166066, -9420.030941966885, -63015.35672132453, -29624.66682489715, -15356.721324529806, -40031.68374677703, -11620.135500447215, -33147.27939930909, -0.036000000000000004, 0.918, 0.47000000000000003, 192.0, 0.0, 0.0, 0.0, 0.0, 0.0, 0.0, 0.0, 0.0, 0.0, 1.6541549744449503E9, 0.0, 2022-06-02 09:29:34.444
18.0, 19841.48709076489, -9420.67914255609, -63021.05641616064, -29622.744574873996, -15360.387010620478, -40027.41456358607, -11630.529061618932, -33127.09577406594, -0.028, 0.918, 0.47000000000000003, 192.0, 255.0, 32.0, 28.0, 176.0, 14.0, 176.0, 0.0, 0.0, 0.0, 1.6541549744449558E9, 0.0, 2022-06-02 09:29:34.444
19.0, 19842.425864032015, -9428.859881026732, -63031.315866865625, -29629.80772612187, -15366.645499067963, -40036.48937183492, -11637.815730311362, -33148.53109699859, -0.028, 0.918, 0.47000000000000003, 192.0, 0.0, 0.0, 0.0, 0.0, 0.0, 0.0, 0.0, 0.0, 0.0, 1.654154974444961E9, 0.0, 2022-06-02 09:29:34.444
20.0, 19837.68729420749, -9440.996878265963, -63040.9271169814, -29643.464641984065, -15379.94478701887, -40054.21430518798, -11643.783646080929, -33186.104379427954, -0.028, 0.918, 0.47000000000000003, 192.0, 0.0, 0.0, 0.0, 0.0, 0.0, 0.0, 0.0, 0.0, 0.0, 1.6541549744449663E9, 0.0, 2022-06-02 09:29:34.444
21.0, 19840.995352386875, -9431.564442105824, -63032.70167502185, -29634.30042675739, -15371.741696803772, -40048.8051830298, -11632.428959897634, -33167.68654199679, -0.028, 0.918, 0.47000000000000003, 192.0, 0.0, 0.0, 0.0, 0.0, 0.0, 0.0, 0.0, 0.0, 0.0, 1.6541549744449716E9, 0.0, 2022-06-02 09:29:34.444
22.0, 19846.82915768971, -9416.05233145384, -63026.71140750783, -29625.04680455289, -15364.365621133522, -40038.702194535996, -11625.432863883123, -33144.91011439683, -0.028, 0.918, 0.47000000000000003, 192.0, 0.0, 0.0, 0.0, 0.0, 0.0, 0.0, 0.0, 0.0, 0.0, 1.6541549744449804E9, 0.0, 2022-06-02 09:29:34.444
23.0, 19856.865090950145, -9412.900735485642, -63024.29741910666, -29619.10124052778, -15355.89430998496, -40033.11425842217, -11616.603924823276, -33142.294960295556, -0.028, 0.918, 0.47000000000000003, 192.0, 0.0, 0.0, 0.0, 0.0, 0.0, 0.0, 0.0, 0.0, 0.0, 1.6541549744449859E9, 0.0, 2022-06-02 09:29:34.444
24.0, 19852.797073459278, -9427.496424614958, -63041.1282826815, -29631.81938312285, -15364.633842066985, -40047.77700278485, -11634.820596554351, -33162.67975123879, -0.028, 0.918, 0.47000000000000003, 192.0, 0.0, 0.0, 0.0, 0.0, 0.0, 0.0, 0.0, 0.0, 0.0, 1.654154974444991E9, 0.0, 2022-06-02 09:29:34.444
25.0, 19848.282021079307, -9437.375895664203, -63055.969840999824, -29642.10118557229, -15377.419039895422, -40058.57289535677, -11644.633012370232, -33173.118015899425, -0.028, 0.918, 0.47000000000000003, 192.0, 0.0, 0.0, 0.0, 0.0, 0.0, 0.0, 0.0, 0.0, 0.0, 1.6541549744449964E9, 0.0, 2022-06-02 09:29:34.444
26.0, 19852.327686825716, -9424.456587369035, -63041.77648327071, -29624.175086519135, -15361.057562954136, -40041.49616259291, -11616.15688993417, -33135.991768359156, -0.028, 0.918, 0.47000000000000003, 192.0, 0.0, 0.0, 0.0, 0.0, 0.0, 0.0, 0.0, 0.0, 0.0, 1.6541549744450028E9, 0.0, 2022-06-02 09:29:34.445
27.0, 19854.27228859333, -9412.811328507822, -63028.70071276435, -29609.110010756256, -15352.563900061119, -40027.503970563885, -11617.900326001683, -33155.7283587132, -0.028, 0.918, 0.47000000000000003, 192.0, 0.0, 0.0, 0.0, 0.0, 0.0, 0.0, 0.0, 0.0, 0.0, 1.654154974445008E9, 0.0, 2022-06-02 09:29:34.445
28.0, 19854.562861271246, -9416.633476809679, -63034.378055856, -29614.027394536424, -15358.151836174946, -40034.25419738939, -11629.299715673891, -33156.398911046854, -0.032, 0.912, 0.468, 192.0, 255.0, 0.0, 28.0, 128.0, 14.0, 160.0, 0.0, 0.0, 0.0, 1.6541549744450135E9, 0.0, 2022-06-02 09:29:34.445
29.0, 19863.816483475744, -9424.233069924483, -63048.34789614057, -29626.700833642582, -15364.119751944514, -40050.68272956404, -11634.798244809896, -33151.63798947787, -0.032, 0.912, 0.468, 192.0, 0.0, 0.0, 0.0, 0.0, 0.0, 0.0, 0.0, 0.0, 0.0, 1.6541549744450192E9, 0.0, 2022-06-02 09:29:34.445
30.0, 19845.26453557784, -9443.723791089511, -63073.471256908335, -29649.38785426472, -15387.030290011204, -40075.87314556517, -11655.898291575706, -33188.652478295866, -0.032, 0.912, 0.468, 192.0, 0.0, 0.0, 0.0, 0.0, 0.0, 0.0, 0.0, 0.0, 0.0, 1.654154974445025E9, 0.0, 2022-06-02 09:29:34.445
31.0, 19836.41324477354, -9444.170825978617, -63076.77931508772, -29651.466566499064, -15393.132316247502, -40076.27547696537, -11664.056678301893, -33184.830329994, -0.032, 0.912, 0.468, 192.0, 0.0, 0.0, 0.0, 0.0, 0.0, 0.0, 0.0, 0.0, 0.0, 1.6541549744450316E9, 0.0, 2022-06-02 09:29:34.445
32.0, 19845.733922211402, -9422.668447812612, -63052.79589328718, -29627.661958654164, -15372.881635770993, -40050.794488286316, -11652.791399096419, -33167.887707696886, -0.032, 0.912, 0.468, 192.0, 0.0, 0.0, 0.0, 0.0, 0.0, 0.0, 0.0, 0.0, 0.0, 1.654154974445037E9, 0.0, 2022-06-02 09:29:34.445
33.0, 19857.7368089839, -9406.083453426774, -63036.81439600163, -29611.43459217961, -15355.424923351398, -40035.125915423145, -11623.77883479343, -33157.85177443645, -0.032, 0.912, 0.468, 192.0, 0.0, 0.0, 0.0, 0.0, 0.0, 0.0, 0.0, 0.0, 0.0, 1.6541549744450428E9, 0.0, 2022-06-02 09:29:34.445
34.0, 19857.49093979489, -9421.19323267856, -63050.44896011936, -29626.05263305338, -15362.689240299374, -40052.85084877621, -11621.63306732572, -33177.49895781266, -0.032, 0.912, 0.468, 192.0, 0.0, 0.0, 0.0, 0.0, 0.0, 0.0, 0.0, 0.0, 0.0, 1.654154974445048E9, 0.0, 2022-06-02 09:29:34.445
35.0, 19845.063369877742, -9439.34284917627, -63067.883320794506, -29647.599714708296, -15381.487057386286, -40073.101529252715, -11640.45323615709, -33170.41345482033, -0.032, 0.912, 0.468, 192.0, 0.0, 0.0, 0.0, 0.0, 0.0, 0.0, 0.0, 0.0, 0.0, 1.6541549744450536E9, 0.0, 2022-06-02 09:29:34.445
36.0, 19847.20913734545, -9429.664543827123, -63052.59472758708, -29636.62500818074, -15375.921473016915, -40059.51166862389, -11642.509596646976, -33152.88968716737, -0.032, 0.912, 0.468, 192.0, 0.0, 0.0, 0.0, 0.0, 0.0, 0.0, 0.0, 0.0, 0.0, 1.6541549744450595E9, 0.0, 2022-06-02 09:29:34.445
37.0, 19855.32282058273, -9416.879345998686, -63037.887279735485, -29621.783449862418, -15359.694106542363, -40043.88779924963, -11632.719532575553, -33160.13165237089, -0.032, 0.912, 0.468, 192.0, 0.0, 0.0, 0.0, 0.0, 0.0, 0.0, 0.0, 0.0, 0.0, 1.6541549744450648E9, 0.0, 2022-06-02 09:29:34.445
38.0, 19856.59687001668, -9420.567383833812, -63043.07288444912, -29628.37721447673, -15357.458932096832, -40049.69925280801, -11620.046093469393, -33165.2278501067, -0.026000000000000002, 0.91, 0.464, 192.0, 255.0, 48.0, 28.0, 112.0, 14.0, 128.0, 0.0, 0.0, 0.0, 1.6541549744450705E9, 0.0, 2022-06-02 09:29:34.445
39.0, 19840.280096564307, -9438.225261953505, -63061.96010851385, -29651.3995112657, -15374.04392648267, -40073.12388099717, -11634.440616898612, -33172.201594376755, -0.026000000000000002, 0.91, 0.464, 192.0, 0.0, 0.0, 0.0, 0.0, 0.0, 0.0, 0.0, 0.0, 0.0, 1.654154974445076E9, 0.0, 2022-06-02 09:29:34.445
40.0, 19834.55804998375, -9445.82485506831, -63069.47029465083, -29661.05546487039, -15384.862170799039, -40082.62337239068, -11647.87401531625, -33169.16175713084, -0.026000000000000002, 0.91, 0.464, 192.0, 0.0, 0.0, 0.0, 0.0, 0.0, 0.0, 0.0, 0.0, 0.0, 1.6541549744450812E9, 0.0, 2022-06-02 09:29:34.445
41.0, 19839.475433763913, -9434.112540973729, -63054.584032843595, -29643.95638036208, -15377.28492942869, -40062.99854075891, -11641.324954190846, -33162.36682681642, -0.026000000000000002, 0.91, 0.464, 192.0, 0.0, 0.0, 0.0, 0.0, 0.0, 0.0, 0.0, 0.0, 0.0, 1.6541549744450867E9, 0.0, 2022-06-02 09:29:34.445
42.0, 19846.963268156444, -9419.762721033421, -63038.98251521379, -29627.14786853169, -15362.443371110365, -40043.08313644923, -11628.025666239939, -33173.16271938833, -0.026000000000000002, 0.91, 0.464, 192.0, 0.0, 0.0, 0.0, 0.0, 0.0, 0.0, 0.0, 0.0, 0.0, 1.654154974445092E9, 0.0, 2022-06-02 09:29:34.445
43.0, 19856.105131638662, -9415.381779120182, -63034.95920121184, -29625.493839442, -15359.738810031273, -40040.669148048066, -11626.818672039351, -33130.85086713444, -0.026000000000000002, 0.91, 0.464, 192.0, 0.0, 0.0, 0.0, 0.0, 0.0, 0.0, 0.0, 0.0, 0.0, 1.6541549744450998E9, 0.0, 2022-06-02 09:29:34.445
44.0, 19850.36073331365, -9432.279697928394, -63047.54323334018, -29642.52586871694, -15372.412249137433, -40059.06463373478, -11631.40077965269, -33154.49901276815, -0.026000000000000002, 0.91, 0.464, 192.0, 0.0, 0.0, 0.0, 0.0, 0.0, 0.0, 0.0, 0.0, 0.0, 1.654154974445105E9, 0.0, 2022-06-02 09:29:34.445
45.0, 19849.444311790983, -9441.10863698824, -63050.85129151956, -29650.192517065112, -15375.89912127246, -40068.45236640601, -11656.322974720357, -33194.24041440969, -0.026000000000000002, 0.91, 0.464, 192.0, 0.0, 0.0, 0.0, 0.0, 0.0, 0.0, 0.0, 0.0, 0.0, 1.65415497444511E9, 0.0, 2022-06-02 09:29:34.445
46.0, 19854.540509526792, -9433.53139561789, -63039.34014312508, -29637.295560514398, -15375.2285689388, -40054.48252612144, -11662.715573634574, -33152.777928445095, -0.026000000000000002, 0.91, 0.464, 192.0, 0.0, 0.0, 0.0, 0.0, 0.0, 0.0, 0.0, 0.0, 0.0, 1.6541549744451153E9, 0.0, 2022-06-02 09:29:34.445
47.0, 19852.439445547992, -9426.24472692546, -63031.8299569881, -29630.25476101098, -15371.696993314863, -40048.894590007614, -11632.428959897634, -33142.429070762286, -0.026000000000000002, 0.91, 0.464, 192.0, 0.0, 0.0, 0.0, 0.0, 0.0, 0.0, 0.0, 0.0, 0.0, 1.6541549744451206E9, 0.0, 2022-06-02 09:29:34.445
48.0, 19847.298544323272, -9428.189328693072, -63029.23715463128, -29627.125516787233, -15366.511388601231, -40046.77117428436, -11629.657343585175, -33155.84011743547, -0.03, 0.91, 0.464, 192.0, 255.0, 16.0, 28.0, 112.0, 14.0, 128.0, 0.0, 0.0, 0.0, 1.6541549744451258E9, 0.0, 2022-06-02 09:29:34.445
49.0, 19851.053637391764, -9437.353543919748, -63043.45286410485, -29639.553086704385, -15374.781534049695, -40059.06463373478, -11649.483340917033, -33173.20742287725, -0.03, 0.91, 0.464, 192.0, 0.0, 0.0, 0.0, 0.0, 0.0, 0.0, 0.0, 0.0, 0.0, 1.6541549744451313E9, 0.0, 2022-06-02 09:29:34.445
50.0, 19858.40736131756, -9445.757799834944, -63057.15448345596, -29652.919429888658, -15388.95254003436, -40074.46498566449, -11648.16458799417, -33196.63205106641, -0.03, 0.91, 0.464, 192.0, 0.0, 0.0, 0.0, 0.0, 0.0, 0.0, 0.0, 0.0, 0.0, 1.6541549744451363E9, 0.0, 2022-06-02 09:29:34.445
51.0, 19836.860279662644, -9441.555671877346, -63051.4324368754, -29647.934990875125, -15382.917569031426, -40073.03447401935, -11630.931393019127, -33175.82257697851, -0.03, 0.91, 0.464, 192.0, 0.0, 0.0, 0.0, 0.0, 0.0, 0.0, 0.0, 0.0, 0.0, 1.6541549744451423E9, 0.0, 2022-06-02 09:29:34.445
52.0, 19826.01968360182, -9436.235956696983, -63042.379980371, -29638.502554714985, -15376.100286972558, -40060.47279363547, -11630.529061618932, -33142.764346929114, -0.03, 0.91, 0.464, 192.0, 0.0, 0.0, 0.0, 0.0, 0.0, 0.0, 0.0, 0.0, 0.0, 1.6541549744451478E9, 0.0, 2022-06-02 09:29:34.445
53.0, 19840.50361400886, -9425.238898424972, -63029.773596498206, -29624.465659197052, -15361.281080398689, -40045.6535870616, -11624.382331893723, -33151.66034122233, -0.03, 0.91, 0.464, 192.0, 0.0, 0.0, 0.0, 0.0, 0.0, 0.0, 0.0, 0.0, 0.0, 1.6541549744451532E9, 0.0, 2022-06-02 09:29:34.445
54.0, 19841.91177390954, -9431.564442105824, -63046.02331471722, -29635.999159335992, -15374.89329277197, -40056.963569755986, -11645.214157726068, -33153.94021915677, -0.03, 0.91, 0.464, 192.0, 0.0, 0.0, 0.0, 0.0, 0.0, 0.0, 0.0, 0.0, 0.0, 1.6541549744451585E9, 0.0, 2022-06-02 09:29:34.445
55.0, 19835.027436617307, -9443.164997478128, -63061.133093969, -29650.125461831747, -15393.914627303438, -40073.74972984192, -11654.668945630663, -33189.34538237398, -0.03, 0.91, 0.464, 192.0, 0.0, 0.0, 0.0, 0.0, 0.0, 0.0, 0.0, 0.0, 0.0, 1.6541549744451635E9, 0.0, 2022-06-02 09:29:34.445
56.0, 19845.085721622196, -9426.937631003575, -63038.088445435584, -29627.32668248733, -15371.272310170212, -40052.470869120465, -11627.288058672913, -33178.79535899107, -0.03, 0.91, 0.464, 192.0, 0.0, 0.0, 0.0, 0.0, 0.0, 0.0, 0.0, 0.0, 0.0, 1.654154974445169E9, 0.0, 2022-06-02 09:29:34.445
57.0, 19842.671733221025, -9426.110616458729, -63035.74151226778, -29625.87381909774, -15369.171246191412, -40049.92277025256, -11631.221965697046, -33157.49414652516, -0.03, 0.91, 0.464, 192.0, 0.0, 0.0, 0.0, 0.0, 0.0, 0.0, 0.0, 0.0, 0.0, 1.6541549744451745E9, 0.0, 2022-06-02 09:29:34.445
58.0, 19843.901079166066, -9427.496424614958, -63034.64627678946, -29626.231447009024, -15367.830141524095, -40051.845020275716, -11640.699105346097, -33166.188975118275, -0.026000000000000002, 0.92, 0.462, 192.0, 255.0, 48.0, 28.0, 192.0, 14.0, 112.0, 0.0, 0.0, 0.0, 1.6541549744451797E9, 0.0, 2022-06-02 09:29:34.445
59.0, 19842.425864032015, -9434.134892718184, -63041.91059373744, -29632.10995580077, -15369.75239154725, -40057.20943894499, -11658.692259632619, -33189.45714109625, -0.026000000000000002, 0.92, 0.462, 192.0, 0.0, 0.0, 0.0, 0.0, 0.0, 0.0, 0.0, 0.0, 0.0, 1.6541549744451852E9, 0.0, 2022-06-02 09:29:34.445
60.0, 19837.240259318383, -9442.740314333478, -63054.24875667677, -29642.52586871694, -15379.698917829863, -40068.206497217005, -11648.902195561195, -33161.62921924939, -0.026000000000000002, 0.92, 0.462, 192.0, 0.0, 0.0, 0.0, 0.0, 0.0, 0.0, 0.0, 0.0, 0.0, 1.6541549744451904E9, 0.0, 2022-06-02 09:29:34.445
61.0, 19840.660076220047, -9438.33702067578, -63051.030105475205, -29638.211982037068, -15380.369470163521, -40067.11126173869, -11635.91583203266, -33164.53494602859, -0.026000000000000002, 0.92, 0.462, 192.0, 0.0, 0.0, 0.0, 0.0, 0.0, 0.0, 0.0, 0.0, 0.0, 1.6541549744451957E9, 0.0, 2022-06-02 09:29:34.445
62.0, 19843.8340239327, -9435.207776452038, -63043.94460248287, -29630.902961600183, -15372.65811832644, -40056.315369166776, -11639.73798033452, -33170.70402749825, -0.026000000000000002, 0.92, 0.462, 192.0, 0.0, 0.0, 0.0, 0.0, 0.0, 0.0, 0.0, 0.0, 0.0, 1.6541549744452016E9, 0.0, 2022-06-02 09:29:34.445
63.0, 19851.21009960295, -9428.614011837723, -63034.19924190036, -29621.068194039846, -15363.158626932935, -40043.84309576072, -11633.837119798318, -33153.8731639234, -0.026000000000000002, 0.92, 0.462, 192.0, 0.0, 0.0, 0.0, 0.0, 0.0, 0.0, 0.0, 0.0, 0.0, 1.6541549744452076E9, 0.0, 2022-06-02 09:29:34.445
64.0, 19864.867015465145, -9427.71994205951, -63038.155500668945, -29624.264493496954, -15365.214987422823, -40049.185162685535, -11635.893480288207, -33176.537832801085, -0.026000000000000002, 0.92, 0.462, 192.0, 0.0, 0.0, 0.0, 0.0, 0.0, 0.0, 0.0, 0.0, 0.0, 1.6541549744452164E9, 0.0, 2022-06-02 09:29:34.445
65.0, 19851.34421006968, -9435.833625296787, -63049.9348699969, -29636.557952947376, -15377.083763728591, -40064.719625081976, -11642.621355369254, -33188.45131259577, -0.026000000000000002, 0.92, 0.462, 192.0, 0.0, 0.0, 0.0, 0.0, 0.0, 0.0, 0.0, 0.0, 0.0, 1.654154974445222E9, 0.0, 2022-06-02 09:29:34.445
66.0, 19840.838890175688, -9433.91137527363, -63048.079675207104, -29635.060386068868, -15377.933130017893, -40062.618561103176, -11643.269555958457, -33159.416396548324, -0.026000000000000002, 0.92, 0.462, 192.0, 0.0, 0.0, 0.0, 0.0, 0.0, 0.0, 0.0, 0.0, 0.0, 1.6541549744452276E9, 0.0, 2022-06-02 09:29:34.445
67.0, 19866.319878854738, -9410.509098828925, -63021.68226500539, -29606.56191188835, -15352.094513427559, -40037.27168289086, -11622.415378381656, -33137.824611404496, -0.026000000000000002, 0.92, 0.462, 192.0, 0.0, 0.0, 0.0, 0.0, 0.0, 0.0, 0.0, 0.0, 0.0, 1.654154974445233E9, 0.0, 2022-06-02 09:29:34.445
68.0, 19870.052620178776, -9408.855069739231, -63015.781404469184, -29598.15765597316, -15343.712609256818, -40029.09094442021, -11615.888669000706, -33132.48254447967, -0.022, 0.92, 0.462, 192.0, 255.0, 80.0, 28.0, 192.0, 14.0, 112.0, 0.0, 0.0, 0.0, 1.6541549744452388E9, 0.0, 2022-06-02 09:29:34.445
69.0, 19861.670716008033, -9423.383703635182, -63033.90866922244, -29615.77083060394, -15356.90013848545, -40046.99469172891, -11637.703971589086, -33155.10250986845, -0.022, 0.92, 0.462, 192.0, 0.0, 0.0, 0.0, 0.0, 0.0, 0.0, 0.0, 0.0, 0.0, 1.6541549744452443E9, 0.0, 2022-06-02 09:29:34.445
70.0, 19851.724189725424, -9435.207776452038, -63038.87075649152, -29626.074984797837, -15363.002164721747, -40060.249276190916, -11639.02272451195, -33162.79150996107, -0.022, 0.92, 0.462, 192.0, 0.0, 0.0, 0.0, 0.0, 0.0, 0.0, 0.0, 0.0, 0.0, 1.6541549744452503E9, 0.0, 2022-06-02 09:29:34.445
71.0, 19837.17320408502, -9444.77432307891, -63046.24683216177, -29635.596827935795, -15374.982699749793, -40072.050997263315, -11644.387143181222, -33171.46398680973, -0.022, 0.92, 0.462, 192.0, 0.0, 0.0, 0.0, 0.0, 0.0, 0.0, 0.0, 0.0, 0.0, 1.654154974445256E9, 0.0, 2022-06-02 09:29:34.445
72.0, 19853.40057055957, -9425.529471102891, -63023.403349328444, -29615.368499203745, -15356.006068707236, -40051.286226664335, -11636.407570410678, -33157.583553502984, -0.022, 0.92, 0.462, 192.0, 0.0, 0.0, 0.0, 0.0, 0.0, 0.0, 0.0, 0.0, 0.0, 1.654154974445262E9, 0.0, 2022-06-02 09:29:34.445
73.0, 19850.874823436123, -9424.85891876923, -63019.80471847114, -29611.09931601278, -15348.160606403424, -40046.391194628624, -11629.702047074086, -33145.20068707474, -0.022, 0.92, 0.462, 192.0, 0.0, 0.0, 0.0, 0.0, 0.0, 0.0, 0.0, 0.0, 0.0, 1.6541549744452677E9, 0.0, 2022-06-02 09:29:34.445
74.0, 19841.7329599539, -9440.169863721118, -63036.00973320124, -29627.036109809414, -15360.342307131566, -40061.88095353615, -11639.02272451195, -33159.349341314955, -0.022, 0.92, 0.462, 192.0, 0.0, 0.0, 0.0, 0.0, 0.0, 0.0, 0.0, 0.0, 0.0, 1.6541549744452736E9, 0.0, 2022-06-02 09:29:34.445
75.0, 19832.50168949386, -9451.613956882235, -63052.415913631434, -29641.073005327347, -15378.938958518382, -40073.92854379756, -11658.78166661044, -33196.94497548878, -0.022, 0.92, 0.462, 192.0, 0.0, 0.0, 0.0, 0.0, 0.0, 0.0, 0.0, 0.0, 0.0, 1.6541549744452791E9, 0.0, 2022-06-02 09:29:34.445
76.0, 19851.903003681065, -9432.547918861857, -63035.40623610094, -29623.415127207652, -15367.316051401622, -40058.63995059013, -11640.699105346097, -33194.55333883206, -0.022, 0.92, 0.462, 192.0, 0.0, 0.0, 0.0, 0.0, 0.0, 0.0, 0.0, 0.0, 0.0, 1.6541549744452848E9, 0.0, 2022-06-02 09:29:34.445
77.0, 19852.17122461453, -9426.24472692546, -63025.638523773974, -29614.18385674761, -15359.202368164346, -40047.59818882921, -11634.217099454057, -33170.01112342014, -0.022, 0.92, 0.462, 192.0, 0.0, 0.0, 0.0, 0.0, 0.0, 0.0, 0.0, 0.0, 0.0, 1.65415497444529E9, 0.0, 2022-06-02 09:29:34.445
78.0, 19835.96620988443, -9434.604279351744, -63031.517032565724, -29617.46956318254, -15369.104190958047, -40046.21238067298, -11650.712686862074, -33150.36394004392, -0.026000000000000002, 0.92, 0.46, 192.0, 255.0, 48.0, 28.0, 192.0, 14.0, 96.0, 0.0, 0.0, 0.0, 1.6541549744452956E9, 0.0, 2022-06-02 09:29:34.445
79.0, 19842.023532631818, -9431.028000238895, -63030.690018020876, -29616.128458515224, -15366.310222901133, -40047.77700278485, -11637.97219252255, -33144.64189346336, -0.026000000000000002, 0.92, 0.46, 192.0, 0.0, 0.0, 0.0, 0.0, 0.0, 0.0, 0.0, 0.0, 0.0, 1.6541549744453013E9, 0.0, 2022-06-02 09:29:34.445
80.0, 19828.746596425368, -9445.087247501284, -63046.537404839684, -29632.087604056313, -15385.689185343885, -40066.15013672711, -11646.957593793582, -33181.499920070164, -0.026000000000000002, 0.92, 0.46, 192.0, 0.0, 0.0, 0.0, 0.0, 0.0, 0.0, 0.0, 0.0, 0.0, 1.6541549744453065E9, 0.0, 2022-06-02 09:29:34.445
81.0, 19837.7319976964, -9435.319535174314, -63034.95920121184, -29623.124554529735, -15379.542455618675, -40054.37076739917, -11660.435695700133, -33197.794341778084, -0.026000000000000002, 0.92, 0.46, 192.0, 0.0, 0.0, 0.0, 0.0, 0.0, 0.0, 0.0, 0.0, 0.0, 1.6541549744453125E9, 0.0, 2022-06-02 09:29:34.445
82.0, 19868.197425388986, -9424.970677491508, -63022.79985222815, -29613.692118369596, -15369.774743291706, -40039.59626431421, -11662.268538745468, -33178.147158401865, -0.026000000000000002, 0.92, 0.46, 192.0, 0.0, 0.0, 0.0, 0.0, 0.0, 0.0, 0.0, 0.0, 0.0, 1.6541549744453177E9, 0.0, 2022-06-02 09:29:34.445
83.0, 19856.015724660843, -9429.128101960196, -63024.36447434002, -29616.463734682053, -15364.253862411246, -40039.328043380745, -11635.02176225445, -33124.74884089814, -0.026000000000000002, 0.92, 0.46, 192.0, 0.0, 0.0, 0.0, 0.0, 0.0, 0.0, 0.0, 0.0, 0.0, 1.6541549744453232E9, 0.0, 2022-06-02 09:29:34.445
84.0, 19848.371428057126, -9425.596526336256, -63022.97866618379, -29616.888417826704, -15356.788379763173, -40041.54086608182, -11605.115128173247, -33140.61857946141, -0.026000000000000002, 0.92, 0.46, 192.0, 0.0, 0.0, 0.0, 0.0, 0.0, 0.0, 0.0, 0.0, 0.0, 1.6541549744453287E9, 0.0, 2022-06-02 09:29:34.445
85.0, 19833.216945316428, -9444.886081801187, -63040.16715766992, -29637.20615353658, -15378.290757929179, -40063.19970645901, -11639.939146034616, -33199.962460990246, -0.026000000000000002, 0.92, 0.46, 192.0, 0.0, 0.0, 0.0, 0.0, 0.0, 0.0, 0.0, 0.0, 0.0, 1.654154974445334E9, 0.0, 2022-06-02 09:29:34.445
86.0, 19836.21207907344, -9437.48765438648, -63033.48398607779, -29630.85825811127, -15376.077935228102, -40059.824593046265, -11643.291907702913, -33168.96059143074, -0.026000000000000002, 0.92, 0.46, 192.0, 0.0, 0.0, 0.0, 0.0, 0.0, 0.0, 0.0, 0.0, 0.0, 1.6541549744453416E9, 0.0, 2022-06-02 09:29:34.445
87.0, 19851.679486236513, -9423.853090268742, -63023.91743945092, -29620.129420772722, -15364.812656022628, -40048.291092907326, -11625.745788305496, -33157.96353315873, -0.028, 0.916, 0.464, 192.0, 255.0, 32.0, 28.0, 160.0, 14.0, 128.0, 0.0, 0.0, 0.0, 1.6541549744453468E9, 0.0, 2022-06-02 09:29:34.445
88.0, 19871.68429752401, -9417.259325654428, -63019.67060800441, -29612.753345102472, -15360.878748998493, -40042.122011437656, -11643.694239103108, -33166.054864651545, -0.028, 0.916, 0.464, 192.0, 0.0, 0.0, 0.0, 0.0, 0.0, 0.0, 0.0, 0.0, 0.0, 1.654154974445352E9, 0.0, 2022-06-02 09:29:34.445
89.0, 19857.803864217265, -9420.00859022243, -63023.962142939825, -29616.329624215323, -15359.627051308997, -40046.458249861986, -11637.033419255427, -33162.43388204979, -0.028, 0.916, 0.464, 192.0, 0.0, 0.0, 0.0, 0.0, 0.0, 0.0, 0.0, 0.0, 0.0, 1.6541549744453573E9, 0.0, 2022-06-02 09:29:34.445
90.0, 19849.868994935634, -9426.267078669916, -63032.74637851076, -29626.85729585377, -15369.014783980225, -40057.81293604529, -11628.249183684491, -33167.99946641916, -0.028, 0.916, 0.464, 192.0, 0.0, 0.0, 0.0, 0.0, 0.0, 0.0, 0.0, 0.0, 0.0, 1.6541549744453626E9, 0.0, 2022-06-02 09:29:34.445
91.0, 19862.296564852782, -9418.153395432639, -63025.66087551843, -29621.068194039846, -15366.578443834596, -40053.36493889868, -11624.739959805007, -33176.29196361208, -0.028, 0.916, 0.464, 192.0, 0.0, 0.0, 0.0, 0.0, 0.0, 0.0, 0.0, 0.0, 0.0, 1.654154974445368E9, 0.0, 2022-06-02 09:29:34.445
92.0, 19855.009896160354, -9419.62861056669, -63026.13026215199, -29622.85633359627, -15362.398667621455, -40052.22499993146, -11623.510613859966, -33176.44842582326, -0.028, 0.916, 0.464, 192.0, 0.0, 0.0, 0.0, 0.0, 0.0, 0.0, 0.0, 0.0, 0.0, 1.6541549744453733E9, 0.0, 2022-06-02 09:29:34.445
93.0, 19860.97781192992, -9418.153395432639, -63025.81733772962, -29622.163429518157, -15358.688278041875, -40049.87806676365, -11614.793433522396, -33152.50970751163, -0.028, 0.916, 0.464, 192.0, 0.0, 0.0, 0.0, 0.0, 0.0, 0.0, 0.0, 0.0, 0.0, 1.6541549744453788E9, 0.0, 2022-06-02 09:29:34.445
94.0, 19883.553073829782, -9414.241840152961, -63023.47040456181, -29615.43555443711, -15353.61443205052, -40040.4009271146, -11623.242392926502, -33130.29207352306, -0.028, 0.916, 0.464, 192.0, 0.0, 0.0, 0.0, 0.0, 0.0, 0.0, 0.0, 0.0, 0.0, 1.654154974445384E9, 0.0, 2022-06-02 09:29:34.445
95.0, 19876.959309215465, -9424.747160046954, -63038.088445435584, -29628.667787154653, -15368.724211302306, -40056.11420346668, -11657.082934031838, -33181.499920070164, -0.028, 0.916, 0.464, 192.0, 0.0, 0.0, 0.0, 0.0, 0.0, 0.0, 0.0, 0.0, 0.0, 1.654154974445392E9, 0.0, 2022-06-02 09:29:34.445
96.0, 19867.25865212186, -9426.53529960338, -63039.273087891714, -29628.10899354327, -15368.031307224192, -40055.93538951104, -11655.250090986501, -33163.35030357246, -0.028, 0.916, 0.464, 192.0, 0.0, 0.0, 0.0, 0.0, 0.0, 0.0, 0.0, 0.0, 0.0, 1.6541549744453971E9, 0.0, 2022-06-02 09:29:34.445
97.0, 19876.82519874873, -9409.7714912619, -63015.96021842483, -29607.56774038884, -15346.238356380269, -40034.88004623414, -11623.175337693136, -33127.185181043766, -0.032, 0.914, 0.468, 192.0, 255.0, 0.0, 28.0, 144.0, 14.0, 160.0, 0.0, 0.0, 0.0, 1.6541549744454026E9, 0.0, 2022-06-02 09:29:34.445
98.0, 19866.811617232754, -9421.170880934105, -63027.15844239694, -29618.274225982932, -15360.901100742949, -40044.24542716091, -11635.11116923227, -33167.597135018965, -0.032, 0.914, 0.468, 192.0, 0.0, 0.0, 0.0, 0.0, 0.0, 0.0, 0.0, 0.0, 0.0, 1.654154974445408E9, 0.0, 2022-06-02 09:29:34.445
99.0, 19867.437466077503, -9420.67914255609, -63029.30420986465, -29621.448173695586, -15361.392839120967, -40048.64872081861, -11635.178224465637, -33200.320088901535, -0.032, 0.914, 0.468, 192.0, 0.0, 0.0, 0.0, 0.0, 0.0, 0.0, 0.0, 0.0, 0.0, 1.654154974445413E9, 0.0, 2022-06-02 09:29:34.445
100.0, 19859.189672373497, -9431.899718272653, -63046.895032750974, -29641.564743705363, -15375.697955572363, -40073.07917750826, -11648.790436838919, -33208.836103539004, -0.032, 0.914, 0.468, 192.0, 0.0, 0.0, 0.0, 0.0, 0.0, 0.0, 0.0, 0.0, 0.0, 1.654154974445419E9, 0.0, 2022-06-02 09:29:34.445
101.0, 19837.910811652044, -9444.77432307891, -63057.71327706734, -29653.545278733407, -15392.037080769192, -40085.4620439365, -11663.743753879518, -33184.092722426976, -0.032, 0.914, 0.468, 192.0, 0.0, 0.0, 0.0, 0.0, 0.0, 0.0, 0.0, 0.0, 0.0, 1.6541549744454243E9, 0.0, 2022-06-02 09:29:34.445
102.0, 19849.533718768802, -9419.561555333323, -63025.3255993516, -29621.179952762122, -15362.532778088187, -40051.44268887552, -11624.851718527285, -33147.324102798, -0.032, 0.914, 0.468, 192.0, 0.0, 0.0, 0.0, 0.0, 0.0, 0.0, 0.0, 0.0, 0.0, 1.6541549744454296E9, 0.0, 2022-06-02 09:29:34.445
103.0, 19857.043904905786, -9426.669410070112, -63023.80568072864, -29619.011833549957, -15356.028420451692, -40049.341624896726, -11621.163680692158, -33173.76621648863, -0.032, 0.914, 0.468, 192.0, 0.0, 0.0, 0.0, 0.0, 0.0, 0.0, 0.0, 0.0, 0.0, 1.654154974445435E9, 0.0, 2022-06-02 09:29:34.445
104.0, 19867.705687010966, -9432.77143630641, -63031.13705290998, -29627.550199931888, -15361.504597843243, -40057.61177034519, -11644.096570503303, -33199.62718482342, -0.032, 0.914, 0.468, 192.0, 0.0, 0.0, 0.0, 0.0, 0.0, 0.0, 0.0, 0.0, 0.0, 1.6541549744454408E9, 0.0, 2022-06-02 09:29:34.445
105.0, 19855.6357450051, -9450.138741748184, -63050.49366360828, -29646.973865863547, -15377.70961257334, -40075.11318625369, -11659.49692243301, -33193.99454522068, -0.032, 0.914, 0.468, 192.0, 0.0, 0.0, 0.0, 0.0, 0.0, 0.0, 0.0, 0.0, 0.0, 1.6541549744454465E9, 0.0, 2022-06-02 09:29:34.445
106.0, 19868.26448062235, -9441.242747454971, -63041.016523959224, -29634.635702924217, -15370.71351655883, -40058.21526744548, -11644.677715859141, -33146.31827429751, -0.032, 0.914, 0.468, 192.0, 0.0, 0.0, 0.0, 0.0, 0.0, 0.0, 0.0, 0.0, 0.0, 1.6541549744454517E9, 0.0, 2022-06-02 09:29:34.445
107.0, 19885.7435447864, -9432.257346183938, -63032.72402676631, -29626.209095264567, -15360.677583298397, -40049.76630804138, -11636.429922155134, -33179.35415260246, -0.028, 0.912, 0.464, 192.0, 255.0, 32.0, 28.0, 128.0, 14.0, 128.0, 0.0, 0.0, 0.0, 1.6541549749240923E9, 0.0, 2022-06-02 09:29:34.924
108.0, 19872.399553346582, -9424.590697835767, -63024.36447434002, -29622.476353940532, -15354.307336128633, -40049.11810745217, -11628.96443950706, -33186.43965559479, -0.028, 0.912, 0.464, 192.0, 0.0, 0.0, 0.0, 0.0, 0.0, 0.0, 0.0, 0.0, 0.0, 1.6541549749241638E9, 0.0, 2022-06-02 09:29:34.924
109.0, 19858.429713062014, -9435.274831685405, -63033.88631747798, -29632.802859878884, -15360.834045509584, -40057.991750000925, -11641.906099546684, -33165.786643718086, -0.028, 0.912, 0.464, 192.0, 0.0, 0.0, 0.0, 0.0, 0.0, 0.0, 0.0, 0.0, 0.0, 1.654154974924251E9, 0.0, 2022-06-02 09:29:34.924
110.0, 19840.59302098668, -9458.610052896745, -63060.77546605772, -29656.383950279233, -15388.460801656343, -40079.58353514475, -11663.855512601795, -33173.20742287725, -0.028, 0.912, 0.464, 192.0, 0.0, 0.0, 0.0, 0.0, 0.0, 0.0, 0.0, 0.0, 0.0, 1.6541549749242585E9, 0.0, 2022-06-02 09:29:34.924
111.0, 19847.49971002337, -9451.345735948771, -63050.113683952535, -29643.419938495153, -15379.989490507782, -40065.30077043781, -11646.756428093486, -33185.90321372786, -0.028, 0.912, 0.464, 192.0, 0.0, 0.0, 0.0, 0.0, 0.0, 0.0, 0.0, 0.0, 0.0, 1.6541549749242644E9, 0.0, 2022-06-02 09:29:34.924
112.0, 19878.166303416052, -9428.368142648715, -63026.1749656409, -29620.218827750545, -15352.340382616567, -40040.95972072598, -11608.87022124174, -33173.09566415497, -0.028, 0.912, 0.464, 192.0, 0.0, 0.0, 0.0, 0.0, 0.0, 0.0, 0.0, 0.0, 0.0, 1.6541549749242704E9, 0.0, 2022-06-02 09:29:34.924
113.0, 19859.54730028478, -9424.300125157848, -63028.43249183089, -29622.18578126261, -15351.535719816176, -40042.59139807122, -11609.764291019952, -33150.52040225511, -0.028, 0.912, 0.464, 192.0, 0.0, 0.0, 0.0, 0.0, 0.0, 0.0, 0.0, 0.0, 0.0, 1.6541549749242768E9, 0.0, 2022-06-02 09:29:34.924
114.0, 19856.015724660843, -9437.957041020041, -63033.46163433333, -29627.080813298326, -15356.52015882971, -40047.82170627376, -11620.984866736517, -33169.45232980875, -0.028, 0.912, 0.464, 192.0, 0.0, 0.0, 0.0, 0.0, 0.0, 0.0, 0.0, 0.0, 0.0, 1.6541549749242847E9, 0.0, 2022-06-02 09:29:34.924
115.0, 19848.818462946234, -9450.049334770363, -63048.90668975195, -29641.184764049623, -15371.339365403577, -40062.01506400288, -11646.264689715468, -33204.20929243675, -0.028, 0.912, 0.464, 192.0, 0.0, 0.0, 0.0, 0.0, 0.0, 0.0, 0.0, 0.0, 0.0, 1.65415497492429E9, 0.0, 2022-06-02 09:29:34.924
116.0, 19856.462759549948, -9440.080456743295, -63042.29057339318, -29635.73093840253, -15365.729077545295, -40055.756575555395, -11644.342439692313, -33192.02759170861, -0.028, 0.912, 0.464, 192.0, 0.0, 0.0, 0.0, 0.0, 0.0, 0.0, 0.0, 0.0, 0.0, 1.6541549749242957E9, 0.0, 2022-06-02 09:29:34.924
117.0, 19852.126521125618, -9444.304936445349, -63045.86685250603, -29641.028301838436, -15369.03713572468, -40057.14238371162, -11643.582480380832, -33172.08983565448, -0.03, 0.914, 0.468, 192.0, 255.0, 16.0, 28.0, 144.0, 14.0, 160.0, 0.0, 0.0, 0.0, 1.6541549749243011E9, 0.0, 2022-06-02 09:29:34.924
118.0, 19865.939899199, -9423.786035035377, -63021.92813419439, -29620.218827750545, -15349.501711070743, -40032.890740977615, -11624.047055726893, -33146.60884697543, -0.03, 0.914, 0.468, 192.0, 0.0, 0.0, 0.0, 0.0, 0.0, 0.0, 0.0, 0.0, 0.0, 1.654154974924307E9, 0.0, 2022-06-02 09:29:34.924
119.0, 19870.87963472362, -9429.239860682472, -63030.91353546543, -29631.126479044735, -15358.353001875044, -40043.70898529398, -11636.407570410678, -33159.30463782605, -0.03, 0.914, 0.468, 192.0, 0.0, 0.0, 0.0, 0.0, 0.0, 0.0, 0.0, 0.0, 0.0, 1.654154974924313E9, 0.0, 2022-06-02 09:29:34.924
120.0, 19857.870919450634, -9450.697535359566, -63050.06898046363, -29651.01953160996, -15378.022536995715, -40065.21136345999, -11648.432808927633, -33183.64568753787, -0.03, 0.914, 0.468, 192.0, 0.0, 0.0, 0.0, 0.0, 0.0, 0.0, 0.0, 0.0, 0.0, 1.6541549749243186E9, 0.0, 2022-06-02 09:29:34.924
121.0, 19860.84370146319, -9450.58577663729, -63044.9280792389, -29647.040921096912, -15372.792228793172, -40063.512630881385, -11640.944974535105, -33174.168547888825, -0.03, 0.914, 0.468, 192.0, 0.0, 0.0, 0.0, 0.0, 0.0, 0.0, 0.0, 0.0, 0.0, 1.6541549749243243E9, 0.0, 2022-06-02 09:29:34.924
122.0, 19866.699858510477, -9446.33894519078, -63037.93198322439, -29639.575438448843, -15369.99826073626, -40056.672997078065, -11637.905137289184, -33159.14817561486, -0.03, 0.914, 0.468, 192.0, 0.0, 0.0, 0.0, 0.0, 0.0, 0.0, 0.0, 0.0, 0.0, 1.6541549749243298E9, 0.0, 2022-06-02 09:29:34.924
123.0, 19849.578422257713, -9437.711171831033, -63029.66183777593, -29632.087604056313, -15360.029382709192, -40046.99469172891, -11628.11507321776, -33168.75942573064, -0.03, 0.914, 0.468, 192.0, 0.0, 0.0, 0.0, 0.0, 0.0, 0.0, 0.0, 0.0, 0.0, 1.6541549749243357E9, 0.0, 2022-06-02 09:29:34.924
124.0, 19855.389875816094, -9436.615936352722, -63030.91353546543, -29634.836868624316, -15355.223757651302, -40051.33093015324, -11628.427997640134, -33179.28709736909, -0.03, 0.914, 0.468, 192.0, 0.0, 0.0, 0.0, 0.0, 0.0, 0.0, 0.0, 0.0, 0.0, 1.6541549749243414E9, 0.0, 2022-06-02 09:29:34.924
125.0, 19850.696009480478, -9456.665451129133, -63059.05438173466, -29661.793072437416, -15383.498714387264, -40078.22007873298, -11658.424038699155, -33201.348269146474, -0.03, 0.914, 0.468, 192.0, 0.0, 0.0, 0.0, 0.0, 0.0, 0.0, 0.0, 0.0, 0.0, 1.6541549749243476E9, 0.0, 2022-06-02 09:29:34.924
126.0, 19854.339343826694, -9445.601337623757, -63054.20405318786, -29655.892211901217, -15383.006976009248, -40072.185107730045, -11656.68060263164, -33194.66509755434, -0.03, 0.914, 0.468, 192.0, 0.0, 0.0, 0.0, 0.0, 0.0, 0.0, 0.0, 0.0, 0.0, 1.654154974924356E9, 0.0, 2022-06-02 09:29:34.924
127.0, 19861.760122985856, -9433.933727018086, -63033.975724455806, -29640.134232060223, -15366.511388601231, -40055.24248543292, -11639.872090801251, -33172.693332754774, -0.03, 0.914, 0.466, 192.0, 255.0, 16.0, 28.0, 144.0, 14.0, 144.0, 0.0, 0.0, 0.0, 1.6541549749243617E9, 0.0, 2022-06-02 09:29:34.924
128.0, 19854.473454293427, -9436.81710205282, -63035.31682912313, -29640.67067392715, -15364.61149032253, -40058.59524710122, -11643.224852469546, -33155.70600696874, -0.03, 0.914, 0.466, 192.0, 0.0, 0.0, 0.0, 0.0, 0.0, 0.0, 0.0, 0.0, 0.0, 1.6541549749243753E9, 0.0, 2022-06-02 09:29:34.924
129.0, 19861.201329374475, -9435.028962496395, -63034.735683767285, -29634.121612801748, -15361.772818776706, -40054.75074705491, -11633.099512231292, -33169.36292283093, -0.03, 0.914, 0.466, 192.0, 0.0, 0.0, 0.0, 0.0, 0.0, 0.0, 0.0, 0.0, 0.0, 1.6541549749243808E9, 0.0, 2022-06-02 09:29:34.924
130.0, 19857.334477583707, -9454.095000516772, -63054.67343982142, -29654.081720600334, -15381.420002152921, -40077.50482291041, -11653.752524107997, -33205.75156280417, -0.03, 0.914, 0.466, 192.0, 0.0, 0.0, 0.0, 0.0, 0.0, 0.0, 0.0, 0.0, 0.0, 1.654154974924386E9, 0.0, 2022-06-02 09:29:34.924
131.0, 19855.188710115995, -9452.731544105, -63053.57820434311, -29651.421863010153, -15381.107077730547, -40074.37557868667, -11652.903157818695, -33176.80605373455, -0.03, 0.914, 0.466, 192.0, 0.0, 0.0, 0.0, 0.0, 0.0, 0.0, 0.0, 0.0, 0.0, 1.6541549749243913E9, 0.0, 2022-06-02 09:29:34.924
132.0, 19847.6338204901, -9436.682991586089, -63037.70846577984, -29632.601694178786, -15368.076010713103, -40054.3037121658, -11639.939146034616, -33151.99561738916, -0.03, 0.914, 0.466, 192.0, 0.0, 0.0, 0.0, 0.0, 0.0, 0.0, 0.0, 0.0, 0.0, 1.654154974924398E9, 0.0, 2022-06-02 09:29:34.924
133.0, 19850.718361224936, -9421.997895478951, -63029.058340675634, -29620.95643531757, -15357.257766396735, -40041.004424214894, -11648.991602539016, -33164.110262883936, -0.03, 0.914, 0.466, 192.0, 0.0, 0.0, 0.0, 0.0, 0.0, 0.0, 0.0, 0.0, 0.0, 1.6541549749244037E9, 0.0, 2022-06-02 09:29:34.924
134.0, 19852.55120427027, -9433.240822939972, -63043.13993968248, -29633.763984890462, -15361.66106005443, -40052.895552265116, -11639.983849523527, -33180.35998110294, -0.03, 0.914, 0.466, 192.0, 0.0, 0.0, 0.0, 0.0, 0.0, 0.0, 0.0, 0.0, 0.0, 1.654154974924409E9, 0.0, 2022-06-02 09:29:34.924
135.0, 19850.56189901375, -9442.360334677736, -63057.3332974116, -29650.639551954217, -15377.016708495226, -40070.285209451344, -11639.20153846759, -33185.81380675004, -0.03, 0.914, 0.466, 192.0, 0.0, 0.0, 0.0, 0.0, 0.0, 0.0, 0.0, 0.0, 0.0, 1.654154974924414E9, 0.0, 2022-06-02 09:29:34.924
136.0, 19869.02443993383, -9437.599413108755, -63048.034971718196, -29643.1964210506, -15372.524007859709, -40062.685616336545, -11632.563070364366, -33179.46591132473, -0.03, 0.914, 0.466, 192.0, 0.0, 0.0, 0.0, 0.0, 0.0, 0.0, 0.0, 0.0, 0.0, 1.6541549749244192E9, 0.0, 2022-06-02 09:29:34.924
137.0, 19861.89423345259, -9435.923032274608, -63040.21186115884, -29636.490897714008, -15362.979812977293, -40054.32606391026, -11632.808939553373, -33177.00721943465, -0.03, 0.912, 0.468, 192.0, 255.0, 16.0, 28.0, 128.0, 14.0, 160.0, 0.0, 0.0, 0.0, 1.6541549749244246E9, 0.0, 2022-06-02 09:29:34.924
138.0, 19857.245070605884, -9434.380761907192, -63032.05347443265, -29630.61238892226, -15353.569728561608, -40048.425203374056, -11629.098549973793, -33168.46885305272, -0.03, 0.912, 0.468, 192.0, 0.0, 0.0, 0.0, 0.0, 0.0, 0.0, 0.0, 0.0, 0.0, 1.65415497492443E9, 0.0, 2022-06-02 09:29:34.924
139.0, 19856.06042814975, -9445.19900622356, -63042.8270152601, -29641.76590940546, -15360.588176320574, -40057.76823255637, -11635.513500632465, -33174.95085894476, -0.03, 0.912, 0.468, 192.0, 0.0, 0.0, 0.0, 0.0, 0.0, 0.0, 0.0, 0.0, 0.0, 1.6541549749244351E9, 0.0, 2022-06-02 09:29:34.924
140.0, 19844.012837888342, -9459.6829366306, -63059.2331956903, -29656.562764234874, -15378.022536995715, -40071.02281701837, -11652.724343863052, -33178.68360026879, -0.03, 0.912, 0.468, 192.0, 0.0, 0.0, 0.0, 0.0, 0.0, 0.0, 0.0, 0.0, 0.0, 1.6541549749244404E9, 0.0, 2022-06-02 09:29:34.924
141.0, 19852.282983336805, -9446.517759146423, -63041.84353850407, -29639.173107048646, -15364.767952533717, -40051.912075509084, -11638.799207067395, -33167.61948676342, -0.03, 0.912, 0.468, 192.0, 0.0, 0.0, 0.0, 0.0, 0.0, 0.0, 0.0, 0.0, 0.0, 1.6541549749244456E9, 0.0, 2022-06-02 09:29:34.924
142.0, 19855.725151982922, -9445.243709712471, -63037.23907914628, -29638.18963029261, -15360.834045509584, -40051.24152317542, -11635.938183777116, -33180.96347820324, -0.03, 0.912, 0.468, 192.0, 0.0, 0.0, 0.0, 0.0, 0.0, 0.0, 0.0, 0.0, 0.0, 1.6541549749244509E9, 0.0, 2022-06-02 09:29:34.924
