%OpenBCI Raw EEG Data
%Number of channels = 8
%Sample Rate = 250 Hz
%Board = OpenBCI_GUI$BoardCytonSerial
Sample Index, EXG Channel 0, EXG Channel 1, EXG Channel 2, EXG Channel 3, EXG Channel 4, EXG Channel 5, EXG Channel 6, EXG Channel 7, Accel Channel 0, Accel Channel 1, Accel Channel 2, Other, Other, Other, Other, Other, Other, Other, Analog Channel 0, Analog Channel 1, Analog Channel 2, Timestamp, Other, Timestamp (Formatted)
0.0, 0.0, 0.0, 0.0, 0.0, 0.0, 0.0, 0.0, 0.0, 0.0, 0.0, 0.0, 192.0, 0.0, 0.0, 0.0, 0.0, 0.0, 0.0, 0.0, 0.0, 0.0, 1.6527972241724732E9, 0.0, 2022-05-17 16:20:24.172
1.0, 57550.86929212443, 24951.274687203728, -50984.84319267788, -12503.364682598673, 6751.344412725498, -18556.351191562557, 18222.393777655816, 23130.456880385504, -0.024, 1.012, -0.138, 192.0, 255.0, 64.0, 31.0, 160.0, 251.0, 176.0, 0.0, 0.0, 0.0, 1.6527972246512687E9, 0.0, 2022-05-17 16:20:24.651
2.0, 57604.71464451726, 24978.767332883755, -50959.33985225438, -12491.60766501518, 6790.325855055554, -18537.66513319792, 18244.343190710926, 23150.39463643964, -0.024, 1.012, -0.138, 192.0, 0.0, 0.0, 0.0, 0.0, 0.0, 0.0, 0.0, 0.0, 0.0, 1.6527972246513937E9, 0.0, 2022-05-17 16:20:24.651
3.0, 57583.413432051355, 24915.623654797513, -51016.53796631551, -12564.943738573043, 6758.564026184563, -18606.240285186803, 18190.475486573636, 23084.61345250767, -0.024, 1.012, -0.138, 192.0, 0.0, 0.0, 0.0, 0.0, 0.0, 0.0, 0.0, 0.0, 0.0, 1.6527972246513982E9, 0.0, 2022-05-17 16:20:24.651
4.0, 57520.94030629878, 24854.33517150106, -51074.07135654347, -12610.608352495236, 6701.991760968181, -18657.17991080045, 18136.74189290308, 23031.08102453721, -0.024, 1.012, -0.138, 192.0, 0.0, 0.0, 0.0, 0.0, 0.0, 0.0, 0.0, 0.0, 0.0, 1.6527972246514027E9, 0.0, 2022-05-17 16:20:24.651
5.0, 57495.95105599774, 24877.804503179133, -51061.576731392954, -12580.63466318067, 6687.910161961337, -18634.805814600684, 18147.470730241625, 23058.70778068397, -0.024, 1.012, -0.138, 192.0, 0.0, 0.0, 0.0, 0.0, 0.0, 0.0, 0.0, 0.0, 0.0, 1.6527972246514072E9, 0.0, 2022-05-17 16:20:24.651
6.0, 57538.888757096385, 24948.145442979985, -50997.29311433949, -12516.015769960377, 6737.441627674298, -18562.6320317545, 18206.45698385918, 23125.986531494444, -0.024, 1.012, -0.138, 192.0, 0.0, 0.0, 0.0, 0.0, 0.0, 0.0, 0.0, 0.0, 0.0, 1.6527972246514115E9, 0.0, 2022-05-17 16:20:24.651
7.0, 57580.6418157389, 24967.524405422737, -50978.09296585238, -12504.370511099161, 6781.876895651448, -18545.443540268367, 18227.75819632509, 23136.961238022, -0.024, 1.012, -0.138, 192.0, 0.0, 0.0, 0.0, 0.0, 0.0, 0.0, 0.0, 0.0, 0.0, 1.6527972246514158E9, 0.0, 2022-05-17 16:20:24.651
8.0, 57560.77111491813, 24911.64504428447, -51030.887786255815, -12567.625947907682, 6754.741877882705, -18609.995378255295, 18180.037221913008, 23077.125618115144, -0.012, 1.014, -0.146, 192.0, 255.0, 160.0, 31.0, 176.0, 251.0, 112.0, 0.0, 0.0, 0.0, 1.65279722465142E9, 0.0, 2022-05-17 16:20:24.651
9.0, 57529.36691395842, 24875.792846178156, -51061.53202790404, -12595.230352309985, 6716.051008230568, -18644.931154838938, 18147.738951175088, 23044.447367721485, -0.012, 1.014, -0.146, 192.0, 0.0, 0.0, 0.0, 0.0, 0.0, 0.0, 0.0, 0.0, 0.0, 1.6527972246514244E9, 0.0, 2022-05-17 16:20:24.651
10.0, 57512.245477705656, 24891.014384152222, -51051.87607429935, -12571.358689231718, 6701.678836545806, -18618.667855103955, 18159.853596669866, 23068.341382544208, -0.012, 1.014, -0.146, 192.0, 0.0, 0.0, 0.0, 0.0, 0.0, 0.0, 0.0, 0.0, 0.0, 1.6527972246514287E9, 0.0, 2022-05-17 16:20:24.651
11.0, 57548.4329519788, 24947.363131924052, -50993.068634637435, -12510.830165246745, 6743.118970765945, -18551.254993826748, 18213.78835604052, 23130.948618763523, -0.012, 1.014, -0.146, 192.0, 0.0, 0.0, 0.0, 0.0, 0.0, 0.0, 0.0, 0.0, 0.0, 1.6527972246514332E9, 0.0, 2022-05-17 16:20:24.651
12.0, 57586.430917552825, 24965.51274842176, -50977.08713735189, -12505.62220878866, 6785.967264886769, -18536.77106341971, 18234.240202217126, 23144.784348581357, -0.012, 1.014, -0.146, 192.0, 0.0, 0.0, 0.0, 0.0, 0.0, 0.0, 0.0, 0.0, 0.0, 1.6527972246514375E9, 0.0, 2022-05-17 16:20:24.651
13.0, 57579.7924494496, 24918.417622854427, -51025.81394026446, -12567.469485696494, 6769.2705117786545, -18596.629035071022, 18191.101335418385, 23087.65328975359, -0.012, 1.014, -0.146, 192.0, 0.0, 0.0, 0.0, 0.0, 0.0, 0.0, 0.0, 0.0, 0.0, 1.6527972246514418E9, 0.0, 2022-05-17 16:20:24.651
14.0, 57538.19585301827, 24872.8200641656, -51061.91200755978, -12595.140945332163, 6720.029618743613, -18641.265468748268, 18150.331753531904, 23048.40362649007, -0.012, 1.014, -0.146, 192.0, 0.0, 0.0, 0.0, 0.0, 0.0, 0.0, 0.0, 0.0, 0.0, 1.652797224651446E9, 0.0, 2022-05-17 16:20:24.651
15.0, 57512.98308527268, 24890.209721351832, -51041.39310614981, -12564.384944961661, 6704.316342391532, -18620.880677805028, 18162.22288158213, 23071.157702345576, -0.012, 1.014, -0.146, 192.0, 0.0, 0.0, 0.0, 0.0, 0.0, 0.0, 0.0, 0.0, 0.0, 1.6527972246514506E9, 0.0, 2022-05-17 16:20:24.651
16.0, 57543.76143738764, 24950.26885870324, -50986.31840781193, -12506.918609967068, 6741.531996909618, -18561.13446487599, 18209.854449016388, 23126.858249528203, -0.012, 1.014, -0.146, 192.0, 0.0, 0.0, 0.0, 0.0, 0.0, 0.0, 0.0, 0.0, 0.0, 1.6527972246514552E9, 0.0, 2022-05-17 16:20:24.651
17.0, 57592.77881297813, 24972.79941711419, -50965.08425057939, -12492.926417938044, 6791.309331811587, -18537.53102273119, 18234.150795239308, 23142.34800843573, -0.012, 1.014, -0.146, 192.0, 0.0, 0.0, 0.0, 0.0, 0.0, 0.0, 0.0, 0.0, 0.0, 1.6527972246514597E9, 0.0, 2022-05-17 16:20:24.651
18.0, 57583.50283902918, 24927.045396214176, -51006.94906794418, -12547.889357553644, 6777.272436293654, -18590.079973945616, 18196.30929187647, 23093.732964245435, -0.014, 1.016, -0.156, 192.0, 255.0, 144.0, 31.0, 192.0, 251.0, 32.0, 0.0, 0.0, 0.0, 1.652797224651464E9, 0.0, 2022-05-17 16:20:24.651
19.0, 57533.4796349382, 24879.50323575774, -51048.27744344204, -12589.664767940614, 6721.348371666476, -18643.992381571818, 18146.487253485593, 23048.023646834332, -0.014, 1.016, -0.156, 192.0, 0.0, 0.0, 0.0, 0.0, 0.0, 0.0, 0.0, 0.0, 0.0, 1.6527972246514683E9, 0.0, 2022-05-17 16:20:24.651
20.0, 57516.91699229682, 24900.178599378898, -51031.71480080066, -12560.652203637625, 6706.886793003892, -18612.007035256273, 18160.814721681443, 23073.66109772457, -0.014, 1.016, -0.156, 192.0, 0.0, 0.0, 0.0, 0.0, 0.0, 0.0, 0.0, 0.0, 0.0, 1.6527972246514735E9, 0.0, 2022-05-17 16:20:24.651
21.0, 57556.926614871816, 24961.578841397626, -50983.25621882155, -12498.067319162765, 6743.990688799702, -18548.729246703297, 18214.03422522953, 23134.59195310974, -0.014, 1.016, -0.156, 192.0, 0.0, 0.0, 0.0, 0.0, 0.0, 0.0, 0.0, 0.0, 0.0, 1.6527972246514778E9, 0.0, 2022-05-17 16:20:24.651
22.0, 57592.68940600031, 24983.9976410863, -50963.921959867715, -12487.025557401843, 6781.72043344026, -18531.33958951707, 18235.35778943989, 23145.365493937195, -0.014, 1.016, -0.156, 192.0, 0.0, 0.0, 0.0, 0.0, 0.0, 0.0, 0.0, 0.0, 0.0, 1.6527972246514895E9, 0.0, 2022-05-17 16:20:24.651
23.0, 57576.50674301467, 24924.430242112907, -51013.25225988058, -12549.230462220963, 6762.564988442063, -18591.845761757584, 18192.129515663328, 23086.37924031964, -0.014, 1.016, -0.156, 192.0, 0.0, 0.0, 0.0, 0.0, 0.0, 0.0, 0.0, 0.0, 0.0, 1.6527972246514938E9, 0.0, 2022-05-17 16:20:24.651
24.0, 57539.514605941135, 24883.705363715337, -51057.28519645753, -12597.040843610865, 6714.70990356325, -18641.399579215, 18153.483349500104, 23043.553297943272, -0.014, 1.016, -0.156, 192.0, 0.0, 0.0, 0.0, 0.0, 0.0, 0.0, 0.0, 0.0, 0.0, 1.652797224651498E9, 0.0, 2022-05-17 16:20:24.651
25.0, 57521.61085863243, 24910.661567528437, -51025.210443164164, -12556.181854746565, 6706.305647648054, -18611.515296878257, 18170.582434008415, 23069.883652911623, -0.014, 1.016, -0.156, 192.0, 0.0, 0.0, 0.0, 0.0, 0.0, 0.0, 0.0, 0.0, 0.0, 1.652797224651502E9, 0.0, 2022-05-17 16:20:24.651
26.0, 57554.24440553718, 24967.546757167194, -50976.10366059586, -12495.988606928422, 6743.297784721588, -18545.71176120183, 18220.6503415883, 23130.211011196498, -0.014, 1.016, -0.156, 192.0, 0.0, 0.0, 0.0, 0.0, 0.0, 0.0, 0.0, 0.0, 0.0, 1.652797224651506E9, 0.0, 2022-05-17 16:20:24.651
27.0, 57599.95372294828, 24984.33291725313, -50960.43508773269, -12489.797173714302, 6780.714604939772, -18532.300714528646, 18239.04582727502, 23142.280953202364, -0.01, 1.016, -0.156, 192.0, 255.0, 176.0, 31.0, 192.0, 251.0, 32.0, 0.0, 0.0, 0.0, 1.65279722465151E9, 0.0, 2022-05-17 16:20:24.651
28.0, 57592.82351646704, 24928.07357645912, -51017.47673958263, -12554.304308212319, 6763.392002986909, -18591.130505935016, 18194.588207553414, 23085.84279845271, -0.01, 1.016, -0.156, 192.0, 0.0, 0.0, 0.0, 0.0, 0.0, 0.0, 0.0, 0.0, 0.0, 1.652797224651514E9, 0.0, 2022-05-17 16:20:24.651
29.0, 57542.174463531315, 24878.430352023883, -51061.3532139484, -12604.9757128925, 6712.586487839996, -18646.518128695265, 18145.570831962923, 23034.769062372336, -0.01, 1.016, -0.156, 192.0, 0.0, 0.0, 0.0, 0.0, 0.0, 0.0, 0.0, 0.0, 0.0, 1.6527972246515183E9, 0.0, 2022-05-17 16:20:24.651
30.0, 57524.60599238944, 24906.750012248758, -51037.325088658945, -12571.291633998351, 6704.361045880443, -18617.12558473654, 18163.318117060437, 23064.04984760879, -0.01, 1.016, -0.156, 192.0, 0.0, 0.0, 0.0, 0.0, 0.0, 0.0, 0.0, 0.0, 0.0, 1.6527972246515224E9, 0.0, 2022-05-17 16:20:24.651
31.0, 57561.039335851594, 24966.78679785571, -50991.50401252556, -12512.215973402976, 6739.520339908641, -18558.67577298591, 18214.83888802992, 23121.694996559025, -0.01, 1.016, -0.156, 192.0, 0.0, 0.0, 0.0, 0.0, 0.0, 0.0, 0.0, 0.0, 0.0, 1.6527972246515265E9, 0.0, 2022-05-17 16:20:24.651
32.0, 57604.08879567251, 24985.13758005352, -50968.951102370156, -12498.71551975197, 6781.407509017887, -18541.82255766661, 18235.648362117812, 23136.044816499332, -0.01, 1.016, -0.156, 192.0, 0.0, 0.0, 0.0, 0.0, 0.0, 0.0, 0.0, 0.0, 0.0, 1.6527972246515305E9, 0.0, 2022-05-17 16:20:24.651
33.0, 57579.72539421623, 24926.88893400299, -51025.70218154218, -12562.10506702722, 6762.2297122752325, -18602.284026418212, 18190.877817973833, 23080.679545483537, -0.01, 1.016, -0.156, 192.0, 0.0, 0.0, 0.0, 0.0, 0.0, 0.0, 0.0, 0.0, 0.0, 1.6527972246515343E9, 0.0, 2022-05-17 16:20:24.651
34.0, 57537.078265795506, 24880.06202936912, -51064.14718200531, -12600.326550045795, 6722.868290289437, -18648.73095139634, 18151.829320410412, 23038.70296939647, -0.01, 1.016, -0.156, 192.0, 0.0, 0.0, 0.0, 0.0, 0.0, 0.0, 0.0, 0.0, 0.0, 1.6527972246515384E9, 0.0, 2022-05-17 16:20:24.651
35.0, 57519.666256864824, 24901.720869746314, -51052.43486791073, -12574.10795379972, 6713.2346884292, -18624.63577087352, 18163.87691067182, 23061.27823129633, -0.01, 1.016, -0.156, 192.0, 0.0, 0.0, 0.0, 0.0, 0.0, 0.0, 0.0, 0.0, 0.0, 1.6527972246515424E9, 0.0, 2022-05-17 16:20:24.651
36.0, 57554.06559158154, 24957.913155306956, -51000.131785885314, -12515.94871472701, 6745.532959167119, -18565.895386444972, 18207.55221933749, 23115.637673811638, -0.01, 1.016, -0.156, 192.0, 0.0, 0.0, 0.0, 0.0, 0.0, 0.0, 0.0, 0.0, 0.0, 1.6527972246515465E9, 0.0, 2022-05-17 16:20:24.651
37.0, 57591.460060055266, 24970.161911268464, -50994.20857360466, -12507.030368689344, 6785.497878253207, -18548.796301936665, 18225.7018358352, 23129.473403629472, -0.006, 1.012, -0.152, 192.0, 255.0, 208.0, 31.0, 160.0, 251.0, 64.0, 0.0, 0.0, 0.0, 1.6527972246515503E9, 0.0, 2022-05-17 16:20:24.651
38.0, 57592.48824030021, 24928.207686925853, -51035.55930084697, -12558.662898381102, 6781.988654373724, -18595.24322691479, 18192.26362613006, 23085.216949607962, -0.006, 1.012, -0.152, 192.0, 0.0, 0.0, 0.0, 0.0, 0.0, 0.0, 0.0, 0.0, 0.0, 1.6527972246515543E9, 0.0, 2022-05-17 16:20:24.651
39.0, 57556.59133870499, 24889.203892851343, -51059.0509842695, -12606.965018149021, 6729.260889203655, -18633.576468655643, 18151.203471565663, 23047.867184623145, -0.006, 1.012, -0.152, 192.0, 0.0, 0.0, 0.0, 0.0, 0.0, 0.0, 0.0, 0.0, 0.0, 1.6527972246515584E9, 0.0, 2022-05-17 16:20:24.651
40.0, 57527.93640231329, 24901.16207613493, -51042.46598988366, -12578.600654435237, 6707.937324993292, -18612.677587589933, 18158.35602979136, 23063.580460975227, -0.006, 1.012, -0.152, 192.0, 0.0, 0.0, 0.0, 0.0, 0.0, 0.0, 0.0, 0.0, 0.0, 1.6527972246515625E9, 0.0, 2022-05-17 16:20:24.651
41.0, 57555.809027649055, 24956.572050639636, -50997.44957655067, -12511.52306932486, 6749.645680146895, -18552.931374660897, 18207.753385037588, 23119.884505258146, -0.006, 1.012, -0.152, 192.0, 0.0, 0.0, 0.0, 0.0, 0.0, 0.0, 0.0, 0.0, 0.0, 1.6527972246515665E9, 0.0, 2022-05-17 16:20:24.651
42.0, 57604.848754984, 24981.449542218394, -50968.70523318115, -12497.799098229301, 6793.790375446127, -18531.540755217167, 18231.401530671304, 23142.34800843573, -0.006, 1.012, -0.152, 192.0, 0.0, 0.0, 0.0, 0.0, 0.0, 0.0, 0.0, 0.0, 0.0, 1.6527972246515703E9, 0.0, 2022-05-17 16:20:24.651
43.0, 57586.565028019555, 24926.397195624973, -51018.236698894114, -12555.95833730201, 6776.870104893459, -18600.20531418387, 18183.658204514766, 23086.24512985291, -0.006, 1.012, -0.152, 192.0, 0.0, 0.0, 0.0, 0.0, 0.0, 0.0, 0.0, 0.0, 0.0, 1.652797224651576E9, 0.0, 2022-05-17 16:20:24.651
44.0, 57536.161844272836, 24873.892947899458, -51072.08205128695, -12603.9251809031, 6726.601031613473, -18651.59197468662, 18137.16657604773, 23038.56885892974, -0.006, 1.012, -0.152, 192.0, 0.0, 0.0, 0.0, 0.0, 0.0, 0.0, 0.0, 0.0, 0.0, 1.65279722465158E9, 0.0, 2022-05-17 16:20:24.651
45.0, 57509.76443407112, 24883.705363715337, -51063.878961071845, -12584.970901604998, 6708.294952904577, -18627.228573230335, 18147.895413386275, 23060.205347562474, -0.006, 1.012, -0.152, 192.0, 0.0, 0.0, 0.0, 0.0, 0.0, 0.0, 0.0, 0.0, 0.0, 1.652797224651584E9, 0.0, 2022-05-17 16:20:24.651
46.0, 57544.20847227675, 24942.26693418824, -51009.87714646783, -12522.542479341326, 6742.381363198921, -18560.374505564512, 18197.717451777156, 23119.57158083577, -0.006, 1.012, -0.152, 192.0, 0.0, 0.0, 0.0, 0.0, 0.0, 0.0, 0.0, 0.0, 0.0, 1.652797224651588E9, 0.0, 2022-05-17 16:20:24.651
47.0, 57588.12965013143, 24965.80332109968, -50990.341721813886, -12512.528897825348, 6779.261741550177, -18539.743845432266, 18218.45987063168, 23135.262505443396, -0.004, 1.014, -0.15, 192.0, 255.0, 224.0, 31.0, 176.0, 251.0, 80.0, 0.0, 0.0, 0.0, 1.652797224651592E9, 0.0, 2022-05-17 16:20:24.651
48.0, 57571.76817319014, 24918.30586413215, -51043.65063233979, -12568.475314196983, 6761.469752963752, -18600.20531418387, 18173.10818113186, 23080.433676294528, -0.004, 1.014, -0.15, 192.0, 0.0, 0.0, 0.0, 0.0, 0.0, 0.0, 0.0, 0.0, 0.0, 1.652797224651596E9, 0.0, 2022-05-17 16:20:24.651
49.0, 57530.7303703702, 24875.54697698915, -51075.79244086653, -12606.853259426745, 6721.258964688655, -18642.74068388232, 18135.177270791206, 23041.094606053186, -0.004, 1.014, -0.15, 192.0, 0.0, 0.0, 0.0, 0.0, 0.0, 0.0, 0.0, 0.0, 0.0, 1.6527972246516E9, 0.0, 2022-05-17 16:20:24.651
50.0, 57504.95880901323, 24894.25538709824, -51061.71084185968, -12580.768773647402, 6702.908182490848, -18620.053663260183, 18143.603878450856, 23062.66403945256, -0.004, 1.014, -0.15, 192.0, 0.0, 0.0, 0.0, 0.0, 0.0, 0.0, 0.0, 0.0, 0.0, 1.6527972246516042E9, 0.0, 2022-05-17 16:20:24.651
51.0, 57528.38343720239, 24951.60996337056, -51008.96072494516, -12522.788348530335, 6739.4532846752745, -18553.847796183563, 18196.018719198553, 23124.46661287148, -0.004, 1.014, -0.15, 192.0, 0.0, 0.0, 0.0, 0.0, 0.0, 0.0, 0.0, 0.0, 0.0, 1.6527972246516082E9, 0.0, 2022-05-17 16:20:24.651
52.0, 57580.57476050553, 24979.50494045078, -50976.640102462785, -12498.134374396132, 6794.907962668892, -18532.121900573005, 18224.159565467784, 23146.371322437684, -0.004, 1.014, -0.15, 192.0, 0.0, 0.0, 0.0, 0.0, 0.0, 0.0, 0.0, 0.0, 0.0, 1.6527972246516123E9, 0.0, 2022-05-17 16:20:24.651
53.0, 57582.31819657305, 24937.97539925282, -51012.358190102364, -12540.110950483198, 6795.690273724827, -18583.888540731496, 18187.301538860982, 23099.723231759457, -0.004, 1.014, -0.15, 192.0, 0.0, 0.0, 0.0, 0.0, 0.0, 0.0, 0.0, 0.0, 0.0, 1.6527972246516163E9, 0.0, 2022-05-17 16:20:24.651
54.0, 57527.26584997962, 24875.994011878254, -51064.61656863887, -12598.449003511549, 6727.562156625052, -18645.46759670587, 18128.807023621444, 23041.005199075367, -0.004, 1.014, -0.15, 192.0, 0.0, 0.0, 0.0, 0.0, 0.0, 0.0, 0.0, 0.0, 0.0, 1.6527972246516204E9, 0.0, 2022-05-17 16:20:24.651
55.0, 57509.49621313766, 24891.59552950806, -51047.29396668601, -12569.481142697472, 6704.361045880443, -18613.54930562369, 18141.994552850076, 23066.12855984313, -0.004, 1.014, -0.15, 192.0, 0.0, 0.0, 0.0, 0.0, 0.0, 0.0, 0.0, 0.0, 0.0, 1.6527972246516244E9, 0.0, 2022-05-17 16:20:24.651
56.0, 57541.05687630855, 24949.285381947207, -50994.07446313792, -12508.19265940102, 6741.1520172538785, -18552.014953138227, 18193.31415811946, 23125.070109971777, -0.004, 1.014, -0.15, 192.0, 0.0, 0.0, 0.0, 0.0, 0.0, 0.0, 0.0, 0.0, 0.0, 1.6527972246516285E9, 0.0, 2022-05-17 16:20:24.651
57.0, 57583.65930124037, 24977.873263105546, -50969.28637853699, -12490.46772604796, 6788.515363754674, -18531.540755217167, 18220.538582866026, 23145.72312184848, -0.006, 1.02, -0.15, 192.0, 255.0, 208.0, 31.0, 224.0, 251.0, 80.0, 0.0, 0.0, 0.0, 1.6527972246516323E9, 0.0, 2022-05-17 16:20:24.651
58.0, 57576.73026045922, 24931.247524171773, -51014.07927442542, -12543.15078772912, 6783.128593340945, -18580.692241274388, 18183.21116962566, 23097.309243358286, -0.006, 1.02, -0.15, 192.0, 0.0, 0.0, 0.0, 0.0, 0.0, 0.0, 0.0, 0.0, 0.0, 1.6527972246516364E9, 0.0, 2022-05-17 16:20:24.651
59.0, 57524.6283441339, 24868.752046674737, -51071.18798150873, -12601.332378546284, 6733.127740994423, -18643.83591936063, 18125.20839276414, 23040.267591508342, -0.006, 1.02, -0.15, 192.0, 0.0, 0.0, 0.0, 0.0, 0.0, 0.0, 0.0, 0.0, 0.0, 1.6527972246516404E9, 0.0, 2022-05-17 16:20:24.651
60.0, 57498.85678277693, 24881.581947992083, -51064.32599596096, -12585.753212660935, 6716.229822186211, -18629.3966924425, 18131.01984632252, 23057.32197252774, -0.006, 1.02, -0.15, 192.0, 0.0, 0.0, 0.0, 0.0, 0.0, 0.0, 0.0, 0.0, 0.0, 1.6527972246516442E9, 0.0, 2022-05-17 16:20:24.651
61.0, 57529.76924535862, 24945.97732376782, -51003.86452720935, -12526.744607298924, 6751.1432470254, -18558.787531708185, 18184.105239403874, 23116.71055754549, -0.006, 1.02, -0.15, 192.0, 0.0, 0.0, 0.0, 0.0, 0.0, 0.0, 0.0, 0.0, 0.0, 1.6527972246516483E9, 0.0, 2022-05-17 16:20:24.651
62.0, 57581.62529249493, 24979.907271850978, -50970.87335239331, -12500.593066286216, 6800.562954016084, -18528.925601115894, 18215.08475721893, 23142.10213924672, -0.006, 1.02, -0.15, 192.0, 0.0, 0.0, 0.0, 0.0, 0.0, 0.0, 0.0, 0.0, 0.0, 1.652797224651652E9, 0.0, 2022-05-17 16:20:24.651
63.0, 57577.400812792876, 24930.867544516033, -51012.96168720266, -12554.43841867905, 6786.660168964883, -18584.40263085397, 18174.091657887897, 23090.603720021692, -0.006, 1.02, -0.15, 192.0, 0.0, 0.0, 0.0, 0.0, 0.0, 0.0, 0.0, 0.0, 0.0, 1.6527972246516562E9, 0.0, 2022-05-17 16:20:24.651
64.0, 57539.26873675213, 24876.77632293419, -51063.72249886066, -12608.373178049706, 6730.870214804437, -18643.902974593995, 18126.840070109378, 23042.70393165397, -0.006, 1.02, -0.15, 192.0, 0.0, 0.0, 0.0, 0.0, 0.0, 0.0, 0.0, 0.0, 0.0, 1.6527972246516616E9, 0.0, 2022-05-17 16:20:24.651
65.0, 57521.275582465605, 24895.06004989863, -51050.26674869857, -12571.939834587554, 6711.267734917133, -18621.797099327698, 18135.132567302295, 23066.15091158759, -0.006, 1.02, -0.15, 192.0, 0.0, 0.0, 0.0, 0.0, 0.0, 0.0, 0.0, 0.0, 0.0, 1.6527972246516657E9, 0.0, 2022-05-17 16:20:24.651
66.0, 57546.845978122474, 24967.32323972264, -50987.838326434896, -12497.910856951577, 6754.697174393795, -18549.84683392606, 18190.98957669611, 23134.457842643005, -0.006, 1.02, -0.15, 192.0, 0.0, 0.0, 0.0, 0.0, 0.0, 0.0, 0.0, 0.0, 0.0, 1.6527972246516695E9, 0.0, 2022-05-17 16:20:24.651
67.0, 57583.547542518085, 24990.03261208923, -50964.9277883682, -12480.409441043073, 6800.4958987827185, -18527.6739034264, 18214.347149651905, 23149.858194572713, -0.004, 1.018, -0.146, 192.0, 255.0, 224.0, 31.0, 208.0, 251.0, 112.0, 0.0, 0.0, 0.0, 1.6527972246516736E9, 0.0, 2022-05-17 16:20:24.651
68.0, 57580.86533318345, 24945.999675512277, -51002.70223649767, -12532.71252306849, 6788.180087587844, -18578.367659851036, 18177.287957345005, 23098.963272447978, -0.004, 1.018, -0.146, 192.0, 0.0, 0.0, 0.0, 0.0, 0.0, 0.0, 0.0, 0.0, 0.0, 1.6527972246516776E9, 0.0, 2022-05-17 16:20:24.651
69.0, 57534.0831320385, 24894.68007024289, -51043.80709455098, -12585.73086091648, 6729.350296181477, -18625.395730185002, 18122.7273491296, 23048.582440445716, -0.004, 1.018, -0.146, 192.0, 0.0, 0.0, 0.0, 0.0, 0.0, 0.0, 0.0, 0.0, 0.0, 1.6527972246516817E9, 0.0, 2022-05-17 16:20:24.651
70.0, 57501.22606768919, 24896.557616777136, -51041.661327083275, -12574.890264855656, 6707.847918015471, -18609.794212555196, 18122.77205261851, 23058.618373706147, -0.004, 1.018, -0.146, 192.0, 0.0, 0.0, 0.0, 0.0, 0.0, 0.0, 0.0, 0.0, 0.0, 1.6527972246516857E9, 0.0, 2022-05-17 16:20:24.651
71.0, 57531.42327444831, 24955.119187250042, -50993.18039335971, -12507.723272767458, 6739.565043397552, -18550.29386881517, 18170.157750863764, 23114.43067961105, -0.004, 1.018, -0.146, 192.0, 0.0, 0.0, 0.0, 0.0, 0.0, 0.0, 0.0, 0.0, 0.0, 1.6527972246516893E9, 0.0, 2022-05-17 16:20:24.651
72.0, 57579.16660060485, 24990.680812678434, -50961.73148891109, -12478.174266597542, 6789.588247488528, -18525.885763869974, 18204.490030347115, 23143.95733403651, -0.004, 1.018, -0.146, 192.0, 0.0, 0.0, 0.0, 0.0, 0.0, 0.0, 0.0, 0.0, 0.0, 1.6527972246516933E9, 0.0, 2022-05-17 16:20:24.651
73.0, 57568.01308012165, 24937.17073645243, -51004.400969076276, -12537.920479526578, 6775.774869415149, -18585.520218076734, 18165.08390487241, 23092.458914811483, -0.004, 1.018, -0.146, 192.0, 0.0, 0.0, 0.0, 0.0, 0.0, 0.0, 0.0, 0.0, 0.0, 1.6527972246516974E9, 0.0, 2022-05-17 16:20:24.651
74.0, 57512.737216083675, 24873.468264754807, -51062.984891293636, -12601.108861101731, 6717.190947197789, -18655.25766077729, 18104.421270420706, 23034.389082716596, -0.004, 1.018, -0.146, 192.0, 0.0, 0.0, 0.0, 0.0, 0.0, 0.0, 0.0, 0.0, 0.0, 1.6527972246517015E9, 0.0, 2022-05-17 16:20:24.651
75.0, 57489.93843673926, 24889.91914867391, -51045.32701317394, -12578.600654435237, 6703.221106913222, -18629.5978581426, 18117.050006037953, 23057.746655672392, -0.004, 1.018, -0.146, 192.0, 0.0, 0.0, 0.0, 0.0, 0.0, 0.0, 0.0, 0.0, 0.0, 1.6527972246517055E9, 0.0, 2022-05-17 16:20:24.651
76.0, 57524.87421332291, 24955.722684350334, -50985.156117100254, -12511.254848391396, 6745.354145211476, -18555.501825273255, 18174.046954398986, 23124.46661287148, -0.004, 1.018, -0.146, 192.0, 0.0, 0.0, 0.0, 0.0, 0.0, 0.0, 0.0, 0.0, 0.0, 1.6527972246517093E9, 0.0, 2022-05-17 16:20:24.651
77.0, 57574.539789502596, 24985.070524820152, -50955.69651790816, -12484.052775389287, 6794.907962668892, -18524.76817664721, 18202.768946024054, 23150.662857373103, -0.004, 1.018, -0.146, 192.0, 255.0, 224.0, 31.0, 208.0, 251.0, 112.0, 0.0, 0.0, 0.0, 1.6527972246517138E9, 0.0, 2022-05-17 16:20:24.651
78.0, 57573.44455402429, 24940.478794631817, -50997.22605910612, -12539.149825471619, 6785.274360808655, -18580.826351741118, 18164.88273917231, 23099.320900359264, -0.004, 1.018, -0.146, 192.0, 0.0, 0.0, 0.0, 0.0, 0.0, 0.0, 0.0, 0.0, 0.0, 1.652797224651718E9, 0.0, 2022-05-17 16:20:24.651
79.0, 57521.834376076986, 24879.59264273556, -51048.791533564516, -12595.20800056553, 6737.888662563403, -18641.153710025992, 18114.457203681137, 23048.47068172344, -0.004, 1.018, -0.146, 192.0, 0.0, 0.0, 0.0, 0.0, 0.0, 0.0, 0.0, 0.0, 0.0, 1.652797224651722E9, 0.0, 2022-05-17 16:20:24.651
80.0, 57488.95495998323, 24880.86669216951, -51050.24439695411, -12585.306177771829, 6703.75754878015, -18634.604648900586, 18109.58452338988, 23055.22090854894, -0.004, 1.018, -0.146, 192.0, 0.0, 0.0, 0.0, 0.0, 0.0, 0.0, 0.0, 0.0, 0.0, 1.652797224651726E9, 0.0, 2022-05-17 16:20:24.651
81.0, 57522.750797599656, 24941.08229173211, -51001.36113183035, -12525.112929953686, 6724.879947290415, -18569.40461032446, 18159.719486203132, 23115.034176711342, -0.004, 1.018, -0.146, 192.0, 0.0, 0.0, 0.0, 0.0, 0.0, 0.0, 0.0, 0.0, 0.0, 1.6527972246517298E9, 0.0, 2022-05-17 16:20:24.651
82.0, 57572.05874586806, 24970.72070487985, -50976.438936762686, -12499.922513952555, 6767.48237222223, -18538.536851231678, 18188.12855340583, 23138.034121755856, -0.004, 1.018, -0.146, 192.0, 0.0, 0.0, 0.0, 0.0, 0.0, 0.0, 0.0, 0.0, 0.0, 1.6527972246517577E9, 0.0, 2022-05-17 16:20:24.651
83.0, 57566.291995798594, 24924.385538623996, -51020.874204739834, -12554.952508801522, 6760.352165740987, -18591.57754082412, 18148.40950350875, 23088.48030429844, -0.004, 1.018, -0.146, 192.0, 0.0, 0.0, 0.0, 0.0, 0.0, 0.0, 0.0, 0.0, 0.0, 1.6527972246517618E9, 0.0, 2022-05-17 16:20:24.651
84.0, 57518.66042836433, 24866.807444907125, -51070.13744951933, -12608.484936771982, 6704.629266813907, -18650.295573508214, 18096.888732539264, 23038.591210674193, -0.004, 1.018, -0.146, 192.0, 0.0, 0.0, 0.0, 0.0, 0.0, 0.0, 0.0, 0.0, 0.0, 1.652797224651766E9, 0.0, 2022-05-17 16:20:24.651
85.0, 57490.43017511728, 24874.384686277474, -51056.32407144595, -12591.54231447486, 6684.020958426114, -18639.74555012531, 18098.654520351236, 23050.303524768773, -0.004, 1.018, -0.146, 192.0, 0.0, 0.0, 0.0, 0.0, 0.0, 0.0, 0.0, 0.0, 0.0, 1.6527972246517699E9, 0.0, 2022-05-17 16:20:24.651
86.0, 57525.03067553409, 24943.272762688728, -50997.71779748414, -12524.442377620027, 6725.595203112985, -18567.415305067934, 18155.517358245535, 23116.330577889752, -0.004, 1.018, -0.146, 192.0, 0.0, 0.0, 0.0, 0.0, 0.0, 0.0, 0.0, 0.0, 0.0, 1.6527972246517754E9, 0.0, 2022-05-17 16:20:24.651
87.0, 57575.97030114774, 24973.51467293676, -50971.92388438271, -12498.223781373952, 6771.550389713096, -18536.56989771961, 18188.73205050612, 23142.57152588028, -0.004, 1.018, -0.152, 192.0, 255.0, 224.0, 31.0, 208.0, 251.0, 64.0, 0.0, 0.0, 0.0, 1.6527972246517794E9, 0.0, 2022-05-17 16:20:24.651
88.0, 57581.58058900602, 24933.75091955077, -51005.87618421033, -12536.132339970154, 6769.024642589646, -18580.133447663004, 18155.003268123062, 23100.23732188193, -0.004, 1.018, -0.152, 192.0, 0.0, 0.0, 0.0, 0.0, 0.0, 0.0, 0.0, 0.0, 0.0, 1.6527972246517835E9, 0.0, 2022-05-17 16:20:24.651
89.0, 57537.25707975115, 24885.381744549482, -51048.076277741944, -12586.759041161424, 6724.656429845862, -18633.218840744357, 18104.331863442883, 23050.70585616897, -0.004, 1.018, -0.152, 192.0, 0.0, 0.0, 0.0, 0.0, 0.0, 0.0, 0.0, 0.0, 0.0, 1.6527972246517873E9, 0.0, 2022-05-17 16:20:24.651
90.0, 57502.99185550116, 24889.69563122936, -51047.69629808621, -12574.77850613338, 6702.081167946001, -18625.239267973815, 18103.303683197937, 23060.495920240395, -0.004, 1.018, -0.152, 192.0, 0.0, 0.0, 0.0, 0.0, 0.0, 0.0, 0.0, 0.0, 0.0, 1.6527972246517913E9, 0.0, 2022-05-17 16:20:24.651
91.0, 57519.48744290918, 24942.110471977052, -51008.446634822685, -12521.179022929553, 6728.165653725345, -18566.610642267544, 18147.02369535252, 23112.62018831017, -0.004, 1.018, -0.152, 192.0, 0.0, 0.0, 0.0, 0.0, 0.0, 0.0, 0.0, 0.0, 0.0, 1.6527972246517954E9, 0.0, 2022-05-17 16:20:24.651
92.0, 57562.76042017465, 24976.442751460407, -50976.03660536249, -12503.76701399887, 6761.849732619493, -18539.274458798704, 18171.25298634207, 23135.754243821415, -0.004, 1.018, -0.152, 192.0, 0.0, 0.0, 0.0, 0.0, 0.0, 0.0, 0.0, 0.0, 0.0, 1.6527972246517997E9, 0.0, 2022-05-17 16:20:24.651
93.0, 57562.04516435209, 24935.11437596254, -51007.77608248903, -12555.176026246076, 6756.731183139227, -18580.5357790632, 18143.179195306206, 23096.34811834671, -0.004, 1.018, -0.152, 192.0, 0.0, 0.0, 0.0, 0.0, 0.0, 0.0, 0.0, 0.0, 0.0, 1.6527972246518035E9, 0.0, 2022-05-17 16:20:24.651
94.0, 57510.39028291587, 24870.87546239799, -51070.36096696389, -12610.898925173155, 6705.366874380931, -18648.216861273868, 18083.05300272143, 23030.254009992364, -0.004, 1.018, -0.152, 192.0, 0.0, 0.0, 0.0, 0.0, 0.0, 0.0, 0.0, 0.0, 0.0, 1.6527972246518075E9, 0.0, 2022-05-17 16:20:24.651
95.0, 57477.98025345567, 24875.278756055686, -51069.8021733525, -12591.408204008128, 6680.779955480094, -18632.88356457753, 18081.264863165004, 23041.47458570893, -0.004, 1.018, -0.152, 192.0, 0.0, 0.0, 0.0, 0.0, 0.0, 0.0, 0.0, 0.0, 0.0, 1.6527972246518116E9, 0.0, 2022-05-17 16:20:24.651
96.0, 57510.90437303834, 24938.958876008855, -51004.15509988727, -12521.268429907374, 6717.2356506867, -18568.510540546245, 18141.6816284277, 23109.133316175143, -0.004, 1.018, -0.152, 192.0, 0.0, 0.0, 0.0, 0.0, 0.0, 0.0, 0.0, 0.0, 0.0, 1.6527972246518157E9, 0.0, 2022-05-17 16:20:24.651
97.0, 57559.83234165101, 24969.312544979162, -50973.71202393914, -12497.620284273658, 6763.146133797901, -18543.409531522935, 18175.83509395541, 23136.223630454973, -0.004, 1.018, -0.152, 192.0, 0.0, 0.0, 31.0, 144.0, 251.0, 48.0, 0.0, 0.0, 0.0, 1.6527972246518197E9, 0.0, 2022-05-17 16:20:24.651
98.0, 57561.173446318324, 24926.0842712026, -51013.25225988058, -12559.512264670404, 6752.417296459353, -18596.986662982305, 18138.64179118178, 23086.960385675477, -0.004, 1.018, -0.152, 192.0, 0.0, 0.0, 0.0, 0.0, 0.0, 0.0, 0.0, 0.0, 0.0, 1.6527972246518235E9, 0.0, 2022-05-17 16:20:24.651
99.0, 57511.88784979437, 24862.35944776052, -51071.7020716312, -12615.503384530948, 6698.236667899689, -18656.151730555503, 18083.634148077268, 23032.109204782155, -0.004, 1.018, -0.152, 192.0, 0.0, 0.0, 0.0, 0.0, 0.0, 0.0, 0.0, 0.0, 0.0, 1.6527972246518276E9, 0.0, 2022-05-17 16:20:24.651
100.0, 57473.107573164416, 24862.985296605268, -51071.657368142296, -12602.82994542479, 6671.056946642036, -18644.618230416567, 18078.940281741652, 23042.41335897605, -0.004, 1.018, -0.152, 192.0, 0.0, 0.0, 0.0, 0.0, 0.0, 0.0, 0.0, 0.0, 0.0, 1.6527972246518316E9, 0.0, 2022-05-17 16:20:24.651
101.0, 57508.4233294038, 24931.26987591623, -51012.648762780285, -12533.204261446508, 6711.178327939311, -18570.745714991775, 18135.892526613778, 23108.41806035257, -0.004, 1.018, -0.152, 192.0, 0.0, 0.0, 0.0, 0.0, 0.0, 0.0, 0.0, 0.0, 0.0, 1.6527972246518357E9, 0.0, 2022-05-17 16:20:24.651
102.0, 57556.18900730479, 24963.814015843156, -50982.22803857661, -12507.700921023003, 6753.378421470931, -18539.721493687808, 18165.776808950523, 23132.24501994193, -0.004, 1.018, -0.152, 192.0, 0.0, 0.0, 0.0, 0.0, 0.0, 0.0, 0.0, 0.0, 0.0, 1.6527972246518395E9, 0.0, 2022-05-17 16:20:24.651
103.0, 57546.95773684475, 24921.278646144707, -51021.67886754023, -12556.24890997993, 6744.750648111182, -18589.34236637859, 18128.002360821054, 23082.668850740058, -0.004, 1.018, -0.152, 192.0, 0.0, 0.0, 0.0, 0.0, 0.0, 0.0, 0.0, 0.0, 0.0, 1.6527972246518435E9, 0.0, 2022-05-17 16:20:24.651
104.0, 57497.985064743174, 24866.136892573464, -51074.786612366035, -12610.54129726187, 6693.699263775261, -18649.848538619106, 18075.989851473554, 23029.404643703063, -0.004, 1.018, -0.152, 192.0, 0.0, 0.0, 0.0, 0.0, 0.0, 0.0, 0.0, 0.0, 0.0, 1.6527972246518476E9, 0.0, 2022-05-17 16:20:24.651
105.0, 57481.847105246445, 24887.30399457264, -51055.96644353467, -12582.601616692737, 6684.020958426114, -18624.07697726214, 18094.362985415817, 23054.058617837265, -0.004, 1.018, -0.152, 192.0, 0.0, 0.0, 0.0, 0.0, 0.0, 0.0, 0.0, 0.0, 0.0, 1.6527972246518517E9, 0.0, 2022-05-17 16:20:24.651
106.0, 57506.21050670272, 24942.378692910515, -51009.74303600109, -12527.258697421395, 6714.9781244967135, -18563.727267232807, 18145.503776729558, 23107.99337720792, -0.004, 1.018, -0.152, 192.0, 0.0, 0.0, 0.0, 0.0, 0.0, 0.0, 0.0, 0.0, 0.0, 1.6527972246518557E9, 0.0, 2022-05-17 16:20:24.651
107.0, 57554.08794332599, 24975.079295048632, -50979.94816064217, -12499.788403485823, 6757.960529084269, -18536.94987737535, 18181.244216113595, 23135.553078121317, -0.004, 1.018, -0.15, 192.0, 255.0, 224.0, 31.0, 208.0, 251.0, 80.0, 0.0, 0.0, 0.0, 1.6527972246518617E9, 0.0, 2022-05-17 16:20:24.651
108.0, 57561.2852050406, 24932.096890461075, -51018.460216338666, -12544.62600286317, 6751.724392381238, -18583.665023286943, 18154.623288467323, 23092.05658341129, -0.004, 1.018, -0.15, 192.0, 0.0, 0.0, 0.0, 0.0, 0.0, 0.0, 0.0, 0.0, 0.0, 1.6527972246518655E9, 0.0, 2022-05-17 16:20:24.651
109.0, 57514.03361726208, 24867.34388677405, -51069.84687684142, -12601.533544246382, 6696.649694043362, -18648.485082207335, 18102.25315120854, 23029.672864636526, -0.004, 1.018, -0.15, 192.0, 0.0, 0.0, 0.0, 0.0, 0.0, 0.0, 0.0, 0.0, 0.0, 1.6527972246518695E9, 0.0, 2022-05-17 16:20:24.651
110.0, 57477.10853542192, 24867.05331409613, -51062.850780826906, -12592.570494719803, 6668.575903007496, -18637.733893124332, 18107.371700688804, 23040.356998486164, -0.004, 1.018, -0.15, 192.0, 0.0, 0.0, 0.0, 0.0, 0.0, 0.0, 0.0, 0.0, 0.0, 1.6527972246518734E9, 0.0, 2022-05-17 16:20:24.651
111.0, 57499.102651965935, 24927.64889331447, -51013.833405236415, -12534.746531813924, 6705.545688336574, -18570.6339562695, 18169.55425376347, 23104.841781239724, -0.004, 1.018, -0.15, 192.0, 0.0, 0.0, 0.0, 0.0, 0.0, 0.0, 0.0, 0.0, 0.0, 1.6527972246518776E9, 0.0, 2022-05-17 16:20:24.651
112.0, 57551.67395492482, 24968.21730950085, -50990.52053576953, -12509.8019850018, 6752.998441815191, -18544.035380367684, 18207.351053637394, 23133.34025542024, -0.004, 1.018, -0.15, 192.0, 0.0, 0.0, 0.0, 0.0, 0.0, 0.0, 0.0, 0.0, 0.0, 1.6527972246518817E9, 0.0, 2022-05-17 16:20:24.651
113.0, 57568.57187373303, 24934.466175373338, -51027.02093446504, -12550.929194799566, 6728.90326129237, -18593.902122247473, 18176.505646289068, 23089.77670547685, -0.004, 1.018, -0.15, 192.0, 0.0, 0.0, 0.0, 0.0, 0.0, 0.0, 0.0, 0.0, 0.0, 1.6527972246518855E9, 0.0, 2022-05-17 16:20:24.651
114.0, 57532.96554481573, 24877.379820034483, -51075.68068214425, -12612.664712985124, 6672.956844920736, -18651.45786421989, 18129.455224210647, 23038.41239671855, -0.004, 1.018, -0.15, 192.0, 0.0, 0.0, 0.0, 0.0, 0.0, 0.0, 0.0, 0.0, 0.0, 1.6527972246518896E9, 0.0, 2022-05-17 16:20:24.651
115.0, 57504.13179446838, 24880.73258170278, -51074.093708287925, -12597.130250588687, 6652.504998744131, -18638.82912860264, 18139.915840615733, 23054.304487026275, -0.004, 1.018, -0.15, 192.0, 0.0, 0.0, 0.0, 0.0, 0.0, 0.0, 0.0, 0.0, 0.0, 1.6527972246518936E9, 0.0, 2022-05-17 16:20:24.651
116.0, 57525.38830344538, 24933.058015472656, -51028.00441122108, -12534.880642280656, 6678.723594990206, -18574.992546438283, 18188.75440225058, 23104.640615539625, -0.008, 1.02, -0.154, 192.0, 255.0, 192.0, 31.0, 224.0, 251.0, 48.0, 0.0, 0.0, 0.0, 1.6527972246518977E9, 0.0, 2022-05-17 16:20:24.651
117.0, 57571.14232434539, 24964.573975154635, -50989.224134591124, -12507.075072178253, 6719.80610129906, -18540.749673932754, 18223.13138522284, 23129.87573502967, -0.008, 1.02, -0.154, 192.0, 0.0, 0.0, 0.0, 0.0, 0.0, 0.0, 0.0, 0.0, 0.0, 1.6527972246519017E9, 0.0, 2022-05-17 16:20:24.651
118.0, 57581.55823726157, 24930.129936949008, -51025.3445536309, -12550.951546544022, 6718.688514076294, -18581.273386630226, 18196.577512809934, 23090.96134793298, -0.008, 1.02, -0.154, 192.0, 0.0, 0.0, 0.0, 0.0, 0.0, 0.0, 0.0, 0.0, 0.0, 1.652797224651906E9, 0.0, 2022-05-17 16:20:24.651
119.0, 57541.72742864221, 24870.562537975617, -51078.698167645714, -12610.340131561772, 6672.196885609256, -18641.77955887074, 18149.25886979805, 23036.043111806288, -0.008, 1.02, -0.154, 192.0, 0.0, 0.0, 0.0, 0.0, 0.0, 0.0, 0.0, 0.0, 0.0, 1.65279722465191E9, 0.0, 2022-05-17 16:20:24.651
120.0, 57515.01709401812, 24872.44008450986, -51074.093708287925, -12600.326550045795, 6642.781989906071, -18636.079864034637, 18150.823491909923, 23044.26855376584, -0.008, 1.02, -0.154, 192.0, 0.0, 0.0, 0.0, 0.0, 0.0, 0.0, 0.0, 0.0, 0.0, 1.6527972246519144E9, 0.0, 2022-05-17 16:20:24.651
121.0, 57544.4319897213, 24936.254314929763, -51019.19782390569, -12532.377246901662, 6676.086089144479, -18571.215101625337, 18205.272341403048, 23107.523990574362, -0.008, 1.02, -0.154, 192.0, 0.0, 0.0, 0.0, 0.0, 0.0, 0.0, 0.0, 0.0, 0.0, 1.6527972251306608E9, 0.0, 2022-05-17 16:20:25.130
122.0, 57596.712720002266, 24976.17453052694, -50980.88693390929, -12504.392862843617, 6728.433874658808, -18531.473699983802, 18249.12646402436, 23143.286781702853, -0.008, 1.02, -0.154, 192.0, 0.0, 0.0, 0.0, 0.0, 0.0, 0.0, 0.0, 0.0, 0.0, 1.652797225130802E9, 0.0, 2022-05-17 16:20:25.130
123.0, 57601.98773169372, 24941.149346965474, -51018.08023668292, -12552.046782022331, 6725.0140577571465, -18570.879825458505, 18223.332550922936, 23102.807772494292, -0.008, 1.02, -0.154, 192.0, 0.0, 0.0, 0.0, 0.0, 0.0, 0.0, 0.0, 0.0, 0.0, 1.6527972251308088E9, 0.0, 2022-05-17 16:20:25.130
124.0, 57545.37076298842, 24869.288488541664, -51085.11311830439, -12616.26334384243, 6671.9510164202475, -18634.895221578507, 18167.520245018037, 23039.261763007853, -0.008, 1.02, -0.154, 192.0, 0.0, 0.0, 0.0, 0.0, 0.0, 0.0, 0.0, 0.0, 0.0, 1.6527972251308148E9, 0.0, 2022-05-17 16:20:25.130
125.0, 57507.775128814596, 24859.610183192515, -51092.757414908105, -12619.213774110529, 6636.031763080569, -18643.567698427167, 18158.244271069085, 23037.294809495786, -0.008, 1.02, -0.154, 192.0, 0.0, 0.0, 0.0, 0.0, 0.0, 0.0, 0.0, 0.0, 0.0, 1.6527972251308212E9, 0.0, 2022-05-17 16:20:25.130
126.0, 57535.42423670581, 24917.143573420475, -51042.04130673901, -12558.72995361447, 6661.021013381603, -18598.797154283187, 18203.774774524543, 23089.977871176943, -0.006, 1.014, -0.156, 192.0, 255.0, 208.0, 31.0, 176.0, 251.0, 32.0, 0.0, 0.0, 0.0, 1.6527972251308277E9, 0.0, 2022-05-17 16:20:25.130
127.0, 57587.92848443133, 24956.683809361915, -51004.19980337618, -12530.969087000978, 6724.030581001113, -18564.598985266566, 18244.387894199837, 23123.460784370993, -0.006, 1.014, -0.156, 192.0, 0.0, 0.0, 0.0, 0.0, 0.0, 0.0, 0.0, 0.0, 0.0, 1.6527972251308343E9, 0.0, 2022-05-17 16:20:25.130
128.0, 57605.89928697339, 24929.12410844852, -51022.61764080735, -12561.210997249007, 6733.1724444833335, -18592.113982691048, 18226.50649863559, 23092.593025278216, -0.006, 1.014, -0.156, 192.0, 0.0, 0.0, 0.0, 0.0, 0.0, 0.0, 0.0, 0.0, 0.0, 1.6527972251308596E9, 0.0, 2022-05-17 16:20:25.130
129.0, 57563.073344597025, 24869.199081563842, -51075.568923421975, -12614.11757637472, 6677.382490322887, -18653.02248633176, 18179.657242257268, 23040.84873686418, -0.006, 1.014, -0.156, 192.0, 0.0, 0.0, 0.0, 0.0, 0.0, 0.0, 0.0, 0.0, 0.0, 1.6527972251308656E9, 0.0, 2022-05-17 16:20:25.130
130.0, 57511.060835249526, 24852.658790666916, -51101.11696733439, -12623.773529979413, 6635.696486913739, -18665.450056248912, 18166.02267813953, 23035.730187383913, -0.006, 1.014, -0.156, 192.0, 0.0, 0.0, 0.0, 0.0, 0.0, 0.0, 0.0, 0.0, 0.0, 1.6527972251308713E9, 0.0, 2022-05-17 16:20:25.130
131.0, 57542.97912633171, 24924.519649090726, -51040.14140846031, -12553.879625067668, 6676.756641478139, -18590.996395468283, 18229.009894014587, 23106.62992079615, -0.006, 1.014, -0.156, 192.0, 0.0, 0.0, 0.0, 0.0, 0.0, 0.0, 0.0, 0.0, 0.0, 1.6527972251308773E9, 0.0, 2022-05-17 16:20:25.130
132.0, 57601.026606682135, 24966.876204833534, -50991.16873635873, -12518.563868828282, 6724.030581001113, -18551.232642082294, 18267.85722587791, 23142.325656691275, -0.006, 1.014, -0.156, 192.0, 0.0, 0.0, 0.0, 0.0, 0.0, 0.0, 0.0, 0.0, 0.0, 1.6527972251308827E9, 0.0, 2022-05-17 16:20:25.130
133.0, 57602.63593228292, 24918.171753665418, -51032.65357406779, -12570.196398520042, 6717.2356506867, -18604.452145630377, 18228.026417258552, 23090.268443854864, -0.006, 1.014, -0.156, 192.0, 0.0, 0.0, 0.0, 0.0, 0.0, 0.0, 0.0, 0.0, 0.0, 1.6527972251308885E9, 0.0, 2022-05-17 16:20:25.130
134.0, 57556.367821260435, 24854.33517150106, -51095.88665913185, -12635.888175474189, 6664.887865172371, -18663.460750992388, 18175.03043115502, 23034.165565272044, -0.006, 1.014, -0.156, 192.0, 0.0, 0.0, 0.0, 0.0, 0.0, 0.0, 0.0, 0.0, 0.0, 1.6527972251308942E9, 0.0, 2022-05-17 16:20:25.130
135.0, 57524.47188192271, 24857.48676746926, -51104.93911563625, -12628.243878870473, 6633.818940379494, -18657.53753871173, 18171.811779953456, 23040.491108952894, -0.006, 1.014, -0.156, 192.0, 0.0, 0.0, 0.0, 0.0, 0.0, 0.0, 0.0, 0.0, 0.0, 1.6527972251309E9, 0.0, 2022-05-17 16:20:25.130
136.0, 57548.120027556426, 24921.79273626718, -51045.841103296414, -12560.316927470796, 6665.4913622726635, -18590.01291871225, 18223.22079220066, 23101.48901957143, -0.008, 1.012, -0.156, 192.0, 255.0, 192.0, 31.0, 160.0, 251.0, 32.0, 0.0, 0.0, 0.0, 1.6527972251309056E9, 0.0, 2022-05-17 16:20:25.130
137.0, 57599.01494968116, 24962.13763500901, -51000.35530332987, -12526.521089854372, 6718.152072209367, -18546.292906557668, 18265.599699687922, 23141.632752613157, -0.008, 1.012, -0.156, 192.0, 0.0, 0.0, 0.0, 0.0, 0.0, 0.0, 0.0, 0.0, 0.0, 1.652797225130911E9, 0.0, 2022-05-17 16:20:25.130
138.0, 57604.91581021736, 24925.972512480323, -51039.31439391547, -12571.20222702053, 6721.750703066672, -18590.996395468283, 18237.190632485228, 23102.494848071918, -0.008, 1.012, -0.156, 192.0, 0.0, 0.0, 0.0, 0.0, 0.0, 0.0, 0.0, 0.0, 0.0, 1.652797225130917E9, 0.0, 2022-05-17 16:20:25.130
139.0, 57562.87217889693, 24867.567404218604, -51087.57181019447, -12626.701608503057, 6680.757603735638, -18655.905861366497, 18187.659166772268, 23046.727245655926, -0.008, 1.012, -0.156, 192.0, 0.0, 0.0, 0.0, 0.0, 0.0, 0.0, 0.0, 0.0, 0.0, 1.6527972251309228E9, 0.0, 2022-05-17 16:20:25.130
140.0, 57533.25611749365, 24872.082456598575, -51081.91681884728, -12616.486861286981, 6658.025879624592, -18646.20520427289, 18188.73205050612, 23053.7903969038, -0.008, 1.012, -0.156, 192.0, 0.0, 0.0, 0.0, 0.0, 0.0, 0.0, 0.0, 0.0, 0.0, 1.6527972251309288E9, 0.0, 2022-05-17 16:20:25.130
141.0, 57554.557329959556, 24930.755785793757, -51038.24151018161, -12559.467561181495, 6684.713862504228, -18586.2354738993, 18234.240202217126, 23107.032252196343, -0.008, 1.012, -0.156, 192.0, 0.0, 0.0, 0.0, 0.0, 0.0, 0.0, 0.0, 0.0, 0.0, 1.6527972251309345E9, 0.0, 2022-05-17 16:20:25.130
142.0, 57606.145156162405, 24971.860643847067, -50996.354341072365, -12518.653275806104, 6740.3920579423975, -18544.594173979065, 18273.288699780547, 23147.10893000471, -0.008, 1.012, -0.156, 192.0, 0.0, 0.0, 0.0, 0.0, 0.0, 0.0, 0.0, 0.0, 0.0, 1.6527972251309402E9, 0.0, 2022-05-17 16:20:25.130
143.0, 57600.69133051531, 24926.911285747443, -51045.95286201869, -12567.849465352234, 6729.573813626029, -18593.5891978251, 18239.246992975117, 23104.394746350616, -0.008, 1.012, -0.156, 192.0, 0.0, 0.0, 0.0, 0.0, 0.0, 0.0, 0.0, 0.0, 0.0, 1.6527972251309536E9, 0.0, 2022-05-17 16:20:25.130
144.0, 57556.59133870499, 24868.30501178563, -51091.81864164098, -12622.678294501102, 6680.578789779996, -18654.78827414373, 18186.429820827227, 23041.921620598034, -0.008, 1.012, -0.156, 192.0, 0.0, 0.0, 0.0, 0.0, 0.0, 0.0, 0.0, 0.0, 0.0, 1.6527972251309595E9, 0.0, 2022-05-17 16:20:25.130
145.0, 57521.901431310354, 24866.382761762474, -51087.080071816454, -12619.996085166465, 6658.539969747063, -18649.78148338574, 18180.707774246668, 23045.877879366624, -0.008, 1.012, -0.156, 192.0, 0.0, 0.0, 0.0, 0.0, 0.0, 0.0, 0.0, 0.0, 0.0, 1.652797225130965E9, 0.0, 2022-05-17 16:20:25.130
146.0, 57542.26387050914, 24923.40206186796, -51034.933452002224, -12556.315965213296, 6690.882943973893, -18580.088744174092, 18232.586173127434, 23114.25186565541, -0.006, 1.014, -0.148, 192.0, 255.0, 208.0, 31.0, 176.0, 251.0, 96.0, 0.0, 0.0, 0.0, 1.6527972251309707E9, 0.0, 2022-05-17 16:20:25.130
147.0, 57582.094679128495, 24963.009353042766, -50999.84121320739, -12515.9040112381, 6745.532959167119, -18539.274458798704, 18272.37227825788, 23156.139034764652, -0.006, 1.014, -0.148, 192.0, 0.0, 0.0, 0.0, 0.0, 0.0, 0.0, 0.0, 0.0, 0.0, 1.6527972251309764E9, 0.0, 2022-05-17 16:20:25.130
148.0, 57571.63406272341, 24918.68584378789, -51045.61758585186, -12573.906788099623, 6740.235595731211, -18593.63390131401, 18234.284905706038, 23100.505542815394, -0.006, 1.014, -0.148, 192.0, 0.0, 0.0, 0.0, 0.0, 0.0, 0.0, 0.0, 0.0, 0.0, 1.652797225130982E9, 0.0, 2022-05-17 16:20:25.130
149.0, 57526.59529764597, 24857.710284913814, -51109.09654010493, -12638.100998175263, 6680.064699657524, -18661.73966666933, 18173.912843932252, 23031.818632104234, -0.006, 1.014, -0.148, 192.0, 0.0, 0.0, 0.0, 0.0, 0.0, 0.0, 0.0, 0.0, 0.0, 1.6527972251309884E9, 0.0, 2022-05-17 16:20:25.130
150.0, 57506.38932065837, 24863.20881404982, -51098.568868466486, -12625.472262558016, 6663.122077360401, -18646.942811839916, 18177.064439900452, 23043.26272526535, -0.006, 1.014, -0.148, 192.0, 0.0, 0.0, 0.0, 0.0, 0.0, 0.0, 0.0, 0.0, 0.0, 1.6527972251309984E9, 0.0, 2022-05-17 16:20:25.130
151.0, 57529.54572791407, 24925.92780899141, -51034.53112060203, -12560.24987223743, 6697.744929521672, -18575.171360393924, 18227.713492836177, 23105.065298684276, -0.006, 1.014, -0.148, 192.0, 0.0, 0.0, 0.0, 0.0, 0.0, 0.0, 0.0, 0.0, 0.0, 1.6527972251310048E9, 0.0, 2022-05-17 16:20:25.131
152.0, 57589.33664433201, 24978.633222417026, -50986.09489036738, -12510.0031507019, 6752.976090070736, -18530.53492671668, 18272.461685235703, 23150.99813353993, -0.006, 1.014, -0.148, 192.0, 0.0, 0.0, 0.0, 0.0, 0.0, 0.0, 0.0, 0.0, 0.0, 1.6527972251310103E9, 0.0, 2022-05-17 16:20:25.131
153.0, 57593.203496122784, 24942.579858610614, -51021.298887884484, -12550.884491310657, 6756.328851739032, -18580.468723829832, 18242.93503081024, 23112.687243543536, -0.006, 1.014, -0.148, 192.0, 0.0, 0.0, 0.0, 0.0, 0.0, 0.0, 0.0, 0.0, 0.0, 1.6527972251310165E9, 0.0, 2022-05-17 16:20:25.131
154.0, 57538.86640535193, 24869.40024726394, -51092.80211839701, -12622.745349734469, 6700.941228978781, -18663.75132367031, 18178.539655034503, 23044.581478188215, -0.006, 1.014, -0.148, 192.0, 0.0, 0.0, 0.0, 0.0, 0.0, 0.0, 0.0, 0.0, 0.0, 1.652797225131023E9, 0.0, 2022-05-17 16:20:25.131
155.0, 57500.779032800085, 24860.12427331499, -51113.72335120718, -12629.763797493435, 6666.608949495429, -18666.16531207148, 18162.69226821569, 23040.871088608634, -0.006, 1.014, -0.148, 192.0, 0.0, 0.0, 0.0, 0.0, 0.0, 0.0, 0.0, 0.0, 0.0, 1.6527972251310294E9, 0.0, 2022-05-17 16:20:25.131
156.0, 57528.67400988031, 24922.999730467767, -51043.09183872841, -12558.282918725363, 6697.029673699102, -18592.672776302432, 18213.98952174062, 23102.09251667172, -0.008, 1.018, -0.152, 192.0, 255.0, 192.0, 31.0, 208.0, 251.0, 64.0, 0.0, 0.0, 0.0, 1.652797225131036E9, 0.0, 2022-05-17 16:20:25.131
157.0, 57580.842981439, 24970.65364964648, -50997.15900387276, -12514.942886226521, 6749.846845846992, -18544.10243560105, 18257.284850750548, 23146.0136945264, -0.008, 1.018, -0.152, 192.0, 0.0, 0.0, 0.0, 0.0, 0.0, 0.0, 0.0, 0.0, 0.0, 1.6527972251310446E9, 0.0, 2022-05-17 16:20:25.131
158.0, 57583.03345239562, 24931.001654982767, -51033.07825721244, -12561.501569926926, 6757.1782180283335, -18583.173284908928, 18231.46858590467, 23112.955464477, -0.008, 1.018, -0.152, 192.0, 0.0, 0.0, 0.0, 0.0, 0.0, 0.0, 0.0, 0.0, 0.0, 1.6527972251310513E9, 0.0, 2022-05-17 16:20:25.131
159.0, 57528.91987906932, 24859.811348892614, -51097.026598099066, -12630.769625993924, 6710.530127350107, -18646.518128695265, 18176.013907911052, 23052.717513169948, -0.008, 1.018, -0.152, 192.0, 0.0, 0.0, 0.0, 0.0, 0.0, 0.0, 0.0, 0.0, 0.0, 1.6527972251310592E9, 0.0, 2022-05-17 16:20:25.131
160.0, 57506.25521019164, 24866.62863095148, -51091.639827685336, -12624.466434057527, 6679.327092090499, -18638.82912860264, 18171.163579364253, 23056.450254493982, -0.008, 1.018, -0.152, 192.0, 0.0, 0.0, 0.0, 0.0, 0.0, 0.0, 0.0, 0.0, 0.0, 1.652797225131082E9, 0.0, 2022-05-17 16:20:25.131
161.0, 57517.40873067483, 24921.36805312253, -51048.34449867541, -12565.39077346215, 6713.2346884292, -18576.110133661048, 18218.41516714277, 23119.057490713298, -0.008, 1.018, -0.152, 192.0, 0.0, 0.0, 0.0, 0.0, 0.0, 0.0, 0.0, 0.0, 0.0, 1.6527972251310885E9, 0.0, 2022-05-17 16:20:25.131
162.0, 57578.47369652674, 24968.552585667683, -51002.32225684193, -12521.581354329748, 6772.399756002397, -18534.737054674275, 18260.548205441024, 23153.546232407836, -0.008, 1.018, -0.152, 192.0, 0.0, 0.0, 0.0, 0.0, 0.0, 0.0, 0.0, 0.0, 0.0, 1.6527972251310947E9, 0.0, 2022-05-17 16:20:25.131
163.0, 57578.56310350455, 24930.062881715643, -51034.598175835396, -12563.96026181701, 6773.427936247342, -18582.748601764277, 18228.920487036765, 23108.507467330393, -0.008, 1.018, -0.152, 192.0, 0.0, 0.0, 0.0, 0.0, 0.0, 0.0, 0.0, 0.0, 0.0, 1.652797225131101E9, 0.0, 2022-05-17 16:20:25.131
164.0, 57521.92378305481, 24863.25351753873, -51109.63298197186, -12632.22248938352, 6719.694342576783, -18649.40150373, 18168.12374211833, 23046.079045066723, -0.008, 1.018, -0.152, 192.0, 0.0, 0.0, 0.0, 0.0, 0.0, 0.0, 0.0, 0.0, 0.0, 1.6527972251311069E9, 0.0, 2022-05-17 16:20:25.131
165.0, 57489.02201521659, 24861.286564026665, -51112.762226195606, -12628.623858526214, 6685.496173560164, -18651.055532819693, 18155.472654756624, 23042.23454502041, -0.008, 1.018, -0.152, 192.0, 0.0, 0.0, 0.0, 0.0, 0.0, 0.0, 0.0, 0.0, 0.0, 1.6527972251311133E9, 0.0, 2022-05-17 16:20:25.131
166.0, 57510.74791082715, 24923.580875823605, -51055.072373756455, -12561.032183293366, 6720.2531361881665, -18585.229645398813, 18205.674672803245, 23103.72419401696, -0.012, 1.02, -0.156, 192.0, 255.0, 160.0, 31.0, 224.0, 251.0, 32.0, 0.0, 0.0, 0.0, 1.6527972251311195E9, 0.0, 2022-05-17 16:20:25.131
167.0, 57573.24338832419, 24983.23768177482, -50986.25135257857, -12506.069243677764, 6781.116936339968, -18533.41830175141, 18255.31789723848, 23151.64633412914, -0.012, 1.02, -0.156, 192.0, 0.0, 0.0, 0.0, 0.0, 0.0, 0.0, 0.0, 0.0, 0.0, 1.652797225131126E9, 0.0, 2022-05-17 16:20:25.131
168.0, 57588.39787106489, 24960.930640808423, -51012.42524533573, -12540.468578394482, 6781.541619484618, -18570.34338359158, 18239.51521390858, 23121.42677562556, -0.012, 1.02, -0.156, 192.0, 0.0, 0.0, 0.0, 0.0, 0.0, 0.0, 0.0, 0.0, 0.0, 1.652797225131133E9, 0.0, 2022-05-17 16:20:25.131
169.0, 57535.737161128185, 24886.432276538882, -51075.94890307771, -12611.234201339985, 6733.328906694521, -18644.573526927656, 18182.294748102995, 23055.556184715773, -0.012, 1.02, -0.156, 192.0, 0.0, 0.0, 0.0, 0.0, 0.0, 0.0, 0.0, 0.0, 0.0, 1.6527972251311393E9, 0.0, 2022-05-17 16:20:25.131
170.0, 57494.29702690805, 24876.485750256274, -51085.40369098231, -12606.294465815363, 6702.528202835108, -18640.48315769233, 18174.963375921652, 23057.411379505564, -0.012, 1.02, -0.156, 192.0, 0.0, 0.0, 0.0, 0.0, 0.0, 0.0, 0.0, 0.0, 0.0, 1.6527972251311457E9, 0.0, 2022-05-17 16:20:25.131
171.0, 57508.04334974806, 24932.231000927808, -51037.05686772548, -12551.15271224412, 6724.499967634674, -18579.842874985086, 18218.593981098413, 23111.27908364285, -0.012, 1.02, -0.156, 192.0, 0.0, 0.0, 0.0, 0.0, 0.0, 0.0, 0.0, 0.0, 0.0, 1.6527972251311584E9, 0.0, 2022-05-17 16:20:25.131
172.0, 57554.02088809263, 24976.42039971595, -51003.12691964232, -12515.836956004734, 6779.462907250275, -18534.692351185364, 18264.638574676344, 23154.14972950813, -0.012, 1.02, -0.156, 192.0, 0.0, 0.0, 0.0, 0.0, 0.0, 0.0, 0.0, 0.0, 0.0, 1.652797225131164E9, 0.0, 2022-05-17 16:20:25.131
173.0, 57552.85859738095, 24936.343721907586, -51034.08408571292, -12563.334412972263, 6776.1995525597995, -18574.634918526997, 18237.86118481889, 23117.626979068158, -0.012, 1.02, -0.156, 192.0, 0.0, 0.0, 0.0, 0.0, 0.0, 0.0, 0.0, 0.0, 0.0, 1.6527972251311703E9, 0.0, 2022-05-17 16:20:25.131
174.0, 57505.49525088016, 24872.68595369887, -51089.71757766218, -12624.175861379608, 6726.913956035848, -18635.58812565662, 18184.88755045981, 23059.914774884557, -0.012, 1.02, -0.156, 192.0, 0.0, 0.0, 0.0, 0.0, 0.0, 0.0, 0.0, 0.0, 0.0, 1.6527972251311772E9, 0.0, 2022-05-17 16:20:25.131
175.0, 57465.41857307179, 24870.02609610869, -51093.942057364235, -12619.88432644419, 6697.387301610387, -18632.704750621888, 18180.417201568747, 23055.556184715773, -0.012, 1.02, -0.156, 192.0, 0.0, 0.0, 0.0, 0.0, 0.0, 0.0, 0.0, 0.0, 0.0, 1.6527972251311862E9, 0.0, 2022-05-17 16:20:25.131
176.0, 57486.98800647116, 24928.31944564813, -51031.75950428957, -12558.707601870014, 6725.058761246057, -18574.992546438283, 18227.042940502517, 23106.875789985155, -0.016, 1.02, -0.15, 192.0, 255.0, 128.0, 31.0, 224.0, 251.0, 80.0, 0.0, 0.0, 0.0, 1.6527972251311934E9, 0.0, 2022-05-17 16:20:25.131
177.0, 57535.08896053898, 24972.79941711419, -50990.72170146963, -12520.307304895796, 6776.423070004353, -18526.86924062601, 18271.6123189464, 23147.53361314936, -0.016, 1.02, -0.15, 192.0, 0.0, 0.0, 0.0, 0.0, 0.0, 0.0, 0.0, 0.0, 0.0, 1.6527972251312013E9, 0.0, 2022-05-17 16:20:25.131
178.0, 57542.64385016487, 24947.988980768798, -51024.42813210823, -12555.421895435084, 6790.77288994466, -18553.490168272278, 18257.441312961735, 23120.108022702698, -0.016, 1.02, -0.15, 192.0, 0.0, 0.0, 0.0, 0.0, 0.0, 0.0, 0.0, 0.0, 0.0, 1.6527972251312075E9, 0.0, 2022-05-17 16:20:25.131
179.0, 57496.53220135358, 24882.341907303562, -51084.241400270635, -12623.080625901297, 6748.304575479577, -18617.30439869218, 18205.249989658594, 23063.60281271968, -0.016, 1.02, -0.15, 192.0, 0.0, 0.0, 0.0, 0.0, 0.0, 0.0, 0.0, 0.0, 0.0, 1.652797225131214E9, 0.0, 2022-05-17 16:20:25.131
180.0, 57452.45456128771, 24866.74038967376, -51085.001359582115, -12629.07089341532, 6714.218165185233, -18615.672721346942, 18194.476448831138, 23062.105245841176, -0.016, 1.02, -0.15, 192.0, 0.0, 0.0, 0.0, 0.0, 0.0, 0.0, 0.0, 0.0, 0.0, 1.65279722513122E9, 0.0, 2022-05-17 16:20:25.131
181.0, 57465.2621108606, 24919.758727521745, -51046.265786441065, -12567.96122407451, 6733.708886350261, -18562.833197454598, 18237.481205163145, 23113.022519710365, -0.016, 1.02, -0.15, 192.0, 0.0, 0.0, 0.0, 0.0, 0.0, 0.0, 0.0, 0.0, 0.0, 1.6527972251312265E9, 0.0, 2022-05-17 16:20:25.131
182.0, 57512.446643405754, 24961.60119314208, -51008.06665516695, -12528.24217417743, 6778.144154327411, -18534.37942676299, 18272.506388724614, 23147.600668382725, -0.016, 1.02, -0.15, 192.0, 0.0, 0.0, 0.0, 0.0, 0.0, 0.0, 0.0, 0.0, 0.0, 1.6527972251312337E9, 0.0, 2022-05-17 16:20:25.131
183.0, 57530.283335481094, 24938.757710308757, -51037.01216423657, -12561.792142604845, 6784.112070096979, -18568.421133568423, 18253.75327512661, 23115.972949978466, -0.016, 1.02, -0.15, 192.0, 0.0, 0.0, 0.0, 0.0, 0.0, 0.0, 0.0, 0.0, 0.0, 1.6527972251312406E9, 0.0, 2022-05-17 16:20:25.131
184.0, 57480.2154279012, 24863.946421616845, -51119.7136187212, -12638.279812130906, 6721.705999577761, -18645.557003683687, 18185.625158026836, 23041.51928919784, -0.016, 1.02, -0.15, 192.0, 0.0, 0.0, 0.0, 0.0, 0.0, 0.0, 0.0, 0.0, 0.0, 1.652797225131249E9, 0.0, 2022-05-17 16:20:25.131
185.0, 57449.23591008615, 24853.55286044513, -51116.1149878639, -12638.860957486744, 6693.073414930513, -18648.26156476278, 18171.83413169791, 23038.971190329932, -0.016, 1.02, -0.15, 192.0, 0.0, 0.0, 0.0, 0.0, 0.0, 0.0, 0.0, 0.0, 0.0, 1.6527972251312556E9, 0.0, 2022-05-17 16:20:25.131
186.0, 57470.55947429651, 24908.113468660533, -51044.54470211801, -12577.77363989039, 6721.840110044493, -18580.133447663004, 18224.383082912336, 23103.411269594584, -0.01, 1.01, -0.14200000000000002, 192.0, 255.0, 176.0, 31.0, 144.0, 251.0, 144.0, 0.0, 0.0, 0.0, 1.6527972251312673E9, 0.0, 2022-05-17 16:20:25.131
187.0, 57518.36985568641, 24952.861661060055, -51007.820785977936, -12545.408313919106, 6769.941064112314, -18532.01014185073, 18267.03021133306, 23146.10310150422, -0.01, 1.01, -0.14200000000000002, 192.0, 0.0, 0.0, 0.0, 0.0, 0.0, 0.0, 0.0, 0.0, 0.0, 1.6527972251312737E9, 0.0, 2022-05-17 16:20:25.131
188.0, 57533.59139366048, 24926.955989236354, -51031.8936147563, -12573.660918910613, 6790.862296922482, -18557.401723551957, 18249.349981468917, 23116.24117091193, -0.01, 1.01, -0.14200000000000002, 192.0, 0.0, 0.0, 0.0, 0.0, 0.0, 0.0, 0.0, 0.0, 0.0, 1.652797225131281E9, 0.0, 2022-05-17 16:20:25.131
189.0, 57491.279541406584, 24868.52852923018, -51092.265676530085, -12624.377027079705, 6750.4279912028305, -18621.998265027796, 18196.823381998944, 23054.8409288932, -0.01, 1.01, -0.14200000000000002, 192.0, 0.0, 0.0, 0.0, 0.0, 0.0, 0.0, 0.0, 0.0, 0.0, 1.652797225131287E9, 0.0, 2022-05-17 16:20:25.131
190.0, 57460.36707882489, 24865.77926466218, -51103.32979003547, -12624.242916612973, 6713.771130296127, -18632.704750621888, 18187.100373160883, 23050.057655579767, -0.01, 1.01, -0.14200000000000002, 192.0, 0.0, 0.0, 0.0, 0.0, 0.0, 0.0, 0.0, 0.0, 0.0, 1.652797225131294E9, 0.0, 2022-05-17 16:20:25.131
191.0, 57475.52156156559, 24913.88021873, -51062.068469770966, -12571.112820042708, 6730.736104337705, -18572.310337103645, 18223.623123600857, 23102.494848071918, -0.01, 1.01, -0.14200000000000002, 192.0, 0.0, 0.0, 0.0, 0.0, 0.0, 0.0, 0.0, 0.0, 0.0, 1.6527972251313004E9, 0.0, 2022-05-17 16:20:25.131
192.0, 57526.9752773017, 24954.51569014975, -51019.60015530588, -12534.210089946997, 6776.288959537621, -18532.43482499538, 18261.732847897154, 23141.364531679694, -0.01, 1.01, -0.14200000000000002, 192.0, 0.0, 0.0, 0.0, 0.0, 0.0, 0.0, 0.0, 0.0, 0.0, 1.6527972251313107E9, 0.0, 2022-05-17 16:20:25.131
193.0, 57537.25707975115, 24928.766480537237, -51023.981097219126, -12563.15559901662, 6787.6436457209165, -18572.355040592556, 18244.03026628855, 23111.055566198298, -0.01, 1.01, -0.14200000000000002, 192.0, 0.0, 0.0, 0.0, 0.0, 0.0, 0.0, 0.0, 0.0, 0.0, 1.652797225131317E9, 0.0, 2022-05-17 16:20:25.131
194.0, 57495.056986219526, 24864.68402918387, -51087.97414159467, -12627.394512581172, 6750.807970858571, -18641.220765259357, 18184.909902204265, 23046.526079955827, -0.01, 1.01, -0.14200000000000002, 192.0, 0.0, 0.0, 0.0, 0.0, 0.0, 0.0, 0.0, 0.0, 0.0, 1.6527972251313229E9, 0.0, 2022-05-17 16:20:25.131
195.0, 57457.88603519035, 24855.653924423925, -51104.156804580314, -12629.272059115418, 6708.85374651596, -18641.153710025992, 18170.090695630395, 23044.872050866135, -0.014, 1.012, -0.14, 192.0, 255.0, 144.0, 31.0, 160.0, 251.0, 160.0, 0.0, 0.0, 0.0, 1.6527972251313288E9, 0.0, 2022-05-17 16:20:25.131
196.0, 57471.23002663017, 24916.137744919986, -51071.098574530915, -12563.848503094734, 6726.221051957733, -18574.120828404528, 18217.051710730997, 23106.227589395952, -0.014, 1.012, -0.14, 192.0, 0.0, 0.0, 0.0, 0.0, 0.0, 0.0, 0.0, 0.0, 0.0, 1.6527972251313348E9, 0.0, 2022-05-17 16:20:25.131
197.0, 57513.58658237298, 24964.238698987807, -50998.723625984625, -12517.021598460866, 6779.239389805722, -18528.187993548872, 18261.822254874976, 23146.885412560157, -0.014, 1.012, -0.14, 192.0, 0.0, 0.0, 0.0, 0.0, 0.0, 0.0, 0.0, 0.0, 0.0, 1.6527972251313424E9, 0.0, 2022-05-17 16:20:25.131
198.0, 57520.67208536531, 24936.880163774513, -51017.744960516095, -12555.488950668449, 6781.876895651448, -18558.92164217492, 18242.219774987672, 23116.598798823215, -0.014, 1.012, -0.14, 192.0, 0.0, 0.0, 0.0, 0.0, 0.0, 0.0, 0.0, 0.0, 0.0, 1.6527972251313488E9, 0.0, 2022-05-17 16:20:25.131
199.0, 57473.88988422035, 24871.546014731648, -51090.29872301802, -12626.589849780781, 6732.077209005023, -18625.395730185002, 18177.556178278468, 23051.219946291443, -0.014, 1.012, -0.14, 192.0, 0.0, 0.0, 0.0, 0.0, 0.0, 0.0, 0.0, 0.0, 0.0, 1.6527972251313565E9, 0.0, 2022-05-17 16:20:25.131
200.0, 57434.08142734545, 24862.96294486081, -51101.720464434686, -12627.707437003546, 6704.5845633249955, -18633.844689589107, 18164.391000794294, 23044.492071210396, -0.014, 1.012, -0.14, 192.0, 0.0, 0.0, 0.0, 0.0, 0.0, 0.0, 0.0, 0.0, 0.0, 1.652797225131369E9, 0.0, 2022-05-17 16:20:25.131
201.0, 57456.92491017877, 24923.290303145684, -51052.971309777655, -12555.734819857458, 6733.641831116895, -18568.5328922907, 18219.488050876625, 23110.27325514236, -0.014, 1.012, -0.14, 192.0, 0.0, 0.0, 0.0, 0.0, 0.0, 0.0, 0.0, 0.0, 0.0, 1.6527972251313753E9, 0.0, 2022-05-17 16:20:25.131
202.0, 57503.08126247898, 24962.785835598213, -51023.31054488546, -12519.167365928575, 6777.808878160582, -18526.444557481358, 18258.60360367341, 23147.265392215897, -0.014, 1.012, -0.14, 192.0, 0.0, 0.0, 0.0, 0.0, 0.0, 0.0, 0.0, 0.0, 0.0, 1.6527972251313825E9, 0.0, 2022-05-17 16:20:25.131
203.0, 57523.66721912232, 24937.751881808268, -51029.32316414394, -12551.599747133227, 6786.660168964883, -18554.540700261678, 18239.604620886403, 23116.86701975668, -0.014, 1.012, -0.14, 192.0, 0.0, 0.0, 0.0, 0.0, 0.0, 0.0, 0.0, 0.0, 0.0, 1.6527972251313894E9, 0.0, 2022-05-17 16:20:25.131
204.0, 57479.99191045665, 24868.886157141467, -51089.62817068436, -12617.716207232024, 6739.900319564381, -18625.753358096285, 18179.03139341252, 23054.148024815087, -0.014, 1.012, -0.14, 192.0, 0.0, 0.0, 0.0, 0.0, 0.0, 0.0, 0.0, 0.0, 0.0, 1.6527972251313968E9, 0.0, 2022-05-17 16:20:25.131
205.0, 57425.11837781887, 24840.96882831679, -51118.52897626507, -12640.760855765446, 6699.42131035582, -18645.288782750224, 18155.003268123062, 23036.065463550745, -0.01, 1.01, -0.14400000000000002, 192.0, 255.0, 176.0, 31.0, 144.0, 251.0, 128.0, 0.0, 0.0, 0.0, 1.6527972251314034E9, 0.0, 2022-05-17 16:20:25.131
206.0, 57427.93469762024, 24890.0756108851, -51087.862382872394, -12586.401413250138, 6710.463072116741, -18592.650424557974, 18189.827285984433, 23080.746600716902, -0.01, 1.01, -0.14400000000000002, 192.0, 0.0, 0.0, 0.0, 0.0, 0.0, 0.0, 0.0, 0.0, 0.0, 1.6527972251314108E9, 0.0, 2022-05-17 16:20:25.131
207.0, 57493.782936785574, 24955.163890738953, -51022.32706812943, -12525.023522975865, 6771.058651335079, -18528.925601115894, 18243.694990121723, 23135.418967654583, -0.01, 1.01, -0.14400000000000002, 192.0, 0.0, 0.0, 0.0, 0.0, 0.0, 0.0, 0.0, 0.0, 0.0, 1.6527972251314182E9, 0.0, 2022-05-17 16:20:25.131
208.0, 57518.548669642056, 24940.45644288736, -51017.38733260481, -12547.53172964236, 6797.634875492439, -18548.61748798102, 18238.03999877453, 23119.012787224387, -0.01, 1.01, -0.14400000000000002, 192.0, 0.0, 0.0, 0.0, 0.0, 0.0, 0.0, 0.0, 0.0, 0.0, 1.6527972251314251E9, 0.0, 2022-05-17 16:20:25.131
209.0, 57482.048270946536, 24879.190311335366, -51081.46978395817, -12613.134099618686, 6750.092715036001, -18621.64063711651, 18180.372498079836, 23054.684466682014, -0.01, 1.01, -0.14400000000000002, 192.0, 0.0, 0.0, 0.0, 0.0, 0.0, 0.0, 0.0, 0.0, 0.0, 1.652797225131432E9, 0.0, 2022-05-17 16:20:25.131
210.0, 57439.13292159235, 24867.72386642979, -51095.86430738739, -12618.476166543505, 6714.598144840974, -18632.458881432878, 18166.31325081745, 23047.80012938978, -0.01, 1.01, -0.14400000000000002, 192.0, 0.0, 0.0, 0.0, 0.0, 0.0, 0.0, 0.0, 0.0, 0.0, 1.6527972251314492E9, 0.0, 2022-05-17 16:20:25.131
211.0, 57434.68492444574, 24912.226189640307, -51064.57186514996, -12566.642471151647, 6730.043200259591, -18572.44444757038, 18204.35591988038, 23101.734888760435, -0.01, 1.01, -0.14400000000000002, 192.0, 0.0, 0.0, 0.0, 0.0, 0.0, 0.0, 0.0, 0.0, 0.0, 1.6527972251314557E9, 0.0, 2022-05-17 16:20:25.131
212.0, 57488.30675939402, 24960.21538498585, -51019.26487913905, -12523.57065958627, 6779.597017717007, -18527.24922028175, 18246.42190294527, 23145.276086959373, -0.01, 1.01, -0.14400000000000002, 192.0, 0.0, 0.0, 0.0, 0.0, 0.0, 0.0, 0.0, 0.0, 0.0, 1.6527972251314657E9, 0.0, 2022-05-17 16:20:25.131
213.0, 57507.015169503116, 24932.40981488345, -51037.61566133686, -12559.825189092779, 6784.380291030442, -18562.877900943506, 18222.818460800467, 23113.33544413274, -0.01, 1.01, -0.14400000000000002, 192.0, 0.0, 0.0, 0.0, 0.0, 0.0, 0.0, 0.0, 0.0, 0.0, 1.6527972251314735E9, 0.0, 2022-05-17 16:20:25.131
214.0, 57467.363174839404, 24868.886157141467, -51099.68645568925, -12624.220564868518, 6740.526168409129, -18629.799023842697, 18167.676707229224, 23050.057655579767, -0.01, 1.01, -0.14400000000000002, 192.0, 0.0, 0.0, 0.0, 0.0, 0.0, 0.0, 0.0, 0.0, 0.0, 1.6527972251315036E9, 0.0, 2022-05-17 16:20:25.131
215.0, 57433.053247100506, 24861.554784960128, -51110.39294128334, -12627.21569862553, 6702.2823336461, -18636.817471601662, 18152.231651810605, 23041.765158386846, -0.018000000000000002, 1.016, -0.14400000000000002, 192.0, 255.0, 112.0, 31.0, 192.0, 251.0, 128.0, 0.0, 0.0, 0.0, 1.652797225131528E9, 0.0, 2022-05-17 16:20:25.131
216.0, 57450.33114556446, 24923.737338034793, -51046.422248652256, -12561.255700737918, 6725.058761246057, -18572.131523148004, 18202.27720764604, 23106.361699862686, -0.018000000000000002, 1.016, -0.14400000000000002, 192.0, 0.0, 0.0, 0.0, 0.0, 0.0, 0.0, 0.0, 0.0, 0.0, 1.6527972251315536E9, 0.0, 2022-05-17 16:20:25.131
217.0, 57490.83250651747, 24968.194957756397, -51014.52630931453, -12525.291743909329, 6774.232599047733, -18525.058749325126, 18246.176033756263, 23149.746435850437, -0.018000000000000002, 1.016, -0.14400000000000002, 192.0, 0.0, 0.0, 0.0, 0.0, 0.0, 0.0, 0.0, 0.0, 0.0, 1.6527972251315775E9, 0.0, 2022-05-17 16:20:25.131
218.0, 57500.04142523306, 24942.401044654973, -51046.48930388562, -12559.467561181495, 6788.537715499129, -18553.75838920574, 18231.17801322675, 23118.96808373548, -0.018000000000000002, 1.016, -0.14400000000000002, 192.0, 0.0, 0.0, 0.0, 0.0, 0.0, 0.0, 0.0, 0.0, 0.0, 1.652797225131604E9, 0.0, 2022-05-17 16:20:25.131
219.0, 57454.62268049988, 24867.05331409613, -51105.18498482525, -12639.889137731689, 6742.023735287636, -18624.345198195602, 18168.011983396053, 23049.431806735018, -0.018000000000000002, 1.016, -0.14400000000000002, 192.0, 0.0, 0.0, 0.0, 0.0, 0.0, 0.0, 0.0, 0.0, 0.0, 1.6527972251316226E9, 0.0, 2022-05-17 16:20:25.131
220.0, 57424.291363274024, 24851.04946506613, -51116.383208797364, -12644.895928489677, 6705.724502292216, -18634.202317500392, 18143.626230195314, 23036.959533328954, -0.018000000000000002, 1.016, -0.14400000000000002, 192.0, 0.0, 0.0, 0.0, 0.0, 0.0, 0.0, 0.0, 0.0, 0.0, 1.6527972251316452E9, 0.0, 2022-05-17 16:20:25.131
221.0, 57432.4050465113, 24898.658680755936, -51073.64667339882, -12586.736689416968, 6719.716694321239, -18588.15772392246, 18180.417201568747, 23084.412286807572, -0.018000000000000002, 1.016, -0.14400000000000002, 192.0, 0.0, 0.0, 0.0, 0.0, 0.0, 0.0, 0.0, 0.0, 0.0, 1.6527972251316683E9, 0.0, 2022-05-17 16:20:25.131
222.0, 57476.0132999436, 24948.145442979985, -51035.40283863579, -12544.000154018422, 6761.737973897216, -18541.531984988687, 18225.590077112924, 23127.551153606317, -0.018000000000000002, 1.016, -0.14400000000000002, 192.0, 0.0, 0.0, 0.0, 0.0, 0.0, 0.0, 0.0, 0.0, 0.0, 1.6527972251316824E9, 0.0, 2022-05-17 16:20:25.131
223.0, 57508.66919859281, 24931.82866952761, -51032.65357406779, -12562.373287960683, 6780.044052606113, -18560.799188709163, 18218.303408420492, 23104.77472600636, -0.018000000000000002, 1.016, -0.14400000000000002, 192.0, 0.0, 0.0, 0.0, 0.0, 0.0, 0.0, 0.0, 0.0, 0.0, 1.6527972251317008E9, 0.0, 2022-05-17 16:20:25.131
224.0, 57473.42049758679, 24868.640287952458, -51082.31915024747, -12622.343018334273, 6736.413447429353, -18629.888430820516, 18164.234538583107, 23044.38031248812, -0.018000000000000002, 1.016, -0.14400000000000002, 192.0, 0.0, 0.0, 0.0, 0.0, 0.0, 0.0, 0.0, 0.0, 0.0, 1.6527972251317298E9, 0.0, 2022-05-17 16:20:25.131
225.0, 57424.13490106284, 24849.753063887725, -51107.643676715335, -12633.898870217667, 6698.616647555429, -18643.03125656024, 18146.710770930145, 23036.154870528564, -0.012, 1.016, -0.14400000000000002, 192.0, 255.0, 160.0, 31.0, 192.0, 251.0, 128.0, 0.0, 0.0, 0.0, 1.6527972251317456E9, 0.0, 2022-05-17 16:20:25.131
226.0, 57427.308848775494, 24899.843323212066, -51071.59031290893, -12582.735727159468, 6717.503871620163, -18580.424020340924, 18188.150905150284, 23091.676603755546, -0.012, 1.016, -0.14400000000000002, 192.0, 0.0, 0.0, 0.0, 0.0, 0.0, 0.0, 0.0, 0.0, 0.0, 1.6527972251317644E9, 0.0, 2022-05-17 16:20:25.131
227.0, 57482.78587851356, 24953.0404750157, -51022.46117859616, -12536.065284736787, 6774.6125787034725, -18521.638932423466, 18235.491899906625, 23140.559868879303, -0.012, 1.016, -0.14400000000000002, 192.0, 0.0, 0.0, 0.0, 0.0, 0.0, 0.0, 0.0, 0.0, 0.0, 1.6527972251317873E9, 0.0, 2022-05-17 16:20:25.131
228.0, 57499.66144557732, 24926.0842712026, -51042.51069337258, -12570.911654342612, 6783.173296829856, -18550.29386881517, 18216.358806652883, 23108.1051359302, -0.012, 1.016, -0.14400000000000002, 192.0, 0.0, 0.0, 0.0, 0.0, 0.0, 0.0, 0.0, 0.0, 0.0, 1.6527972251318002E9, 0.0, 2022-05-17 16:20:25.131
229.0, 57455.360288066906, 24862.694723927347, -51097.987723110644, -12634.189442895586, 6738.514511408152, -18622.288837705713, 18158.423085024726, 23039.529983941316, -0.012, 1.016, -0.14400000000000002, 192.0, 0.0, 0.0, 0.0, 0.0, 0.0, 0.0, 0.0, 0.0, 0.0, 1.6527972251318128E9, 0.0, 2022-05-17 16:20:25.131
230.0, 57397.178697249736, 24832.922200312878, -51137.48325556317, -12658.709306563058, 6682.9257229478035, -18660.21974804637, 18119.26282873903, 23008.41635565953, -0.012, 1.016, -0.14400000000000002, 192.0, 0.0, 0.0, 0.0, 0.0, 0.0, 0.0, 0.0, 0.0, 0.0, 1.6527972251318333E9, 0.0, 2022-05-17 16:20:25.131
231.0, 57425.69952317471, 24905.252445370254, -51069.44454544122, -12581.77460214789, 6712.1841564398, -18593.075107702625, 18169.196625852182, 23071.80590293478, -0.012, 1.016, -0.14400000000000002, 192.0, 0.0, 0.0, 0.0, 0.0, 0.0, 0.0, 0.0, 0.0, 0.0, 1.6527972251318495E9, 0.0, 2022-05-17 16:20:25.131
232.0, 57484.350500625435, 24963.814015843156, -51019.2425273946, -12532.332543412751, 6767.840000133515, -18536.212269808326, 18220.158603210282, 23122.298493659317, -0.012, 1.016, -0.14400000000000002, 192.0, 0.0, 0.0, 0.0, 0.0, 0.0, 0.0, 0.0, 0.0, 0.0, 1.652797225131864E9, 0.0, 2022-05-17 16:20:25.131
233.0, 57502.880096778885, 24945.753806323268, -51032.787684534516, -12566.284843240363, 6780.96047412878, -18559.614546253033, 18204.244161158105, 23096.99631893591, -0.012, 1.016, -0.14400000000000002, 192.0, 0.0, 0.0, 0.0, 0.0, 0.0, 0.0, 0.0, 0.0, 0.0, 1.6527972251318767E9, 0.0, 2022-05-17 16:20:25.131
234.0, 57464.34568933793, 24883.30303231514, -51075.72538563316, -12615.59279150877, 6749.511569680163, -18622.06532026116, 18151.69520994368, 23037.406568218063, -0.012, 1.016, -0.14400000000000002, 192.0, 0.0, 0.0, 0.0, 0.0, 0.0, 0.0, 0.0, 0.0, 0.0, 1.6527972251318927E9, 0.0, 2022-05-17 16:20:25.131
235.0, 57420.402159738805, 24858.02320933619, -51110.102368605425, -12632.937745206089, 6713.189984940289, -18642.226593759846, 18123.10732878534, 23018.586399386695, -0.016, 1.014, -0.152, 192.0, 255.0, 128.0, 31.0, 176.0, 251.0, 64.0, 0.0, 0.0, 0.0, 1.6527972251319163E9, 0.0, 2022-05-17 16:20:25.131
236.0, 57431.51097673309, 24906.906474459945, -51067.96933030717, -12582.333395759273, 6719.649639087873, -18584.760258765255, 18163.49693101608, 23072.945841902, -0.016, 1.014, -0.152, 192.0, 0.0, 0.0, 0.0, 0.0, 0.0, 0.0, 0.0, 0.0, 0.0, 1.6527972251319232E9, 0.0, 2022-05-17 16:20:25.131
237.0, 57492.79946002954, 24969.111379279064, -51013.207556391666, -12524.57648808676, 6773.584398458529, -18523.33766500207, 18220.337417165927, 23131.932095519554, -0.016, 1.014, -0.152, 192.0, 0.0, 0.0, 0.0, 0.0, 0.0, 0.0, 0.0, 0.0, 0.0, 1.6527972251319277E9, 0.0, 2022-05-17 16:20:25.131
238.0, 57506.00934100263, 24945.46323364535, -51051.33963243242, -12562.395639705139, 6778.568837472062, -18553.557223505642, 18199.349129122395, 23102.47249632746, -0.016, 1.014, -0.152, 192.0, 0.0, 0.0, 0.0, 0.0, 0.0, 0.0, 0.0, 0.0, 0.0, 1.6527972251319327E9, 0.0, 2022-05-17 16:20:25.131
239.0, 57474.023994687086, 24886.40992479443, -51097.25011554362, -12625.472262558016, 6728.90326129237, -18624.814584829164, 18138.328866759406, 23038.770024629837, -0.016, 1.014, -0.152, 192.0, 0.0, 0.0, 0.0, 0.0, 0.0, 0.0, 0.0, 0.0, 0.0, 1.652797225131938E9, 0.0, 2022-05-17 16:20:25.131
240.0, 57432.94148837823, 24864.88519488397, -51092.15391780781, -12629.8308527268, 6696.493231832174, -18634.850518089595, 18125.431910208692, 23032.89151583809, -0.016, 1.014, -0.152, 192.0, 0.0, 0.0, 0.0, 0.0, 0.0, 0.0, 0.0, 0.0, 0.0, 1.6527972251319437E9, 0.0, 2022-05-17 16:20:25.131
241.0, 57438.41766576978, 24914.014329196732, -51054.53593188953, -12572.20805552102, 6714.0393512295905, -18577.80886623965, 18168.079038629417, 23086.04396415281, -0.016, 1.014, -0.152, 192.0, 0.0, 0.0, 0.0, 0.0, 0.0, 0.0, 0.0, 0.0, 0.0, 1.652797225611346E9, 0.0, 2022-05-17 16:20:25.611
242.0, 57485.4680878482, 24965.93743156641, -51009.85479472337, -12527.839842777234, 6763.034375075624, -18529.462042982825, 18212.22373392865, 23131.23919144144, -0.016, 1.014, -0.152, 192.0, 0.0, 0.0, 0.0, 0.0, 0.0, 0.0, 0.0, 0.0, 0.0, 1.6527972256114097E9, 0.0, 2022-05-17 16:20:25.611
243.0, 57521.275582465605, 24962.428207686928, -51005.920887699234, -12547.665840109092, 6789.252971321699, -18536.502842486243, 18213.40837638478, 23120.465650613984, -0.016, 1.014, -0.152, 192.0, 0.0, 0.0, 0.0, 0.0, 0.0, 0.0, 0.0, 0.0, 0.0, 1.652797225611416E9, 0.0, 2022-05-17 16:20:25.611
244.0, 57479.70133777873, 24891.036735896676, -51079.748699635114, -12618.54322177687, 6743.655412632873, -18615.806831813676, 18147.895413386275, 23053.455120736973, -0.016, 1.014, -0.152, 192.0, 0.0, 0.0, 0.0, 0.0, 0.0, 0.0, 0.0, 0.0, 0.0, 1.6527972256114223E9, 0.0, 2022-05-17 16:20:25.611
245.0, 57432.29328778903, 24861.688895426858, -51108.58244998246, -12628.333285848295, 6701.365912123431, -18638.717369880364, 18122.325017729407, 23041.40753047556, -0.018000000000000002, 1.012, -0.156, 192.0, 255.0, 112.0, 31.0, 160.0, 251.0, 32.0, 0.0, 0.0, 0.0, 1.65279722561143E9, 0.0, 2022-05-17 16:20:25.611
246.0, 57436.048380857515, 24909.096945416564, -51057.553417391, -12576.38783173416, 6713.301743662566, -18585.095534932083, 18161.999364137577, 23093.688260756524, -0.018000000000000002, 1.012, -0.156, 192.0, 0.0, 0.0, 0.0, 0.0, 0.0, 0.0, 0.0, 0.0, 0.0, 1.6527972256114364E9, 0.0, 2022-05-17 16:20:25.611
247.0, 57483.165858169305, 24956.527347150728, -51015.375675603835, -12532.399598646118, 6758.5863779290175, -18535.497013985758, 18205.56291408097, 23130.546287363326, -0.018000000000000002, 1.012, -0.156, 192.0, 0.0, 0.0, 0.0, 0.0, 0.0, 0.0, 0.0, 0.0, 0.0, 1.652797225611442E9, 0.0, 2022-05-17 16:20:25.611
248.0, 57512.08901549447, 24947.74311157979, -51016.225041893136, -12547.978764531466, 6785.788450931126, -18543.09660710056, 18201.964283223664, 23111.48024934295, -0.018000000000000002, 1.012, -0.156, 192.0, 0.0, 0.0, 0.0, 0.0, 0.0, 0.0, 0.0, 0.0, 0.0, 1.652797225611448E9, 0.0, 2022-05-17 16:20:25.611
249.0, 57468.57016903999, 24879.905567157934, -51078.89933334581, -12620.331361333296, 6742.984860299213, -18610.755337566774, 18143.559174961945, 23044.715588654948, -0.018000000000000002, 1.012, -0.156, 192.0, 0.0, 0.0, 0.0, 0.0, 0.0, 0.0, 0.0, 0.0, 0.0, 1.6527972256114535E9, 0.0, 2022-05-17 16:20:25.611
250.0, 57412.44493871271, 24847.38377897546, -51114.013923885104, -12646.035867456898, 6703.444624357775, -18639.03029430274, 18112.87022982481, 23021.69329186598, -0.018000000000000002, 1.012, -0.156, 192.0, 0.0, 0.0, 0.0, 0.0, 0.0, 0.0, 0.0, 0.0, 0.0, 1.6527972256114595E9, 0.0, 2022-05-17 16:20:25.611
251.0, 57418.23404052664, 24894.41184930943, -51073.26669374308, -12590.603541207736, 6721.907165277858, -18581.63101454151, 18155.20443382316, 23078.71259197147, -0.018000000000000002, 1.012, -0.156, 192.0, 0.0, 0.0, 0.0, 0.0, 0.0, 0.0, 0.0, 0.0, 0.0, 1.652797225611465E9, 0.0, 2022-05-17 16:20:25.611
252.0, 57467.586692283956, 24947.87722204652, -51026.32803038693, -12541.988497017444, 6771.818610646559, -18530.691388927866, 18202.165448923763, 23130.61334259669, -0.018000000000000002, 1.012, -0.156, 192.0, 0.0, 0.0, 0.0, 0.0, 0.0, 0.0, 0.0, 0.0, 0.0, 1.6527972256114736E9, 0.0, 2022-05-17 16:20:25.611
253.0, 57492.732404796174, 24933.169774194932, -51030.73132404463, -12565.882511840167, 6786.794279431615, -18548.371618792014, 18192.621254041347, 23113.290740643828, -0.018000000000000002, 1.012, -0.156, 192.0, 0.0, 0.0, 0.0, 0.0, 0.0, 0.0, 0.0, 0.0, 0.0, 1.6527972256114793E9, 0.0, 2022-05-17 16:20:25.611
254.0, 57451.7616572096, 24865.77926466218, -51095.149051564826, -12634.97175395152, 6739.676802119828, -18617.840840559107, 18132.740930645577, 23043.150966543075, -0.018000000000000002, 1.012, -0.156, 192.0, 0.0, 0.0, 0.0, 0.0, 0.0, 0.0, 0.0, 0.0, 0.0, 1.6527972256114848E9, 0.0, 2022-05-17 16:20:25.611
255.0, 57398.07276702795, 24842.376988217475, -51131.492988049155, -12655.602414083769, 6697.566115566029, -18638.605611158087, 18102.63313086428, 23021.69329186598, -0.014, 1.008, -0.156, 192.0, 255.0, 144.0, 31.0, 128.0, 251.0, 32.0, 0.0, 0.0, 0.0, 1.6527972256114895E9, 0.0, 2022-05-17 16:20:25.611
0.0, 57395.90464781578, 24887.25929108373, -51093.11504281939, -12606.875611171201, 6704.048121458069, -18589.878808245518, 18136.49602371407, 23070.107170356176, -0.014, 1.008, -0.156, 192.0, 0.0, 0.0, 0.0, 0.0, 0.0, 0.0, 0.0, 0.0, 0.0, 1.6527972256115198E9, 0.0, 2022-05-17 16:20:25.611
1.0, 57454.443866544236, 24956.32618145063, -51015.085102925914, -12543.061380751298, 6763.615520431462, -18526.601019692545, 18197.248065143594, 23130.836860041247, -0.014, 1.008, -0.156, 192.0, 0.0, 0.0, 0.0, 0.0, 0.0, 0.0, 0.0, 0.0, 0.0, 1.6527972256115248E9, 0.0, 2022-05-17 16:20:25.611
2.0, 57494.02880597459, 24957.354361695572, -51019.488396583605, -12545.274203452374, 6789.320026555065, -18532.635990695475, 18199.259722144572, 23120.37624363616, -0.014, 1.008, -0.156, 192.0, 0.0, 0.0, 0.0, 0.0, 0.0, 0.0, 0.0, 0.0, 0.0, 1.652797225611529E9, 0.0, 2022-05-17 16:20:25.611
3.0, 57454.80149445552, 24883.280680570686, -51087.527106705566, -12614.229335096996, 6747.499912679185, -18600.317072906146, 18146.35314301886, 23056.56201321626, -0.014, 1.008, -0.156, 192.0, 0.0, 0.0, 0.0, 0.0, 0.0, 0.0, 0.0, 0.0, 0.0, 1.6527972256115336E9, 0.0, 2022-05-17 16:20:25.611
4.0, 57404.17479326425, 24848.277848753674, -51116.13733960836, -12639.240937142486, 6704.361045880443, -18630.983666298827, 18113.809003091934, 23030.656341392558, -0.014, 1.008, -0.156, 192.0, 0.0, 0.0, 0.0, 0.0, 0.0, 0.0, 0.0, 0.0, 0.0, 1.652797225611538E9, 0.0, 2022-05-17 16:20:25.611
5.0, 57407.92988633274, 24891.997860908254, -51069.95863556369, -12587.049613839343, 6720.700171077272, -18574.90313946046, 18143.53682321749, 23082.33357457323, -0.014, 1.008, -0.156, 192.0, 0.0, 0.0, 0.0, 0.0, 0.0, 0.0, 0.0, 0.0, 0.0, 1.6527972256115425E9, 0.0, 2022-05-17 16:20:25.611
6.0, 57456.63433750086, 24945.79850981218, -51027.33385888742, -12536.445264392527, 6769.851657134493, -18525.23756328077, 18189.60376853988, 23128.66874082908, -0.014, 1.008, -0.156, 192.0, 0.0, 0.0, 0.0, 0.0, 0.0, 0.0, 0.0, 0.0, 0.0, 1.652797225611547E9, 0.0, 2022-05-17 16:20:25.611
7.0, 57479.20959940072, 24931.940428249887, -51040.610795093875, -12552.091485511242, 6790.661131222383, -18545.890575157475, 18182.004175425074, 23107.18871440753, -0.014, 1.008, -0.156, 192.0, 0.0, 0.0, 0.0, 0.0, 0.0, 0.0, 0.0, 0.0, 0.0, 1.6527972256115515E9, 0.0, 2022-05-17 16:20:25.611
8.0, 57446.75486645161, 24871.523662987194, -51094.76907190908, -12617.649151998658, 6745.823531845037, -18609.660102088466, 18126.102462542352, 23044.737940399402, -0.014, 1.008, -0.156, 192.0, 0.0, 0.0, 0.0, 0.0, 0.0, 0.0, 0.0, 0.0, 0.0, 1.652797225611556E9, 0.0, 2022-05-17 16:20:25.611
9.0, 57402.54311591901, 24841.706435883814, -51117.14316810884, -12640.783207509901, 6698.0131504551355, -18630.380169198535, 18098.11807848431, 23023.704948866958, -0.014, 1.012, -0.154, 192.0, 255.0, 144.0, 31.0, 160.0, 251.0, 48.0, 0.0, 0.0, 0.0, 1.6527972256115608E9, 0.0, 2022-05-17 16:20:25.611
10.0, 57405.784118865035, 24886.566387005616, -51079.52518219056, -12587.362538261717, 6710.574830839018, -18579.73111626281, 18138.01594233703, 23072.05177212379, -0.014, 1.012, -0.154, 192.0, 0.0, 0.0, 0.0, 0.0, 0.0, 0.0, 0.0, 0.0, 0.0, 1.6527972256115654E9, 0.0, 2022-05-17 16:20:25.611
11.0, 57460.724706736175, 24952.07935000412, -51022.75175127408, -12528.018656732876, 6775.059613592579, -18518.956723088828, 18203.215980913163, 23133.116737975688, -0.014, 1.012, -0.154, 192.0, 0.0, 0.0, 0.0, 0.0, 0.0, 0.0, 0.0, 0.0, 0.0, 1.65279722561157E9, 0.0, 2022-05-17 16:20:25.611
12.0, 57488.217352416206, 24939.115338220043, -51034.08408571292, -12549.521034898882, 6791.711663211783, -18540.86143265503, 18198.65622504428, 23111.234380153943, -0.014, 1.012, -0.154, 192.0, 0.0, 0.0, 0.0, 0.0, 0.0, 0.0, 0.0, 0.0, 0.0, 1.652797225611575E9, 0.0, 2022-05-17 16:20:25.611
13.0, 57453.05805838801, 24876.910433400924, -51092.310380019, -12615.54808801986, 6750.852674347481, -18607.24611368729, 18145.16850056273, 23047.21898403394, -0.014, 1.012, -0.154, 192.0, 0.0, 0.0, 0.0, 0.0, 0.0, 0.0, 0.0, 0.0, 0.0, 1.6527972256115797E9, 0.0, 2022-05-17 16:20:25.611
14.0, 57411.707331145684, 24852.658790666916, -51119.28893557655, -12636.983410952498, 6709.725464549717, -18627.250924974793, 18124.314322985927, 23025.18016400101, -0.014, 1.012, -0.154, 192.0, 0.0, 0.0, 0.0, 0.0, 0.0, 0.0, 0.0, 0.0, 0.0, 1.652797225611584E9, 0.0, 2022-05-17 16:20:25.611
15.0, 57421.81031963949, 24904.179561636396, -51057.48636215763, -12580.72407015849, 6723.583546112007, -18567.638822512487, 18169.800122952478, 23074.733981458427, -0.014, 1.012, -0.154, 192.0, 0.0, 0.0, 0.0, 0.0, 0.0, 0.0, 0.0, 0.0, 0.0, 1.6527972256115887E9, 0.0, 2022-05-17 16:20:25.611
16.0, 57452.07458163197, 24940.098814976074, -51037.950937503694, -12542.703752840014, 6760.016889574157, -18529.819670894107, 18207.440460615213, 23109.133316175143, -0.014, 1.012, -0.154, 192.0, 0.0, 0.0, 0.0, 0.0, 0.0, 0.0, 0.0, 0.0, 0.0, 1.6527972256115932E9, 0.0, 2022-05-17 16:20:25.611
17.0, 57468.88309346236, 24923.290303145684, -51053.753620833595, -12568.140038030153, 6773.472639736252, -18552.886671171986, 18201.584303567925, 23087.697993242502, -0.014, 1.012, -0.154, 192.0, 0.0, 0.0, 0.0, 0.0, 0.0, 0.0, 0.0, 0.0, 0.0, 1.6527972256115975E9, 0.0, 2022-05-17 16:20:25.611
18.0, 57455.963785167194, 24874.29527929965, -51088.86821137288, -12622.96886717902, 6738.76038059716, -18609.995378255295, 18165.50858801706, 23039.775853130326, -0.014, 1.012, -0.154, 192.0, 0.0, 0.0, 0.0, 0.0, 0.0, 0.0, 0.0, 0.0, 0.0, 1.652797225611602E9, 0.0, 2022-05-17 16:20:25.611
19.0, 57426.303020275, 24853.999895334233, -51101.1616708233, -12642.437236599593, 6697.208487654744, -18629.44139593141, 18150.667029698736, 23025.336626212196, -0.016, 1.018, -0.154, 192.0, 255.0, 128.0, 31.0, 208.0, 251.0, 48.0, 0.0, 0.0, 0.0, 1.6527972256116064E9, 0.0, 2022-05-17 16:20:25.611
20.0, 57440.943412893226, 24902.03379416869, -51061.33086220394, -12590.670596441103, 6707.825566271015, -18571.505674303255, 18192.330681363426, 23079.204330349487, -0.016, 1.018, -0.154, 192.0, 0.0, 0.0, 0.0, 0.0, 0.0, 0.0, 0.0, 0.0, 0.0, 1.6527972256116111E9, 0.0, 2022-05-17 16:20:25.611
21.0, 57495.07933796398, 24965.199823999385, -51005.49620455458, -12527.012828232388, 6756.351203483487, -18510.977150318286, 18253.596812915424, 23134.256676942907, -0.016, 1.018, -0.154, 192.0, 0.0, 0.0, 0.0, 0.0, 0.0, 0.0, 0.0, 0.0, 0.0, 1.6527972256116157E9, 0.0, 2022-05-17 16:20:25.611
22.0, 57516.71582659672, 24950.671190103436, -51024.98692571961, -12555.95833730201, 6771.930369368836, -18531.987790106272, 18251.65221114781, 23114.67654880006, -0.016, 1.018, -0.154, 192.0, 0.0, 0.0, 0.0, 0.0, 0.0, 0.0, 0.0, 0.0, 0.0, 1.6527972256116278E9, 0.0, 2022-05-17 16:20:25.611
23.0, 57479.05313718953, 24881.224320080797, -51095.283162031556, -12627.416864325627, 6729.126778736923, -18605.34621540859, 18192.59890229689, 23046.302562511275, -0.016, 1.018, -0.154, 192.0, 0.0, 0.0, 0.0, 0.0, 0.0, 0.0, 0.0, 0.0, 0.0, 1.6527972256116328E9, 0.0, 2022-05-17 16:20:25.611
24.0, 57437.25537505811, 24854.983372090268, -51118.70779022072, -12651.020306470431, 6675.773164722105, -18636.59395415711, 18158.31132630245, 23016.12770749661, -0.016, 1.018, -0.154, 192.0, 0.0, 0.0, 0.0, 0.0, 0.0, 0.0, 0.0, 0.0, 0.0, 1.6527972256116374E9, 0.0, 2022-05-17 16:20:25.611
25.0, 57437.90357564731, 24895.238863854276, -51080.57571417996, -12608.082605371786, 6672.420403053809, -18597.701918804876, 18187.12272490534, 23048.85066137918, -0.016, 1.018, -0.154, 192.0, 0.0, 0.0, 0.0, 0.0, 0.0, 0.0, 0.0, 0.0, 0.0, 1.6527972256116424E9, 0.0, 2022-05-17 16:20:25.611
26.0, 57492.6206460739, 24957.354361695572, -51027.445617609694, -12547.44232266454, 6725.148168223878, -18535.6758279414, 18247.025400045564, 23106.42875509605, -0.016, 1.018, -0.154, 192.0, 0.0, 0.0, 0.0, 0.0, 0.0, 0.0, 0.0, 0.0, 0.0, 1.6527972256116474E9, 0.0, 2022-05-17 16:20:25.611
27.0, 57521.74496909916, 24949.26303020275, -51030.01606822206, -12562.172122260587, 6744.258909733166, -18547.879880413995, 18248.031228546053, 23097.041022424823, -0.016, 1.018, -0.154, 192.0, 0.0, 0.0, 0.0, 0.0, 0.0, 0.0, 0.0, 0.0, 0.0, 1.6527972256116524E9, 0.0, 2022-05-17 16:20:25.611
28.0, 57500.24259093316, 24888.10865737303, -51074.384280965845, -12619.817271210823, 6714.3299239075095, -18602.172267695936, 18207.194591426207, 23046.57078344474, -0.012, 1.008, -0.15, 192.0, 255.0, 160.0, 31.0, 128.0, 251.0, 80.0, 0.0, 0.0, 0.0, 1.6527972256116571E9, 0.0, 2022-05-17 16:20:25.611
29.0, 57463.7645439821, 24856.547994202137, -51101.38518826785, -12645.342963378784, 6665.647824483851, -18626.87094531905, 18182.78648648101, 23021.581533143704, -0.012, 1.008, -0.15, 192.0, 0.0, 0.0, 0.0, 0.0, 0.0, 0.0, 0.0, 0.0, 0.0, 1.652797225611664E9, 0.0, 2022-05-17 16:20:25.611
30.0, 57466.33499459446, 24894.568311520616, -51069.198676252214, -12598.471355256004, 6673.985025165681, -18580.334613363102, 18219.532754365537, 23065.61446972066, -0.012, 1.008, -0.15, 192.0, 0.0, 0.0, 0.0, 0.0, 0.0, 0.0, 0.0, 0.0, 0.0, 1.6527972256116688E9, 0.0, 2022-05-17 16:20:25.611
31.0, 57517.54284114156, 24949.151271480474, -51028.85377751038, -12549.364572687695, 6728.90326129237, -18525.215211536313, 18274.85332189242, 23118.878676757657, -0.012, 1.008, -0.15, 192.0, 0.0, 0.0, 0.0, 0.0, 0.0, 0.0, 0.0, 0.0, 0.0, 1.652797225611673E9, 0.0, 2022-05-17 16:20:25.611
32.0, 57554.28910902609, 24943.250410944274, -51033.92762350174, -12566.240139751451, 6752.104372036979, -18540.704970443843, 18272.014650346595, 23105.37822310665, -0.012, 1.008, -0.15, 192.0, 0.0, 0.0, 0.0, 0.0, 0.0, 0.0, 0.0, 0.0, 0.0, 1.6527972256116788E9, 0.0, 2022-05-17 16:20:25.611
33.0, 57516.38055042989, 24878.02802062369, -51094.52320272008, -12634.59177429578, 6710.843051772482, -18613.906933534974, 18218.012835742575, 23040.98284733091, -0.012, 1.008, -0.15, 192.0, 0.0, 0.0, 0.0, 0.0, 0.0, 0.0, 0.0, 0.0, 0.0, 1.652797225611684E9, 0.0, 2022-05-17 16:20:25.611
34.0, 57463.9657096822, 24842.48874693975, -51132.20824387172, -12655.155379194663, 6659.009356380625, -18648.73095139634, 18186.541579549503, 23011.970283027924, -0.012, 1.008, -0.15, 192.0, 0.0, 0.0, 0.0, 0.0, 0.0, 0.0, 0.0, 0.0, 0.0, 1.652797225611689E9, 0.0, 2022-05-17 16:20:25.611
35.0, 57474.783953998565, 24891.886102185978, -51082.72148164767, -12601.891172157666, 6674.476763543697, -18593.991529225295, 18228.875783547854, 23064.541585986804, -0.012, 1.008, -0.15, 192.0, 0.0, 0.0, 0.0, 0.0, 0.0, 0.0, 0.0, 0.0, 0.0, 1.652797225611694E9, 0.0, 2022-05-17 16:20:25.611
36.0, 57536.69828613976, 24958.7401698518, -51013.72164651414, -12544.96127903, 6734.647659617384, -18529.439691238367, 18289.314900555004, 23124.511316360393, -0.012, 1.008, -0.15, 192.0, 0.0, 0.0, 0.0, 0.0, 0.0, 0.0, 0.0, 0.0, 0.0, 1.652797225611699E9, 0.0, 2022-05-17 16:20:25.611
37.0, 57570.51647550064, 24955.70033260588, -51015.42037909274, -12563.557930416815, 6758.921654095848, -18548.975115892306, 18289.784287188566, 23110.27325514236, -0.012, 1.008, -0.15, 192.0, 0.0, 0.0, 0.0, 0.0, 0.0, 0.0, 0.0, 0.0, 0.0, 1.6527972256117055E9, 0.0, 2022-05-17 16:20:25.611
38.0, 57541.16863503082, 24890.634404496483, -51074.160763521286, -12626.321628847318, 6724.0752844900235, -18614.666892846453, 18235.13427199534, 23049.208289290465, -0.016, 1.006, -0.152, 192.0, 255.0, 128.0, 31.0, 112.0, 251.0, 64.0, 0.0, 0.0, 0.0, 1.6527972256117127E9, 0.0, 2022-05-17 16:20:25.611
39.0, 57490.69839605074, 24849.44013946535, -51115.064455874504, -12651.690858804091, 6667.726536718194, -18650.74260839732, 18196.21988489865, 23016.775908085812, -0.016, 1.006, -0.152, 192.0, 0.0, 0.0, 0.0, 0.0, 0.0, 0.0, 0.0, 0.0, 0.0, 1.6527972256117194E9, 0.0, 2022-05-17 16:20:25.611
40.0, 57483.41172735831, 24886.0746486276, -51093.96440910869, -12610.720111217513, 6669.157048363334, -18607.760203809765, 18226.88647829133, 23056.89728938309, -0.016, 1.006, -0.152, 192.0, 0.0, 0.0, 0.0, 0.0, 0.0, 0.0, 0.0, 0.0, 0.0, 1.6527972256117253E9, 0.0, 2022-05-17 16:20:25.611
41.0, 57533.6808006383, 24948.79364356919, -51040.454332882684, -12558.305270469818, 6714.486386118697, -18548.975115892306, 18276.842627148944, 23109.692109786523, -0.016, 1.006, -0.152, 192.0, 0.0, 0.0, 0.0, 0.0, 0.0, 0.0, 0.0, 0.0, 0.0, 1.6527972256117303E9, 0.0, 2022-05-17 16:20:25.611
42.0, 57579.03249013812, 24954.04630351619, -51028.496149599094, -12563.423819950083, 6753.1325522819225, -18549.690371714874, 18287.39265053185, 23110.183848164543, -0.016, 1.006, -0.152, 192.0, 0.0, 0.0, 0.0, 0.0, 0.0, 0.0, 0.0, 0.0, 0.0, 1.6527972256117356E9, 0.0, 2022-05-17 16:20:25.611
43.0, 57537.32413498451, 24879.950270646845, -51100.088787089444, -12638.704495275557, 6720.186080954801, -18619.472517904345, 18231.51328939358, 23041.876917109123, -0.016, 1.006, -0.152, 192.0, 0.0, 0.0, 0.0, 0.0, 0.0, 0.0, 0.0, 0.0, 0.0, 1.652797225611799E9, 0.0, 2022-05-17 16:20:25.611
44.0, 57482.62941630238, 24847.24966850873, -51135.35983983992, -12664.923091521632, 6675.348481577455, -18643.612401916078, 18200.913751234264, 23013.825477817714, -0.016, 1.006, -0.152, 192.0, 0.0, 0.0, 0.0, 0.0, 0.0, 0.0, 0.0, 0.0, 0.0, 1.652797225611806E9, 0.0, 2022-05-17 16:20:25.611
45.0, 57482.33884362446, 24891.237901596774, -51088.26471427259, -12612.754119962945, 6688.13367940589, -18593.544494336187, 18236.765949340577, 23061.099417340687, -0.016, 1.006, -0.152, 192.0, 0.0, 0.0, 0.0, 0.0, 0.0, 0.0, 0.0, 0.0, 0.0, 1.6527972256118112E9, 0.0, 2022-05-17 16:20:25.611
46.0, 57530.79742560357, 24949.643009858493, -51034.41936187975, -12562.194474005042, 6732.725409594227, -18543.05190361165, 18285.13512434186, 23112.77665052136, -0.016, 1.006, -0.152, 192.0, 0.0, 0.0, 0.0, 0.0, 0.0, 0.0, 0.0, 0.0, 0.0, 1.652797225611819E9, 0.0, 2022-05-17 16:20:25.611
47.0, 57547.896510111874, 24935.293189918186, -51053.06071675548, -12581.10404981423, 6749.9586045692695, -18564.710743988842, 18277.602586460423, 23093.06241191178, -0.016, 1.006, -0.152, 192.0, 0.0, 0.0, 0.0, 0.0, 0.0, 0.0, 0.0, 0.0, 0.0, 1.6527972256118276E9, 0.0, 2022-05-17 16:20:25.611
48.0, 57527.7799401021, 24880.93374740288, -51095.52903122056, -12637.139873163685, 6722.1977379557775, -18626.69213136341, 18228.27228644756, 23035.976056572923, -0.014, 1.01, -0.152, 192.0, 255.0, 144.0, 31.0, 144.0, 251.0, 64.0, 0.0, 0.0, 0.0, 1.6527972256118324E9, 0.0, 2022-05-17 16:20:25.611
49.0, 57484.86459074791, 24851.474148210782, -51117.90312742032, -12659.066934474342, 6674.923798432804, -18653.804797387696, 18195.68344303172, 23009.757460326848, -0.014, 1.01, -0.152, 192.0, 0.0, 0.0, 0.0, 0.0, 0.0, 0.0, 0.0, 0.0, 0.0, 1.652797225611838E9, 0.0, 2022-05-17 16:20:25.611
50.0, 57489.20082917224, 24896.51291328823, -51072.93141757625, -12595.565628476816, 6685.60793228244, -18595.4890961038, 18232.183841727237, 23060.18299581802, -0.014, 1.01, -0.152, 192.0, 0.0, 0.0, 0.0, 0.0, 0.0, 0.0, 0.0, 0.0, 0.0, 1.6527972256118455E9, 0.0, 2022-05-17 16:20:25.611
51.0, 57536.60887916194, 24956.92967855092, -51029.01023972157, -12541.876738295166, 6734.893528806392, -18537.978057620294, 18280.910644639807, 23113.849534255212, -0.014, 1.01, -0.152, 192.0, 0.0, 0.0, 0.0, 0.0, 0.0, 0.0, 0.0, 0.0, 0.0, 1.6527972256118517E9, 0.0, 2022-05-17 16:20:25.611
52.0, 57564.86148415345, 24949.37478892503, -51034.933452002224, -12560.808665848812, 6757.401735472887, -18551.992601393773, 18278.451952749725, 23099.63382478164, -0.014, 1.01, -0.152, 192.0, 0.0, 0.0, 0.0, 0.0, 0.0, 0.0, 0.0, 0.0, 0.0, 1.652797225611858E9, 0.0, 2022-05-17 16:20:25.611
53.0, 57538.55348092956, 24888.756857962235, -51091.48336547415, -12623.907640446145, 6732.926575294326, -18617.86319230356, 18228.60756261439, 23038.74767288538, -0.014, 1.01, -0.152, 192.0, 0.0, 0.0, 0.0, 0.0, 0.0, 0.0, 0.0, 0.0, 0.0, 1.6527972256118643E9, 0.0, 2022-05-17 16:20:25.611
54.0, 57494.5205443526, 24854.558688945617, -51127.424970558284, -12655.200082683574, 6691.240571885178, -18649.759131641287, 18192.107163918874, 23007.097602736667, -0.014, 1.01, -0.152, 192.0, 0.0, 0.0, 0.0, 0.0, 0.0, 0.0, 0.0, 0.0, 0.0, 1.6527972256118715E9, 0.0, 2022-05-17 16:20:25.611
55.0, 57497.96271299872, 24893.36131732003, -51093.29385677503, -12611.88240192919, 6692.805193997049, -18594.952654236873, 18224.628952101346, 23051.26464978035, -0.014, 1.01, -0.152, 192.0, 0.0, 0.0, 0.0, 0.0, 0.0, 0.0, 0.0, 0.0, 0.0, 1.6527972256118805E9, 0.0, 2022-05-17 16:20:25.611
56.0, 57550.95869910225, 24953.621620371538, -51032.430056623234, -12556.360668702206, 6740.257947475666, -18527.38333074848, 18272.95342361372, 23107.14401091862, -0.014, 1.01, -0.152, 192.0, 0.0, 0.0, 0.0, 0.0, 0.0, 0.0, 0.0, 0.0, 0.0, 1.6527972256118875E9, 0.0, 2022-05-17 16:20:25.611
57.0, 57566.5378649876, 24944.479756889315, -51045.39406840731, -12579.58413119127, 6757.781715128626, -18539.788548921177, 18260.928185096764, 23090.38020257714, -0.014, 1.01, -0.152, 192.0, 0.0, 0.0, 0.0, 0.0, 0.0, 0.0, 0.0, 0.0, 0.0, 1.6527972256118948E9, 0.0, 2022-05-17 16:20:25.611
58.0, 57534.37370471641, 24888.68980272887, -51102.323961534974, -12635.418788840627, 6732.099560749479, -18612.811698056663, 18214.280094418536, 23035.573725172726, -0.016, 1.012, -0.15, 192.0, 255.0, 128.0, 31.0, 160.0, 251.0, 80.0, 0.0, 0.0, 0.0, 1.6527972256119027E9, 0.0, 2022-05-17 16:20:25.611
59.0, 57491.32424489549, 24862.11357857151, -51113.54453725154, -12650.819140770334, 6687.440775327776, -18656.3528962556, 18185.803971982477, 23009.17631497101, -0.016, 1.012, -0.15, 192.0, 0.0, 0.0, 0.0, 0.0, 0.0, 0.0, 0.0, 0.0, 0.0, 1.6527972256119096E9, 0.0, 2022-05-17 16:20:25.611
60.0, 57479.50017207863, 24897.675203999905, -51085.96248459369, -12609.334303061283, 6683.797440981561, -18617.05852950317, 18209.74269029411, 23047.867184623145, -0.016, 1.012, -0.15, 192.0, 0.0, 0.0, 0.0, 0.0, 0.0, 0.0, 0.0, 0.0, 0.0, 1.6527972256119163E9, 0.0, 2022-05-17 16:20:25.611
61.0, 57519.442739420265, 24954.02395177173, -51042.53304511703, -12555.108971012709, 6734.1112177504565, -18559.592194508576, 18254.401475715815, 23098.940920703524, -0.016, 1.012, -0.15, 192.0, 0.0, 0.0, 0.0, 0.0, 0.0, 0.0, 0.0, 0.0, 0.0, 1.6527972256119223E9, 0.0, 2022-05-17 16:20:25.611
62.0, 57552.74683865868, 24956.661457617458, -51045.706992829684, -12569.034107808366, 6756.932348839325, -18563.660211999442, 18251.94278382573, 23088.212083364975, -0.016, 1.012, -0.15, 192.0, 0.0, 0.0, 0.0, 0.0, 0.0, 0.0, 0.0, 0.0, 0.0, 1.6527972256119273E9, 0.0, 2022-05-17 16:20:25.611
63.0, 57531.95971631524, 24900.35741333454, -51090.83516488495, -12637.07281793032, 6727.718618836238, -18616.07505274714, 18203.215980913163, 23035.171393772533, -0.016, 1.012, -0.15, 192.0, 0.0, 0.0, 0.0, 0.0, 0.0, 0.0, 0.0, 0.0, 0.0, 1.652797225611935E9, 0.0, 2022-05-17 16:20:25.611
64.0, 57483.14350642485, 24860.25838378172, -51127.51437753611, -12656.295318161883, 6683.260999114633, -18646.182852528436, 18167.520245018037, 23006.002367258356, -0.016, 1.012, -0.15, 192.0, 0.0, 0.0, 0.0, 0.0, 0.0, 0.0, 0.0, 0.0, 0.0, 1.6527972256119475E9, 0.0, 2022-05-17 16:20:25.611
65.0, 57468.12313415088, 24889.136837617974, -51098.702978933215, -12617.02330315391, 6680.310568846532, -18611.53764862271, 18192.755364508077, 23037.451271706974, -0.016, 1.012, -0.15, 192.0, 0.0, 0.0, 0.0, 0.0, 0.0, 0.0, 0.0, 0.0, 0.0, 1.6527972256119533E9, 0.0, 2022-05-17 16:20:25.611
66.0, 57507.86453579242, 24946.98315226831, -51043.71768757316, -12565.323718228785, 6721.95186876677, -18540.749673932754, 18245.48312967815, 23093.442391567518, -0.016, 1.012, -0.15, 192.0, 0.0, 0.0, 0.0, 0.0, 0.0, 0.0, 0.0, 0.0, 0.0, 1.6527972256119595E9, 0.0, 2022-05-17 16:20:25.611
67.0, 57544.4319897213, 24950.447672658884, -51030.17253043324, -12573.01271832141, 6750.092715036001, -18539.788548921177, 18250.869900091875, 23090.76018223288, -0.016, 1.012, -0.15, 192.0, 0.0, 0.0, 0.0, 0.0, 0.0, 0.0, 0.0, 0.0, 0.0, 1.652797225611966E9, 0.0, 2022-05-17 16:20:25.611
68.0, 57523.62251563341, 24893.003689408743, -51082.274446758565, -12629.160300393141, 6724.924650779325, -18621.662988860964, 18198.03037619953, 23025.85071633467, -0.02, 1.016, -0.154, 192.0, 255.0, 96.0, 31.0, 192.0, 251.0, 48.0, 0.0, 0.0, 0.0, 1.65279722561197E9, 0.0, 2022-05-17 16:20:25.611
69.0, 57467.363174839404, 24849.976581332277, -51134.8681014619, -12667.27002468944, 6674.432060054786, -18665.204187059902, 18153.97508787812, 22986.712811793426, -0.02, 1.016, -0.154, 192.0, 0.0, 0.0, 0.0, 0.0, 0.0, 0.0, 0.0, 0.0, 0.0, 1.652797225611976E9, 0.0, 2022-05-17 16:20:25.611
70.0, 57466.35734633891, 24893.473076042304, -51086.29776076052, -12614.586963008282, 6684.780917737594, -18603.423965385435, 18190.810762740464, 23041.9886758314, -0.02, 1.016, -0.154, 192.0, 0.0, 0.0, 0.0, 0.0, 0.0, 0.0, 0.0, 0.0, 0.0, 1.6527972256119823E9, 0.0, 2022-05-17 16:20:25.611
71.0, 57504.51177412412, 24945.865565045544, -51044.030611995535, -12564.563758917304, 6728.143301980889, -18558.809883452643, 18236.631838873844, 23092.123638644654, -0.02, 1.016, -0.154, 192.0, 0.0, 0.0, 0.0, 0.0, 0.0, 0.0, 0.0, 0.0, 0.0, 1.6527972256119907E9, 0.0, 2022-05-17 16:20:25.611
72.0, 57538.039390807084, 24944.1891842114, -51045.90815852978, -12573.236235765962, 6760.687441907817, -18565.96244167834, 18241.14689125382, 23087.496827542403, -0.02, 1.016, -0.154, 192.0, 0.0, 0.0, 0.0, 0.0, 0.0, 0.0, 0.0, 0.0, 0.0, 1.6527972256119993E9, 0.0, 2022-05-17 16:20:25.611
73.0, 57512.55840212803, 24892.713116730825, -51083.816717125985, -12632.490710316983, 6736.055819518068, -18610.10713697757, 18200.89139948981, 23037.585382173704, -0.02, 1.016, -0.154, 192.0, 0.0, 0.0, 0.0, 0.0, 0.0, 0.0, 0.0, 0.0, 0.0, 1.652797225612007E9, 0.0, 2022-05-17 16:20:25.612
74.0, 57461.059982903, 24855.497462212737, -51121.1664821108, -12670.019289257443, 6682.255170614144, -18644.752340883297, 18163.429875782716, 23003.320157923717, -0.02, 1.016, -0.154, 192.0, 0.0, 0.0, 0.0, 0.0, 0.0, 0.0, 0.0, 0.0, 0.0, 1.6527972256120164E9, 0.0, 2022-05-17 16:20:25.612
75.0, 57448.31948856348, 24882.386610792473, -51096.91483937679, -12622.052445656354, 6678.567132779019, -18609.615398599555, 18186.31806210495, 23033.249143749374, -0.02, 1.016, -0.154, 192.0, 0.0, 0.0, 0.0, 0.0, 0.0, 0.0, 0.0, 0.0, 0.0, 1.6527972256120417E9, 0.0, 2022-05-17 16:20:25.612
76.0, 57495.1687449418, 24947.94427727989, -51033.94997524619, -12552.113837255698, 6726.779845569115, -18546.6281827245, 18245.013743044587, 23095.56580729077, -0.02, 1.016, -0.154, 192.0, 0.0, 0.0, 0.0, 0.0, 0.0, 0.0, 0.0, 0.0, 0.0, 1.6527972256120653E9, 0.0, 2022-05-17 16:20:25.612
77.0, 57534.30664948305, 24955.23094597232, -51019.53310007252, -12560.361630959706, 6753.8925115934035, -18541.710798944332, 18252.90390883731, 23094.8505514682, -0.02, 1.016, -0.154, 192.0, 0.0, 0.0, 0.0, 0.0, 0.0, 0.0, 0.0, 0.0, 0.0, 1.6527972256120746E9, 0.0, 2022-05-17 16:20:25.612
78.0, 57507.26103869212, 24891.707288230336, -51077.58058042295, -12629.853204471256, 6714.218165185233, -18603.4910206188, 18199.03620470002, 23032.51153618235, -0.02, 1.016, -0.152, 192.0, 255.0, 96.0, 31.0, 192.0, 251.0, 64.0, 0.0, 0.0, 0.0, 1.6527972256120815E9, 0.0, 2022-05-17 16:20:25.612
79.0, 57462.22227361468, 24856.21271803531, -51112.22578432868, -12658.664603074147, 6663.03267038258, -18641.041951303716, 18166.13443686181, 22999.766230555324, -0.02, 1.016, -0.152, 192.0, 0.0, 0.0, 0.0, 0.0, 0.0, 0.0, 0.0, 0.0, 0.0, 1.6527972256120875E9, 0.0, 2022-05-17 16:20:25.612
80.0, 57457.23783460115, 24892.444895797362, -51080.70982464669, -12615.793957208867, 6660.998661637147, -18600.987625239806, 18194.40939359777, 23039.351169985675, -0.02, 1.016, -0.152, 192.0, 0.0, 0.0, 0.0, 0.0, 0.0, 0.0, 0.0, 0.0, 0.0, 1.652797225612097E9, 0.0, 2022-05-17 16:20:25.612
81.0, 57499.326169410495, 24946.64787610148, -51037.90623401478, -12565.480180439972, 6706.1715371813225, -18543.543641989665, 18239.537565653034, 23092.749487489404, -0.02, 1.016, -0.152, 192.0, 0.0, 0.0, 0.0, 0.0, 0.0, 0.0, 0.0, 0.0, 0.0, 1.6527972256121073E9, 0.0, 2022-05-17 16:20:25.612
82.0, 57532.6302686489, 24945.865565045544, -51034.91110025777, -12577.259549767918, 6732.032505516113, -18547.790473436176, 18241.07983602045, 23085.731039730435, -0.02, 1.016, -0.152, 192.0, 0.0, 0.0, 0.0, 0.0, 0.0, 0.0, 0.0, 0.0, 0.0, 1.65279722561212E9, 0.0, 2022-05-17 16:20:25.612
83.0, 57509.4738613932, 24883.146570103952, -51100.42406325627, -12645.946460479077, 6695.532106820597, -18615.292741691203, 18186.69804176069, 23018.02760577531, -0.02, 1.016, -0.152, 192.0, 0.0, 0.0, 0.0, 0.0, 0.0, 0.0, 0.0, 0.0, 0.0, 1.6527972256121297E9, 0.0, 2022-05-17 16:20:25.612
84.0, 57466.44675331673, 24852.323514500084, -51119.82537744348, -12673.975548026032, 6652.728516188684, -18651.770788642265, 18153.058666355453, 22985.37170712611, -0.02, 1.016, -0.152, 192.0, 0.0, 0.0, 0.0, 0.0, 0.0, 0.0, 0.0, 0.0, 0.0, 1.6527972256121476E9, 0.0, 2022-05-17 16:20:25.612
85.0, 57468.36900333989, 24897.585797022082, -51077.62528391186, -12627.886250959189, 6666.363080306421, -18606.173229953438, 18191.749536007588, 23032.779757115815, -0.02, 1.016, -0.152, 192.0, 0.0, 0.0, 0.0, 0.0, 0.0, 0.0, 0.0, 0.0, 0.0, 1.6527972256121569E9, 0.0, 2022-05-17 16:20:25.612
86.0, 57513.11719573942, 24952.481681404315, -51031.29011765601, -12566.463657196005, 6712.51943260663, -18545.15296759045, 18244.834929088942, 23089.91081594358, -0.02, 1.016, -0.152, 192.0, 0.0, 0.0, 0.0, 0.0, 0.0, 0.0, 0.0, 0.0, 0.0, 1.6527972256121824E9, 0.0, 2022-05-17 16:20:25.612
87.0, 57536.519472184125, 24943.384521411004, -51042.33187941693, -12579.226503279986, 6724.90229903487, -18552.86431942753, 18238.84466157492, 23079.316089071763, -0.02, 1.016, -0.152, 192.0, 0.0, 0.0, 0.0, 0.0, 0.0, 0.0, 0.0, 0.0, 0.0, 1.6527972256121907E9, 0.0, 2022-05-17 16:20:25.612
88.0, 57513.56423062852, 24885.11352361602, -51097.96537136619, -12647.801655268868, 6693.967484708725, -18614.175154468438, 18188.530884806023, 23019.547524398273, -0.01, 1.018, -0.148, 192.0, 255.0, 176.0, 31.0, 208.0, 251.0, 96.0, 0.0, 0.0, 0.0, 1.6527972256122E9, 0.0, 2022-05-17 16:20:25.612
89.0, 57478.94137846725, 24851.161223788407, -51122.28406933357, -12674.847266059789, 6656.282443557077, -18649.066227563173, 18160.032410625507, 22991.0266984733, -0.01, 1.018, -0.148, 192.0, 0.0, 0.0, 0.0, 0.0, 0.0, 0.0, 0.0, 0.0, 0.0, 1.6527972256122108E9, 0.0, 2022-05-17 16:20:25.612
90.0, 57473.241683631146, 24887.549863761647, -51084.62137992637, -12630.45670157155, 6664.150257605345, -18605.63678808651, 18190.83311448492, 23032.51153618235, -0.01, 1.018, -0.148, 192.0, 0.0, 0.0, 0.0, 0.0, 0.0, 0.0, 0.0, 0.0, 0.0, 1.6527972256122203E9, 0.0, 2022-05-17 16:20:25.612
91.0, 57519.934477798284, 24952.772254082236, -51028.42909436573, -12571.939834587554, 6720.56606061054, -18539.14034833197, 18245.41607444478, 23094.068240412267, -0.01, 1.018, -0.148, 192.0, 0.0, 0.0, 0.0, 0.0, 0.0, 0.0, 0.0, 0.0, 0.0, 1.6527972256122277E9, 0.0, 2022-05-17 16:20:25.612
92.0, 57547.96356534524, 24954.44863491638, -51031.71480080066, -12577.617177679203, 6743.498950421686, -18542.649572211456, 18248.098283779418, 23088.815580465267, -0.01, 1.018, -0.148, 192.0, 0.0, 0.0, 0.0, 0.0, 0.0, 0.0, 0.0, 0.0, 0.0, 1.6527972256122353E9, 0.0, 2022-05-17 16:20:25.612
93.0, 57509.071529993, 24886.298166072153, -51094.74672016463, -12642.280774388406, 6707.445586615275, -18613.504602134777, 18194.387041853315, 23025.537791912295, -0.01, 1.018, -0.148, 192.0, 0.0, 0.0, 0.0, 0.0, 0.0, 0.0, 0.0, 0.0, 0.0, 1.652797225612246E9, 0.0, 2022-05-17 16:20:25.612
94.0, 57452.834540943455, 24839.82888934957, -51142.89237772136, -12680.50225740698, 6661.713917459717, -18652.955431098395, 18156.813759423945, 22992.904245007547, -0.01, 1.018, -0.148, 192.0, 0.0, 0.0, 0.0, 0.0, 0.0, 0.0, 0.0, 0.0, 0.0, 1.6527972256122537E9, 0.0, 2022-05-17 16:20:25.612
95.0, 57444.162064094795, 24875.837549667067, -51105.11792959189, -12639.486806331493, 6654.784876678572, -18608.855439288072, 18178.964338179154, 23030.99161755939, -0.01, 1.018, -0.148, 192.0, 0.0, 0.0, 0.0, 0.0, 0.0, 0.0, 0.0, 0.0, 0.0, 1.6527972256122584E9, 0.0, 2022-05-17 16:20:25.612
96.0, 57501.8742682784, 24945.351474923074, -51037.72742005914, -12574.845561366745, 6702.639961557385, -18544.77298793471, 18231.71445509368, 23088.837932209724, -0.01, 1.018, -0.148, 192.0, 0.0, 0.0, 0.0, 0.0, 0.0, 0.0, 0.0, 0.0, 0.0, 1.6527972256122663E9, 0.0, 2022-05-17 16:20:25.612
97.0, 57540.699248397264, 24946.84904180158, -51030.95484148918, -12580.63466318067, 6731.138435737901, -18556.708819473843, 18236.631838873844, 23083.115885629166, -0.01, 1.018, -0.148, 192.0, 0.0, 0.0, 0.0, 0.0, 0.0, 0.0, 0.0, 0.0, 0.0, 1.6527972256122737E9, 0.0, 2022-05-17 16:20:25.612
98.0, 57519.174518486805, 24888.86861668451, -51086.16365029379, -12634.010628939943, 6701.969409223725, -18610.86709628905, 18191.704832518677, 23030.92456232602, -0.012, 1.016, -0.154, 192.0, 255.0, 160.0, 31.0, 192.0, 251.0, 48.0, 0.0, 0.0, 0.0, 1.6527972256122892E9, 0.0, 2022-05-17 16:20:25.612
99.0, 57464.502151549124, 24843.092244040043, -51135.471598562195, -12671.36039392476, 6645.643013196352, -18655.72704741085, 18145.190852307183, 22989.730297294893, -0.012, 1.016, -0.154, 192.0, 0.0, 0.0, 0.0, 0.0, 0.0, 0.0, 0.0, 0.0, 0.0, 1.6527972256123052E9, 0.0, 2022-05-17 16:20:25.612
100.0, 57463.451619559724, 24885.918186416413, -51096.84778414343, -12623.460605557038, 6660.573978492496, -18610.77768931123, 18176.79621896699, 23035.32785598372, -0.012, 1.016, -0.154, 192.0, 0.0, 0.0, 0.0, 0.0, 0.0, 0.0, 0.0, 0.0, 0.0, 1.6527972256123164E9, 0.0, 2022-05-17 16:20:25.612
101.0, 57502.34365491196, 24945.284419689706, -51043.22594919514, -12564.563758917304, 6712.89941226237, -18552.35022930506, 18234.79899582851, 23095.29758635731, -0.012, 1.016, -0.154, 192.0, 0.0, 0.0, 0.0, 0.0, 0.0, 0.0, 0.0, 0.0, 0.0, 1.6527972256123261E9, 0.0, 2022-05-17 16:20:25.612
102.0, 57525.70122786775, 24937.349550408075, -51043.78474280653, -12579.96411084701, 6731.607822371462, -18559.86041544204, 18233.07791150545, 23083.674679240547, -0.012, 1.016, -0.154, 192.0, 0.0, 0.0, 0.0, 0.0, 0.0, 0.0, 0.0, 0.0, 0.0, 1.6527972256123345E9, 0.0, 2022-05-17 16:20:25.612
103.0, 57511.01613176062, 24888.756857962235, -51086.23070552715, -12635.754065007457, 6706.909144748348, -18613.996340512793, 18188.463829572658, 23030.07519603672, -0.012, 1.016, -0.154, 192.0, 0.0, 0.0, 0.0, 0.0, 0.0, 0.0, 0.0, 0.0, 0.0, 1.652797225612344E9, 0.0, 2022-05-17 16:20:25.612
104.0, 57459.42830555777, 24844.142776029443, -51127.581432769475, -12679.295263206395, 6655.298966801044, -18652.955431098395, 18143.87209938432, 22988.724468794404, -0.012, 1.016, -0.154, 192.0, 0.0, 0.0, 0.0, 0.0, 0.0, 0.0, 0.0, 0.0, 0.0, 1.65279722561235E9, 0.0, 2022-05-17 16:20:25.612
105.0, 57450.04057288654, 24875.614032222515, -51098.68062718876, -12638.391570853182, 6653.1084958444235, -18619.137241737513, 18164.569814749935, 23022.252085477365, -0.012, 1.016, -0.154, 192.0, 0.0, 0.0, 0.0, 0.0, 0.0, 0.0, 0.0, 0.0, 0.0, 1.6527972256123574E9, 0.0, 2022-05-17 16:20:25.612
106.0, 57498.45445137673, 24939.294152175684, -51041.43780963872, -12574.644395666648, 6700.024807456113, -18547.455197269344, 18216.805841541987, 23084.23347285193, -0.012, 1.016, -0.154, 192.0, 0.0, 0.0, 0.0, 0.0, 0.0, 0.0, 0.0, 0.0, 0.0, 1.6527972260909908E9, 0.0, 2022-05-17 16:20:26.090
107.0, 57536.13949252838, 24945.59734411208, -51034.039382224015, -12573.303290999329, 6733.887700305903, -18548.19280483637, 18228.31698993647, 23089.642595010115, -0.01, 1.01, -0.152, 192.0, 255.0, 176.0, 31.0, 144.0, 251.0, 64.0, 0.0, 0.0, 0.0, 1.6527972260911071E9, 0.0, 2022-05-17 16:20:26.091
108.0, 57518.23574521968, 24890.7238114743, -51085.09076655994, -12633.138910906186, 6704.673970302817, -18616.365625425056, 18177.46677130065, 23035.32785598372, -0.01, 1.01, -0.152, 192.0, 0.0, 0.0, 0.0, 0.0, 0.0, 0.0, 0.0, 0.0, 0.0, 1.6527972260911188E9, 0.0, 2022-05-17 16:20:26.091
109.0, 57463.451619559724, 24837.951342815322, -51123.379304811875, -12674.713155593057, 6655.41072552332, -18660.912652124483, 18136.339561502882, 22994.960605497436, -0.01, 1.01, -0.152, 192.0, 0.0, 0.0, 0.0, 0.0, 0.0, 0.0, 0.0, 0.0, 0.0, 1.6527972260911975E9, 0.0, 2022-05-17 16:20:26.091
110.0, 57452.342802565436, 24868.237956552264, -51105.900240647825, -12640.671448787625, 6658.65172846934, -18620.41129117147, 18161.462922270646, 23029.426995447517, -0.01, 1.01, -0.152, 192.0, 0.0, 0.0, 0.0, 0.0, 0.0, 0.0, 0.0, 0.0, 0.0, 1.6527972260912025E9, 0.0, 2022-05-17 16:20:26.091
111.0, 57500.153183955335, 24936.522535863227, -51043.38241140633, -12576.365479989707, 6702.192926668278, -18552.10436011605, 18216.425861886248, 23089.32967058774, -0.01, 1.01, -0.152, 192.0, 0.0, 0.0, 0.0, 0.0, 0.0, 0.0, 0.0, 0.0, 0.0, 1.6527972260912075E9, 0.0, 2022-05-17 16:20:26.091
112.0, 57531.08799828148, 24941.439919643395, -51038.353268903884, -12573.079773554777, 6730.266717704144, -18543.878918156497, 18228.13817598083, 23094.38116483464, -0.01, 1.01, -0.152, 192.0, 0.0, 0.0, 0.0, 0.0, 0.0, 0.0, 0.0, 0.0, 0.0, 1.652797226091212E9, 0.0, 2022-05-17 16:20:26.091
113.0, 57508.758605570634, 24882.028982881187, -51097.13835682134, -12640.40322785416, 6708.5184703491295, -18609.414232899457, 18180.97599518013, 23037.630085662615, -0.01, 1.01, -0.152, 192.0, 0.0, 0.0, 0.0, 0.0, 0.0, 0.0, 0.0, 0.0, 0.0, 1.6527972260912163E9, 0.0, 2022-05-17 16:20:26.091
114.0, 57450.26409033109, 24831.268171223186, -51147.94387196826, -12682.312748707862, 6649.487513242664, -18661.06911433567, 18127.778843376498, 22989.573835083705, -0.01, 1.01, -0.152, 192.0, 0.0, 0.0, 0.0, 0.0, 0.0, 0.0, 0.0, 0.0, 0.0, 1.652797226091221E9, 0.0, 2022-05-17 16:20:26.091
115.0, 57441.09987510442, 24865.041657095153, -51109.09654010493, -12640.40322785416, 6635.875300869382, -18624.45695691788, 18145.749645918568, 23020.9333325545, -0.01, 1.01, -0.152, 192.0, 0.0, 0.0, 0.0, 0.0, 0.0, 0.0, 0.0, 0.0, 0.0, 1.6527972260912256E9, 0.0, 2022-05-17 16:20:26.091
116.0, 57485.73630878166, 24933.46034687285, -51048.54566437551, -12573.660918910613, 6687.507830561141, -18557.088799129582, 18202.232504157128, 23086.04396415281, -0.01, 1.01, -0.152, 192.0, 0.0, 0.0, 0.0, 0.0, 0.0, 0.0, 0.0, 0.0, 0.0, 1.65279722609123E9, 0.0, 2022-05-17 16:20:26.091
117.0, 57531.66914363732, 24948.74894008028, -51024.6963530417, -12567.983575818966, 6733.440665416797, -18546.270554813214, 18222.058501488984, 23097.085725913734, -0.01, 1.014, -0.15, 192.0, 255.0, 176.0, 31.0, 176.0, 251.0, 80.0, 0.0, 0.0, 0.0, 1.6527972260912347E9, 0.0, 2022-05-17 16:20:26.091
118.0, 57507.19398345876, 24885.180578849388, -51084.28610375954, -12635.910527218644, 6702.774072024116, -18612.141145723002, 18169.129570618818, 23038.479451951916, -0.01, 1.014, -0.15, 192.0, 0.0, 0.0, 0.0, 0.0, 0.0, 0.0, 0.0, 0.0, 0.0, 1.6527972260912392E9, 0.0, 2022-05-17 16:20:26.091
119.0, 57455.762619467096, 24839.381854460462, -51126.0168106576, -12675.584873626814, 6651.499170243642, -18657.872814878563, 18126.25892475354, 23003.431916645994, -0.01, 1.014, -0.15, 192.0, 0.0, 0.0, 0.0, 0.0, 0.0, 0.0, 0.0, 0.0, 0.0, 1.6527972260912435E9, 0.0, 2022-05-17 16:20:26.091
120.0, 57439.73641869264, 24870.093151342055, -51108.87302266038, -12638.97271620902, 6655.74600169015, -18609.995378255295, 18155.964393134644, 23035.998408317377, -0.01, 1.014, -0.15, 192.0, 0.0, 0.0, 0.0, 0.0, 0.0, 0.0, 0.0, 0.0, 0.0, 1.652797226091248E9, 0.0, 2022-05-17 16:20:26.091
121.0, 57488.217352416206, 24940.545849865182, -51039.627318337836, -12574.286767755362, 6712.631191328906, -18531.18312730588, 18221.74557706661, 23104.394746350616, -0.01, 1.014, -0.15, 192.0, 0.0, 0.0, 0.0, 0.0, 0.0, 0.0, 0.0, 0.0, 0.0, 1.6527972260912523E9, 0.0, 2022-05-17 16:20:26.091
122.0, 57523.019018533116, 24941.864602788046, -51026.32803038693, -12567.044802551844, 6742.940156810303, -18537.128691330992, 18228.31698993647, 23105.24411263992, -0.01, 1.014, -0.15, 192.0, 0.0, 0.0, 0.0, 0.0, 0.0, 0.0, 0.0, 0.0, 0.0, 1.6527972260912573E9, 0.0, 2022-05-17 16:20:26.091
123.0, 57497.76154729862, 24883.392439292962, -51076.41828971128, -12624.645248013168, 6715.42515938582, -18605.234456686314, 18176.55034977798, 23043.75446364337, -0.01, 1.014, -0.15, 192.0, 0.0, 0.0, 0.0, 0.0, 0.0, 0.0, 0.0, 0.0, 0.0, 1.6527972260912619E9, 0.0, 2022-05-17 16:20:26.091
124.0, 57447.20190134071, 24846.377950474973, -51112.87398491788, -12660.855074030767, 6667.547722762552, -18642.15953852648, 18139.804081893457, 23008.12578298161, -0.01, 1.014, -0.15, 192.0, 0.0, 0.0, 0.0, 0.0, 0.0, 0.0, 0.0, 0.0, 0.0, 1.6527972260912664E9, 0.0, 2022-05-17 16:20:26.091
125.0, 57424.96191560769, 24870.316668786607, -51098.144185321835, -12629.562631793337, 6658.204693580234, -18607.62609334303, 18158.534843747002, 23043.530946198814, -0.01, 1.014, -0.15, 192.0, 0.0, 0.0, 0.0, 0.0, 0.0, 0.0, 0.0, 0.0, 0.0, 1.6527972260912707E9, 0.0, 2022-05-17 16:20:26.091
126.0, 57458.33307007946, 24920.36222462204, -51049.61854810936, -12577.684232912568, 6699.80129001156, -18548.639839725478, 18201.87487624584, 23096.52693230235, -0.01, 1.014, -0.15, 192.0, 0.0, 0.0, 0.0, 0.0, 0.0, 0.0, 0.0, 0.0, 0.0, 1.6527972260912752E9, 0.0, 2022-05-17 16:20:26.091
127.0, 57487.300930893536, 24922.619750812024, -51043.56122536198, -12579.67353816909, 6733.641831116895, -18543.945973389862, 18209.720338549654, 23095.409345079584, -0.01, 1.014, -0.14200000000000002, 192.0, 255.0, 176.0, 31.0, 176.0, 251.0, 144.0, 0.0, 0.0, 0.0, 1.6527972260912797E9, 0.0, 2022-05-17 16:20:26.091
128.0, 57462.17757012577, 24860.079569826077, -51094.45614748671, -12647.354620379761, 6710.284258161099, -18605.7932502977, 18162.468750771135, 23036.69131239549, -0.01, 1.014, -0.14200000000000002, 192.0, 0.0, 0.0, 0.0, 0.0, 0.0, 0.0, 0.0, 0.0, 0.0, 1.6527972260912917E9, 0.0, 2022-05-17 16:20:26.091
129.0, 57411.48381370113, 24811.129249468955, -51136.9691654407, -12693.734490124523, 6645.866530640904, -18663.617213203575, 18113.004340291543, 22989.9761664839, -0.01, 1.014, -0.14200000000000002, 192.0, 0.0, 0.0, 0.0, 0.0, 0.0, 0.0, 0.0, 0.0, 0.0, 1.652797226091296E9, 0.0, 2022-05-17 16:20:26.091
130.0, 57401.89491532981, 24845.819156863592, -51110.70586570571, -12649.612146569747, 6640.636222438362, -18630.4472244319, 18133.746759146066, 23026.744786112882, -0.01, 1.014, -0.14200000000000002, 192.0, 0.0, 0.0, 0.0, 0.0, 0.0, 0.0, 0.0, 0.0, 0.0, 1.6527972260913005E9, 0.0, 2022-05-17 16:20:26.091
131.0, 57435.489587246135, 24906.97352969331, -51065.10830701689, -12590.335320274273, 6687.3290166054985, -18563.459046299344, 18184.664033015255, 23087.027440908845, -0.01, 1.014, -0.14200000000000002, 192.0, 0.0, 0.0, 0.0, 0.0, 0.0, 0.0, 0.0, 0.0, 0.0, 1.652797226091305E9, 0.0, 2022-05-17 16:20:26.091
132.0, 57489.312587894514, 24930.9345997494, -51037.63801308132, -12573.325642743785, 6738.514511408152, -18548.01399088073, 18207.708681548676, 23099.47736257045, -0.01, 1.014, -0.14200000000000002, 192.0, 0.0, 0.0, 0.0, 0.0, 0.0, 0.0, 0.0, 0.0, 0.0, 1.6527972260913093E9, 0.0, 2022-05-17 16:20:26.091
133.0, 57471.43119233027, 24875.368163033505, -51087.504754961104, -12630.769625993924, 6711.245383172677, -18605.055642730673, 18160.948832148177, 23041.9886758314, -0.01, 1.014, -0.14200000000000002, 192.0, 0.0, 0.0, 0.0, 0.0, 0.0, 0.0, 0.0, 0.0, 0.0, 1.652797226091314E9, 0.0, 2022-05-17 16:20:26.091
134.0, 57411.19324102322, 24823.310950197098, -51122.73110422267, -12680.166981240152, 6657.869417413404, -18648.775654885252, 18117.429985693692, 23000.45913463344, -0.01, 1.014, -0.14200000000000002, 192.0, 0.0, 0.0, 0.0, 0.0, 0.0, 0.0, 0.0, 0.0, 0.0, 1.6527972260913184E9, 0.0, 2022-05-17 16:20:26.091
135.0, 57385.66754885526, 24845.997970819233, -51113.097502362434, -12640.626745298714, 6647.341745774955, -18612.901105034485, 18136.473671969616, 23031.61746640414, -0.01, 1.014, -0.14200000000000002, 192.0, 0.0, 0.0, 0.0, 0.0, 0.0, 0.0, 0.0, 0.0, 0.0, 1.652797226091323E9, 0.0, 2022-05-17 16:20:26.091
136.0, 57432.44975000021, 24919.31169263264, -51048.299795186496, -12566.195436262542, 6692.46991783022, -18543.744807689764, 18197.963320966162, 23097.778629991848, -0.01, 1.014, -0.14200000000000002, 192.0, 0.0, 0.0, 0.0, 0.0, 0.0, 0.0, 0.0, 0.0, 0.0, 1.6527972260913277E9, 0.0, 2022-05-17 16:20:26.091
137.0, 57481.37771861288, 24938.713006819846, -51023.86933849685, -12556.718296613491, 6733.597127627984, -18539.18505182088, 18214.972998496654, 23107.56869406327, -0.008, 1.01, -0.14200000000000002, 192.0, 255.0, 192.0, 31.0, 144.0, 251.0, 144.0, 0.0, 0.0, 0.0, 1.652797226091332E9, 0.0, 2022-05-17 16:20:26.091
138.0, 57467.31847135049, 24881.850168925546, -51078.04996705651, -12625.092282902275, 6712.318266906532, -18602.641654329498, 18164.323945560925, 23053.902155626078, -0.008, 1.01, -0.14200000000000002, 192.0, 0.0, 0.0, 0.0, 0.0, 0.0, 0.0, 0.0, 0.0, 0.0, 1.6527972260913365E9, 0.0, 2022-05-17 16:20:26.091
139.0, 57417.33997074843, 24833.905677068913, -51123.75928446762, -12671.248635202484, 6661.691565715261, -18635.40931170098, 18117.519392671515, 23009.198666715463, -0.008, 1.01, -0.14200000000000002, 192.0, 0.0, 0.0, 0.0, 0.0, 0.0, 0.0, 0.0, 0.0, 0.0, 1.6527972260913408E9, 0.0, 2022-05-17 16:20:26.091
140.0, 57393.53536290352, 24853.44110172285, -51114.438607029755, -12646.639364557192, 6648.571091719997, -18609.593046855098, 18122.950866574152, 23025.60484714566, -0.008, 1.01, -0.14200000000000002, 192.0, 0.0, 0.0, 0.0, 0.0, 0.0, 0.0, 0.0, 0.0, 0.0, 1.6527972260913453E9, 0.0, 2022-05-17 16:20:26.091
141.0, 57439.02116287007, 24921.34570137807, -51048.500960886595, -12581.260512025417, 6696.604990554451, -18552.7302089608, 18177.98086142312, 23084.099362385197, -0.008, 1.01, -0.14200000000000002, 192.0, 0.0, 0.0, 0.0, 0.0, 0.0, 0.0, 0.0, 0.0, 0.0, 1.6527972260913498E9, 0.0, 2022-05-17 16:20:26.091
142.0, 57486.63037855988, 24938.578896353116, -51025.38925711981, -12564.854331595223, 6738.469807919241, -18547.99163913627, 18195.83990524291, 23094.403516579096, -0.008, 1.01, -0.14200000000000002, 192.0, 0.0, 0.0, 0.0, 0.0, 0.0, 0.0, 0.0, 0.0, 0.0, 1.6527972260913544E9, 0.0, 2022-05-17 16:20:26.091
143.0, 57447.514825763086, 24872.842415910058, -51091.81864164098, -12637.519852819427, 6701.812947012538, -18622.4452999169, 18137.524203959012, 23027.41533844654, -0.008, 1.01, -0.14200000000000002, 192.0, 0.0, 0.0, 0.0, 0.0, 0.0, 0.0, 0.0, 0.0, 0.0, 1.652797226091359E9, 0.0, 2022-05-17 16:20:26.091
144.0, 57392.9989210366, 24826.52960139866, -51132.320002593995, -12685.598455142792, 6645.441847496253, -18660.331506768645, 18089.892636524753, 22979.068515189712, -0.008, 1.01, -0.14200000000000002, 192.0, 0.0, 0.0, 0.0, 0.0, 0.0, 0.0, 0.0, 0.0, 0.0, 1.6527972260913632E9, 0.0, 2022-05-17 16:20:26.091
145.0, 57376.771554562045, 24850.960058088313, -51105.49790924763, -12652.473169860026, 6644.525425973586, -18626.088634263117, 18113.607837391835, 23011.769117327825, -0.008, 1.01, -0.14200000000000002, 192.0, 0.0, 0.0, 0.0, 0.0, 0.0, 0.0, 0.0, 0.0, 0.0, 1.6527972260913677E9, 0.0, 2022-05-17 16:20:26.091
146.0, 57405.582953164936, 24909.65573902795, -51059.140391247325, -12589.128326073685, 6686.256132871644, -18561.022706153715, 18162.69226821569, 23070.75537094538, -0.008, 1.01, -0.14200000000000002, 192.0, 0.0, 0.0, 0.0, 0.0, 0.0, 0.0, 0.0, 0.0, 0.0, 1.6527972260913725E9, 0.0, 2022-05-17 16:20:26.091
147.0, 57447.514825763086, 24934.332064906608, -51033.9946787351, -12572.543331687848, 6732.658354360861, -18551.76908394922, 18183.814666725953, 23087.65328975359, -0.012, 1.01, -0.14400000000000002, 192.0, 255.0, 160.0, 31.0, 144.0, 251.0, 128.0, 0.0, 0.0, 0.0, 1.6527972260913768E9, 0.0, 2022-05-17 16:20:26.091
148.0, 57436.42836051326, 24877.78215143468, -51077.669987400775, -12624.131157890697, 6713.726426807217, -18617.460860903368, 18144.29678252897, 23037.540678684793, -0.012, 1.01, -0.14400000000000002, 192.0, 0.0, 0.0, 0.0, 0.0, 0.0, 0.0, 0.0, 0.0, 0.0, 1.6527972260913813E9, 0.0, 2022-05-17 16:20:26.091
149.0, 57381.57717961993, 24815.71135708229, -51131.202415371234, -12673.707327092568, 6648.280519042078, -18662.92430912546, 18093.044232492954, 22988.568006583217, -0.012, 1.01, -0.14400000000000002, 192.0, 0.0, 0.0, 0.0, 0.0, 0.0, 0.0, 0.0, 0.0, 0.0, 1.6527972260913858E9, 0.0, 2022-05-17 16:20:26.091
150.0, 57370.758935303566, 24846.33324698606, -51103.039217357546, -12634.211794640041, 6638.356344503921, -18629.307285464678, 18110.903276312743, 23022.542658155282, -0.012, 1.01, -0.14400000000000002, 192.0, 0.0, 0.0, 0.0, 0.0, 0.0, 0.0, 0.0, 0.0, 0.0, 1.6527972260913904E9, 0.0, 2022-05-17 16:20:26.091
