%OpenBCI Raw EEG Data
%Number of channels = 8
%Sample Rate = 250 Hz
%Board = OpenBCI_GUI$BoardCytonSerial
Sample Index, EXG Channel 0, EXG Channel 1, EXG Channel 2, EXG Channel 3, EXG Channel 4, EXG Channel 5, EXG Channel 6, EXG Channel 7, Accel Channel 0, Accel Channel 1, Accel Channel 2, Other, Other, Other, Other, Other, Other, Other, Analog Channel 0, Analog Channel 1, Analog Channel 2, Timestamp, Other, Timestamp (Formatted)
0.0, 0.0, 0.0, 0.0, 0.0, 0.0, 0.0, 0.0, 0.0, 0.008, 0.778, 0.654, 192.0, 0.0, 64.0, 24.0, 80.0, 20.0, 112.0, 0.0, 0.0, 0.0, 1.6541567888813033E9, 0.0, 2022-06-02 09:59:48.881
1.0, 25520.752432436042, 9707.966114040151, -71521.44718425837, -52159.293253337535, -36006.62630875425, -44187.83416603019, -9438.739352075978, -45224.70923956743, 0.008, 0.778, 0.654, 192.0, 0.0, 0.0, 0.0, 0.0, 0.0, 0.0, 0.0, 0.0, 0.0, 1.6541567893592007E9, 0.0, 2022-06-02 09:59:49.359
2.0, 25515.879752144785, 9703.92044829374, -71524.44231801538, -52166.04348016304, -36009.196759366605, -44190.56107885374, -9427.228203681494, -45200.50230032233, 0.008, 0.778, 0.654, 192.0, 0.0, 0.0, 0.0, 0.0, 0.0, 0.0, 0.0, 0.0, 0.0, 1.6541567893592951E9, 0.0, 2022-06-02 09:59:49.359
3.0, 25535.504583776546, 9716.325666466435, -71489.9759280653, -52141.09893335091, -35979.58069796332, -44165.34831110815, -9378.747269957932, -45171.24386683034, 0.008, 0.778, 0.654, 192.0, 0.0, 0.0, 0.0, 0.0, 0.0, 0.0, 0.0, 0.0, 0.0, 1.6541567893593197E9, 0.0, 2022-06-02 09:59:49.359
4.0, 25534.38699655378, 9717.599715900387, -71471.20046272285, -52126.74911341061, -35958.793575619886, -44151.13260163458, -9367.683156452556, -45166.4605935169, 0.008, 0.778, 0.654, 192.0, 0.0, 0.0, 0.0, 0.0, 0.0, 0.0, 0.0, 0.0, 0.0, 1.65415678935933E9, 0.0, 2022-06-02 09:59:49.359
5.0, 25538.34325532237, 9727.680352649732, -71471.71455284531, -52123.86573837588, -35954.34557847328, -44147.64572949955, -9387.173877617584, -45180.51984077929, 0.008, 0.778, 0.654, 192.0, 0.0, 0.0, 0.0, 0.0, 0.0, 0.0, 0.0, 0.0, 0.0, 1.6541567893593376E9, 0.0, 2022-06-02 09:59:49.359
6.0, 25525.87098191631, 9718.851413589886, -71510.04779458616, -52157.683927736754, -35980.13949157471, -44175.40659611304, -9390.57134277479, -45187.27006760479, 0.008, 0.778, 0.654, 192.0, 0.0, 0.0, 0.0, 0.0, 0.0, 0.0, 0.0, 0.0, 0.0, 1.6541567893593452E9, 0.0, 2022-06-02 09:59:49.359
7.0, 25527.05562437244, 9715.968038555151, -71514.40638475494, -52164.23298886216, -35985.83918641081, -44183.833203772694, -9387.375043317681, -45178.776404711774, 0.008, 0.778, 0.654, 192.0, 0.0, 0.0, 0.0, 0.0, 0.0, 0.0, 0.0, 0.0, 0.0, 1.6541567893593535E9, 0.0, 2022-06-02 09:59:49.359
8.0, 25531.77184245251, 9716.929163566729, -71485.93026231889, -52144.92108165277, -35960.29114249839, -44170.28804663278, -9362.18462731655, -45158.168096323985, 0.012, 0.77, 0.658, 192.0, 0.0, 96.0, 24.0, 16.0, 20.0, 144.0, 0.0, 0.0, 0.0, 1.654156789359361E9, 0.0, 2022-06-02 09:59:49.359
9.0, 25533.04589188646, 9713.799919342986, -71472.18393947887, -52135.801569915006, -35947.483592925506, -44171.98677921138, -9361.335261027249, -45177.63646574455, 0.012, 0.77, 0.658, 192.0, 0.0, 0.0, 0.0, 0.0, 0.0, 0.0, 0.0, 0.0, 0.0, 1.6541567893593702E9, 0.0, 2022-06-02 09:59:49.359
10.0, 25531.883601174784, 9713.911678065262, -71492.30050948865, -52147.24566307612, -35967.13077630172, -44190.24815443136, -9405.323494115293, -45223.36813490011, 0.012, 0.77, 0.658, 192.0, 0.0, 0.0, 0.0, 0.0, 0.0, 0.0, 0.0, 0.0, 0.0, 1.654156789359384E9, 0.0, 2022-06-02 09:59:49.359
11.0, 25530.698958718654, 9712.414111186758, -71524.79994592666, -52171.49730581013, -35998.579680750336, -44216.354991955166, -9445.422523668114, -45250.4808009244, 0.012, 0.77, 0.658, 192.0, 0.0, 0.0, 0.0, 0.0, 0.0, 0.0, 0.0, 0.0, 0.0, 1.6541567893593953E9, 0.0, 2022-06-02 09:59:49.359
12.0, 25535.48223203209, 9716.325666466435, -71521.29072204718, -52171.02791917657, -36004.435837797624, -44212.0858087642, -9437.755875319943, -45219.90361450954, 0.012, 0.77, 0.658, 192.0, 0.0, 0.0, 0.0, 0.0, 0.0, 0.0, 0.0, 0.0, 0.0, 1.6541567893594103E9, 0.0, 2022-06-02 09:59:49.359
13.0, 25537.985627411086, 9719.611372901365, -71498.6260531695, -52152.36421255639, -35987.78378817842, -44186.11308170713, -9411.894906985153, -45189.818166472694, 0.012, 0.77, 0.658, 192.0, 0.0, 0.0, 0.0, 0.0, 0.0, 0.0, 0.0, 0.0, 0.0, 1.6541567893594272E9, 0.0, 2022-06-02 09:59:49.359
14.0, 25523.61345572632, 9706.759119839564, -71497.93314909139, -52151.09016312244, -35983.38049452072, -44186.068378218224, -9389.721976485489, -45192.25450661832, 0.012, 0.77, 0.658, 192.0, 0.0, 0.0, 0.0, 0.0, 0.0, 0.0, 0.0, 0.0, 0.0, 1.6541567893594408E9, 0.0, 2022-06-02 09:59:49.359
15.0, 25527.43560402818, 9715.476300177133, -71501.1294485485, -52148.63147123236, -35973.85865138276, -44185.55428809575, -9376.489743767946, -45187.47123330489, 0.012, 0.77, 0.658, 192.0, 0.0, 0.0, 0.0, 0.0, 0.0, 0.0, 0.0, 0.0, 0.0, 1.6541567893594527E9, 0.0, 2022-06-02 09:59:49.359
16.0, 25522.96525513712, 9714.604582143376, -71533.56182975315, -52172.70430001072, -36001.77598020744, -44207.883680806604, -9426.132968203185, -45230.90067278155, 0.012, 0.77, 0.658, 192.0, 0.0, 0.0, 0.0, 0.0, 0.0, 0.0, 0.0, 0.0, 0.0, 1.6541567893594718E9, 0.0, 2022-06-02 09:59:49.359
17.0, 25531.838897685873, 9723.098245036394, -71527.79507968368, -52166.93754994125, -36006.22397735405, -44204.97795402741, -9421.886136756675, -45210.85115800514, 0.008, 0.766, 0.656, 192.0, 0.0, 64.0, 23.0, 240.0, 20.0, 128.0, 0.0, 0.0, 0.0, 1.6541567893594837E9, 0.0, 2022-06-02 09:59:49.359
18.0, 25535.39282505427, 9725.78045437103, -71503.31991950511, -52144.07171536347, -35988.40963702317, -44177.395901369564, -9388.224409606983, -45178.776404711774, 0.008, 0.766, 0.656, 192.0, 0.0, 0.0, 0.0, 0.0, 0.0, 0.0, 0.0, 0.0, 0.0, 1.6541567893594944E9, 0.0, 2022-06-02 09:59:49.359
19.0, 25529.559019751432, 9715.789224599508, -71492.83695135558, -52137.50030249361, -35980.810043908365, -44170.55626756624, -9397.09805215574, -45193.64031477455, 0.008, 0.766, 0.656, 192.0, 0.0, 0.0, 0.0, 0.0, 0.0, 0.0, 0.0, 0.0, 0.0, 1.6541567893595047E9, 0.0, 2022-06-02 09:59:49.359
20.0, 25521.065356858417, 9704.434538416212, -71514.65225394396, -52157.14748586983, -35993.21526208106, -44189.19762244196, -9417.952229732542, -45219.054248220236, 0.008, 0.766, 0.656, 192.0, 0.0, 0.0, 0.0, 0.0, 0.0, 0.0, 0.0, 0.0, 0.0, 1.654156789359515E9, 0.0, 2022-06-02 09:59:49.359
21.0, 25508.727193919087, 9695.315026678447, -71551.46557706184, -52186.67414029529, -36017.51160830398, -44222.144093769086, -9438.6275933537, -45254.213542248435, 0.008, 0.766, 0.656, 192.0, 0.0, 0.0, 0.0, 0.0, 0.0, 0.0, 0.0, 0.0, 0.0, 1.6541567893595276E9, 0.0, 2022-06-02 09:59:49.359
22.0, 25499.741792648056, 9692.230485943614, -71554.39365558549, -52191.18919267526, -36035.59416956832, -44223.060515291756, -9461.96281456504, -45237.40503041804, 0.008, 0.766, 0.656, 192.0, 0.0, 0.0, 0.0, 0.0, 0.0, 0.0, 0.0, 0.0, 0.0, 1.654156789359576E9, 0.0, 2022-06-02 09:59:49.359
23.0, 25511.90114163174, 9703.361654682358, -71518.04971910117, -52168.256302864116, -36004.39113430872, -44200.84288130318, -9431.430331639092, -45210.40412311604, 0.008, 0.766, 0.656, 192.0, 0.0, 0.0, 0.0, 0.0, 0.0, 0.0, 0.0, 0.0, 0.0, 1.6541567893595903E9, 0.0, 2022-06-02 09:59:49.359
24.0, 25508.43662124117, 9697.10316623487, -71509.10902131903, -52163.137753383846, -35994.578718492834, -44203.43568366, -9430.24568918296, -45231.705335581944, 0.008, 0.766, 0.656, 192.0, 0.0, 0.0, 0.0, 0.0, 0.0, 0.0, 0.0, 0.0, 0.0, 1.6541567893596015E9, 0.0, 2022-06-02 09:59:49.359
25.0, 25515.499772489045, 9710.15658499677, -71505.1751142949, -52159.67323299328, -35986.621497466745, -44199.32296268022, -9408.676255783588, -45229.04547799176, 0.008, 0.766, 0.656, 192.0, 0.0, 0.0, 0.0, 0.0, 0.0, 0.0, 0.0, 0.0, 0.0, 1.6541567893596106E9, 0.0, 2022-06-02 09:59:49.359
26.0, 25513.75633642153, 9710.78243384152, -71528.86796341754, -52181.84616349294, -36002.53593951892, -44208.55423314026, -9416.700532043043, -45227.86083553563, 0.008, 0.766, 0.656, 192.0, 0.0, 0.0, 0.0, 0.0, 0.0, 0.0, 0.0, 0.0, 0.0, 1.6541567893596177E9, 0.0, 2022-06-02 09:59:49.359
27.0, 25511.007071853528, 9700.970018025639, -71529.89614366248, -52193.49142235416, -36010.537864033926, -44218.99249780089, -9415.985276220474, -45213.26514640632, 0.012, 0.772, 0.656, 192.0, 0.0, 96.0, 24.0, 32.0, 20.0, 128.0, 0.0, 0.0, 0.0, 1.6541567893596296E9, 0.0, 2022-06-02 09:59:49.359
28.0, 25510.515333475512, 9698.936009280207, -71514.18286731039, -52183.634303049366, -35996.053933626885, -44213.1363407536, -9412.565459318812, -45215.25445166283, 0.012, 0.772, 0.656, 192.0, 0.0, 0.0, 0.0, 0.0, 0.0, 0.0, 0.0, 0.0, 0.0, 1.6541567893596404E9, 0.0, 2022-06-02 09:59:49.359
29.0, 25520.081880102385, 9706.40149192828, -71487.96427106432, -52162.154276627814, -35974.28333452741, -44191.253982931856, -9408.609200550223, -45194.310867108215, 0.012, 0.772, 0.656, 192.0, 0.0, 0.0, 0.0, 0.0, 0.0, 0.0, 0.0, 0.0, 0.0, 1.6541567893596482E9, 0.0, 2022-06-02 09:59:49.359
30.0, 25519.008996368528, 9711.452986175178, -71494.20040776735, -52165.305872596015, -35972.629305437724, -44193.84678528867, -9405.368197604204, -45206.09023643616, 0.012, 0.772, 0.656, 192.0, 0.0, 0.0, 0.0, 0.0, 0.0, 0.0, 0.0, 0.0, 0.0, 1.654156789359656E9, 0.0, 2022-06-02 09:59:49.359
31.0, 25516.729118434087, 9714.358712954368, -71510.69599517537, -52184.14839317184, -35978.19488980709, -44203.99447727138, -9385.743365972445, -45212.88516675057, 0.012, 0.772, 0.656, 192.0, 0.0, 0.0, 0.0, 0.0, 0.0, 0.0, 0.0, 0.0, 0.0, 1.6541567893596632E9, 0.0, 2022-06-02 09:59:49.359
32.0, 25503.966272350106, 9695.87382028983, -71519.34612027957, -52199.057006723524, -35994.28814581491, -44219.618346645635, -9391.867743953198, -45216.7743702858, 0.012, 0.772, 0.656, 192.0, 0.0, 0.0, 0.0, 0.0, 0.0, 0.0, 0.0, 0.0, 0.0, 1.6541567893596704E9, 0.0, 2022-06-02 09:59:49.359
33.0, 25502.312243260414, 9689.749442309076, -71508.34906200756, -52189.51281184111, -35991.0471428689, -44216.489102421896, -9406.48578482697, -45225.15627445654, 0.012, 0.772, 0.656, 192.0, 0.0, 0.0, 0.0, 0.0, 0.0, 0.0, 0.0, 0.0, 0.0, 1.6541567893596792E9, 0.0, 2022-06-02 09:59:49.359
34.0, 25510.962368364617, 9698.086642990906, -71490.35590772104, -52169.508000553615, -35968.851860624774, -44200.41819815853, -9398.394453334147, -45222.20584418844, 0.012, 0.772, 0.656, 192.0, 0.0, 0.0, 0.0, 0.0, 0.0, 0.0, 0.0, 0.0, 0.0, 1.6541567893596876E9, 0.0, 2022-06-02 09:59:49.359
35.0, 25516.14797307825, 9706.915582050751, -71497.95550083584, -52164.27769235107, -35971.936401359606, -44200.55230862526, -9412.140776174161, -45239.61785311912, 0.012, 0.772, 0.656, 192.0, 0.0, 0.0, 0.0, 0.0, 0.0, 0.0, 0.0, 0.0, 0.0, 1.654156789359696E9, 0.0, 2022-06-02 09:59:49.359
36.0, 25515.924455633696, 9708.234334973615, -71528.2868180617, -52183.00845420462, -35996.85859642728, -44213.7845413428, -9436.593584608268, -45251.26311198033, 0.012, 0.772, 0.656, 192.0, 0.0, 0.0, 0.0, 0.0, 0.0, 0.0, 0.0, 0.0, 0.0, 1.6541567893597062E9, 0.0, 2022-06-02 09:59:49.359
37.0, 25512.616397454312, 9702.802861070975, -71535.6405419875, -52185.04246295005, -36001.41835229616, -44206.184948228, -9404.898810970642, -45203.29626837924, 0.012, 0.77, 0.654, 192.0, 0.0, 96.0, 24.0, 16.0, 20.0, 112.0, 0.0, 0.0, 0.0, 1.6541567893597162E9, 0.0, 2022-06-02 09:59:49.359
38.0, 25512.5716939654, 9698.332512179913, -71518.36264352353, -52172.65959652181, -35999.11612261726, -44195.70198007846, -9403.62476153669, -45190.89105020655, 0.012, 0.77, 0.654, 192.0, 0.0, 0.0, 0.0, 0.0, 0.0, 0.0, 0.0, 0.0, 0.0, 1.6541567893597252E9, 0.0, 2022-06-02 09:59:49.359
39.0, 25507.743717163055, 9699.003064513572, -71510.11484981953, -52164.52356154008, -35993.43877952561, -44193.24328818837, -9412.520755829903, -45206.269050391806, 0.012, 0.77, 0.654, 192.0, 0.0, 0.0, 0.0, 0.0, 0.0, 0.0, 0.0, 0.0, 0.0, 1.6541567893597343E9, 0.0, 2022-06-02 09:59:49.359
40.0, 25516.90793238973, 9715.58805889941, -71507.85732362955, -52154.666442235284, -35986.8450149113, -44180.59220082667, -9409.547973817345, -45207.07371319219, 0.012, 0.77, 0.654, 192.0, 0.0, 0.0, 0.0, 0.0, 0.0, 0.0, 0.0, 0.0, 0.0, 1.6541567893597453E9, 0.0, 2022-06-02 09:59:49.359
41.0, 25526.72034820561, 9724.171128770247, -71521.02250111372, -52163.96476792869, -35985.772131177444, -44185.17430844001, -9408.095110427752, -45210.09119869366, 0.012, 0.77, 0.654, 192.0, 0.0, 0.0, 0.0, 0.0, 0.0, 0.0, 0.0, 0.0, 0.0, 1.6541567893597536E9, 0.0, 2022-06-02 09:59:49.359
42.0, 25518.785478923975, 9708.994294285094, -71535.95346640986, -52185.08716643896, -36004.65935524218, -44212.622250631124, -9441.958003277541, -45247.39626018957, 0.012, 0.77, 0.654, 192.0, 0.0, 0.0, 0.0, 0.0, 0.0, 0.0, 0.0, 0.0, 0.0, 1.6541567893597696E9, 0.0, 2022-06-02 09:59:49.359
43.0, 25529.737833707077, 9718.806710100975, -71509.51135271923, -52165.75290748512, -35991.60593648028, -44196.14901496757, -9424.568346091311, -45230.74421057037, 0.012, 0.77, 0.654, 192.0, 0.0, 0.0, 0.0, 0.0, 0.0, 0.0, 0.0, 0.0, 0.0, 1.6541567893597841E9, 0.0, 2022-06-02 09:59:49.359
44.0, 25523.077013859394, 9716.370369955346, -71500.4812479593, -52154.04059339054, -35987.33675328932, -44176.45712810244, -9417.840471010264, -45203.02804744578, 0.012, 0.77, 0.654, 192.0, 0.0, 0.0, 0.0, 0.0, 0.0, 0.0, 0.0, 0.0, 0.0, 1.654156789359794E9, 0.0, 2022-06-02 09:59:49.359
45.0, 25521.13241209178, 9718.091454278405, -71508.12554456301, -52159.002680659614, -35987.58262247832, -44172.567924567215, -9400.830793479776, -45203.34097186816, 0.012, 0.77, 0.654, 192.0, 0.0, 0.0, 0.0, 0.0, 0.0, 0.0, 0.0, 0.0, 0.0, 1.6541567893598037E9, 0.0, 2022-06-02 09:59:49.359
46.0, 25523.032310370483, 9720.885422335317, -71527.6833209614, -52175.25239887863, -35997.238576083015, -44179.988703726376, -9407.111633671717, -45203.18450965697, 0.012, 0.77, 0.654, 192.0, 0.0, 0.0, 0.0, 0.0, 0.0, 0.0, 0.0, 0.0, 0.0, 1.654156789359814E9, 0.0, 2022-06-02 09:59:49.359
47.0, 25518.070223101407, 9715.185727499214, -71536.24403908779, -52185.24362865015, -36011.83426521233, -44201.15580572555, -9438.381724164692, -45228.91136752503, 0.016, 0.762, 0.66, 192.0, 0.0, 128.0, 23.0, 208.0, 20.0, 160.0, 0.0, 0.0, 0.0, 1.6541567893598244E9, 0.0, 2022-06-02 09:59:49.359
48.0, 25513.309301532427, 9708.189631484704, -71526.72219594983, -52181.51088732611, -36006.15692212068, -44203.45803540445, -9426.557651347835, -45221.73645755488, 0.016, 0.762, 0.66, 192.0, 0.0, 0.0, 0.0, 0.0, 0.0, 0.0, 0.0, 0.0, 0.0, 1.6541567893598328E9, 0.0, 2022-06-02 09:59:49.359
49.0, 25517.109098089826, 9714.023436787538, -71506.56092245113, -52164.23298886216, -35994.109331859276, -44185.9789712404, -9424.009552479929, -45207.20782365892, 0.016, 0.762, 0.66, 192.0, 0.0, 0.0, 0.0, 0.0, 0.0, 0.0, 0.0, 0.0, 0.0, 1.6541567893598413E9, 0.0, 2022-06-02 09:59:49.359
50.0, 25523.546400492956, 9723.277058992036, -71499.11779154751, -52157.88509343685, -35981.12296833074, -44177.954694980945, -9388.514982284902, -45184.20787861441, 0.016, 0.762, 0.66, 192.0, 0.0, 0.0, 0.0, 0.0, 0.0, 0.0, 0.0, 0.0, 0.0, 1.6541567893598497E9, 0.0, 2022-06-02 09:59:49.359
51.0, 25532.889429675273, 9731.726018396143, -71516.46274524483, -52171.29614011003, -35989.70603820158, -44192.25981143234, -9407.983351705474, -45201.351666611634, 0.016, 0.762, 0.66, 192.0, 0.0, 0.0, 0.0, 0.0, 0.0, 0.0, 0.0, 0.0, 0.0, 1.6541567893598592E9, 0.0, 2022-06-02 09:59:49.359
52.0, 25533.649388986756, 9725.221660759647, -71526.74454769428, -52185.33303562797, -36003.76528546397, -44216.39969544407, -9446.271889957416, -45235.14750422806, 0.016, 0.762, 0.66, 192.0, 0.0, 0.0, 0.0, 0.0, 0.0, 0.0, 0.0, 0.0, 0.0, 1.654156789359867E9, 0.0, 2022-06-02 09:59:49.359
53.0, 25526.832106927886, 9717.823233344941, -71512.66294868743, -52177.48757332416, -35989.147244590196, -44213.02458203132, -9417.929877988086, -45226.76560005732, 0.016, 0.762, 0.66, 192.0, 0.0, 0.0, 0.0, 0.0, 0.0, 0.0, 0.0, 0.0, 0.0, 1.654156789359877E9, 0.0, 2022-06-02 09:59:49.359
54.0, 25523.032310370483, 9719.454910690178, -71506.24799802876, -52172.860762221906, -35988.007305622974, -44204.62032611613, -9392.180668375573, -45211.14173068306, 0.016, 0.762, 0.66, 192.0, 0.0, 0.0, 0.0, 0.0, 0.0, 0.0, 0.0, 0.0, 0.0, 1.6541567893598852E9, 0.0, 2022-06-02 09:59:49.359
55.0, 25527.994397639563, 9731.144873040304, -71513.82523939911, -52175.855895978915, -35994.55636674838, -44201.17815747001, -9410.732616273477, -45215.5226725963, 0.016, 0.762, 0.66, 192.0, 0.0, 0.0, 0.0, 0.0, 0.0, 0.0, 0.0, 0.0, 0.0, 1.654156789359896E9, 0.0, 2022-06-02 09:59:49.359
56.0, 25515.09744108885, 9716.482128677622, -71540.02148390072, -52203.10267246994, -36015.52230304746, -44228.17906477202, -9449.937576048085, -45254.370004459626, 0.016, 0.762, 0.66, 192.0, 0.0, 0.0, 0.0, 0.0, 0.0, 0.0, 0.0, 0.0, 0.0, 1.6541567893599052E9, 0.0, 2022-06-02 09:59:49.359
57.0, 25510.4706299866, 9706.714416350653, -71537.83101294411, -52200.4204631353, -36012.79539022391, -44225.47450369293, -9445.042544012374, -45246.43513517799, 0.014, 0.762, 0.658, 192.0, 0.0, 112.0, 23.0, 208.0, 20.0, 144.0, 0.0, 0.0, 0.0, 1.6541567893599188E9, 0.0, 2022-06-02 09:59:49.359
58.0, 25496.94782459114, 9695.136212722804, -71535.70759722085, -52200.264000924115, -36014.06943965786, -44226.50268393787, -9439.275793942905, -45239.953129285954, 0.014, 0.762, 0.658, 192.0, 0.0, 0.0, 0.0, 0.0, 0.0, 0.0, 0.0, 0.0, 0.0, 1.654156789359929E9, 0.0, 2022-06-02 09:59:49.359
59.0, 25483.626184895777, 9685.457907373657, -71526.09634710508, -52196.50890785562, -36005.06168664237, -44220.691230379496, -9417.616953565712, -45229.09018148067, 0.014, 0.762, 0.658, 192.0, 0.0, 0.0, 0.0, 0.0, 0.0, 0.0, 0.0, 0.0, 0.0, 1.6541567893599353E9, 0.0, 2022-06-02 09:59:49.359
60.0, 25484.85553084082, 9692.565762110444, -71523.10121334805, -52189.2669426521, -35994.936346404116, -44202.11693073713, -9407.513965071914, -45202.826881745685, 0.014, 0.762, 0.658, 192.0, 0.0, 0.0, 0.0, 0.0, 0.0, 0.0, 0.0, 0.0, 0.0, 1.654156789359941E9, 0.0, 2022-06-02 09:59:49.359
61.0, 25491.5163506885, 9702.802861070975, -71548.91747819394, -52210.65756209583, -36005.486369787024, -44223.395791458584, -9417.259325654428, -45243.81998107672, 0.014, 0.762, 0.658, 192.0, 0.0, 0.0, 0.0, 0.0, 0.0, 0.0, 0.0, 0.0, 0.0, 1.6541567893599465E9, 0.0, 2022-06-02 09:59:49.359
62.0, 25503.80981013892, 9709.217811729648, -71544.17890836942, -52210.45639639573, -36015.58935828082, -44220.31125072375, -9424.43423562458, -45228.10670472464, 0.014, 0.762, 0.658, 192.0, 0.0, 0.0, 0.0, 0.0, 0.0, 0.0, 0.0, 0.0, 0.0, 1.6541567893599522E9, 0.0, 2022-06-02 09:59:49.359
63.0, 25511.454106742636, 9707.407320428769, -71523.39178602598, -52193.983160732176, -36006.335736076326, -44204.17329122702, -9409.302104628337, -45195.964896197904, 0.014, 0.762, 0.658, 192.0, 0.0, 0.0, 0.0, 0.0, 0.0, 0.0, 0.0, 0.0, 0.0, 1.6541567893599584E9, 0.0, 2022-06-02 09:59:49.359
64.0, 25506.536722962468, 9705.149794238781, -71512.64059694298, -52184.394262360845, -35990.42129402415, -44195.299648678265, -9395.756947488422, -45197.46246307641, 0.014, 0.762, 0.658, 192.0, 0.0, 0.0, 0.0, 0.0, 0.0, 0.0, 0.0, 0.0, 0.0, 1.6541567893599708E9, 0.0, 2022-06-02 09:59:49.359
65.0, 25481.435713939158, 9690.196477198182, -71532.22072508583, -52202.14154745836, -35999.965488906564, -44212.286974464296, -9402.462470825014, -45229.470161136414, 0.014, 0.762, 0.658, 192.0, 0.0, 0.0, 0.0, 0.0, 0.0, 0.0, 0.0, 0.0, 0.0, 1.654156789359976E9, 0.0, 2022-06-02 09:59:49.359
66.0, 25479.289946471446, 9698.846602302385, -71552.42670207343, -52217.29603019906, -36012.616576268265, -44228.76021012786, -9424.076607713296, -45251.933664314, 0.014, 0.762, 0.658, 192.0, 0.0, 0.0, 0.0, 0.0, 0.0, 0.0, 0.0, 0.0, 0.0, 1.6541567893599815E9, 0.0, 2022-06-02 09:59:49.359
67.0, 25493.37154547829, 9706.82617507293, -71543.75422522477, -52211.97631501869, -36014.38236408024, -44230.97303282894, -9442.6285556112, -45256.33695797169, 0.012, 0.772, 0.658, 192.0, 0.0, 96.0, 24.0, 32.0, 20.0, 144.0, 0.0, 0.0, 0.0, 1.6541567893599875E9, 0.0, 2022-06-02 09:59:49.359
68.0, 25499.048888569938, 9706.78147158402, -71528.75620469525, -52200.30870441302, -36010.247291356005, -44224.111047281156, -9455.972547051018, -45251.24076023588, 0.012, 0.772, 0.658, 192.0, 0.0, 0.0, 0.0, 0.0, 0.0, 0.0, 0.0, 0.0, 0.0, 1.6541567893599927E9, 0.0, 2022-06-02 09:59:49.359
69.0, 25496.925472846684, 9706.334436694913, -71515.03223359969, -52189.75868103012, -35995.33867780431, -44217.96431755595, -9407.558668560823, -45223.14461745556, 0.012, 0.772, 0.658, 192.0, 0.0, 0.0, 0.0, 0.0, 0.0, 0.0, 0.0, 0.0, 0.0, 1.6541567893599985E9, 0.0, 2022-06-02 09:59:49.359
70.0, 25497.551321691433, 9705.887401805807, -71520.44135575788, -52191.85974500892, -35986.55444223338, -44216.71261986645, -9389.81138346331, -45206.269050391806, 0.012, 0.772, 0.658, 192.0, 0.0, 0.0, 0.0, 0.0, 0.0, 0.0, 0.0, 0.0, 0.0, 1.6541567893600056E9, 0.0, 2022-06-02 09:59:49.360
71.0, 25492.678641400176, 9703.249895960082, -71550.34798983908, -52214.949097031254, -36011.07430590085, -44235.46573346445, -9438.605241609244, -45243.10472525415, 0.012, 0.772, 0.658, 192.0, 0.0, 0.0, 0.0, 0.0, 0.0, 0.0, 0.0, 0.0, 0.0, 1.6541567893600113E9, 0.0, 2022-06-02 09:59:49.360
72.0, 25485.414324452202, 9696.790241812498, -71560.69684752189, -52228.293088471066, -36037.35995738029, -44261.72903319944, -9473.295149003881, -45275.00066459187, 0.012, 0.772, 0.658, 192.0, 0.0, 0.0, 0.0, 0.0, 0.0, 0.0, 0.0, 0.0, 0.0, 1.6541567893600173E9, 0.0, 2022-06-02 09:59:49.360
73.0, 25487.62714715328, 9696.3879104123, -71539.06035888915, -52210.16582371781, -36016.84105597032, -44245.09933532469, -9423.29429665736, -45235.125152483604, 0.012, 0.772, 0.658, 192.0, 0.0, 0.0, 0.0, 0.0, 0.0, 0.0, 0.0, 0.0, 0.0, 1.6541567893600233E9, 0.0, 2022-06-02 09:59:49.360
74.0, 25490.644632654745, 9699.561858124955, -71518.07207084562, -52189.71397754121, -35991.47182601355, -44226.59209091569, -9400.160241146117, -45220.52946335429, 0.012, 0.772, 0.658, 192.0, 0.0, 0.0, 0.0, 0.0, 0.0, 0.0, 0.0, 0.0, 0.0, 1.6541567893600292E9, 0.0, 2022-06-02 09:59:49.360
75.0, 25496.52314144649, 9706.602657628377, -71521.08955634708, -52187.00941646212, -35991.18125333563, -44226.16740777104, -9416.968752976509, -45239.84137056367, 0.012, 0.772, 0.658, 192.0, 0.0, 0.0, 0.0, 0.0, 0.0, 0.0, 0.0, 0.0, 0.0, 1.654156789360035E9, 0.0, 2022-06-02 09:59:49.360
76.0, 25495.47260945709, 9711.788262342008, -71548.89512644948, -52206.969524260705, -36011.87896870124, -44240.49487596689, -9442.33798293328, -45273.32428375772, 0.012, 0.772, 0.658, 192.0, 0.0, 0.0, 0.0, 0.0, 0.0, 0.0, 0.0, 0.0, 0.0, 1.654156789360041E9, 0.0, 2022-06-02 09:59:49.360
77.0, 25493.393897222748, 9709.508384407567, -71559.78042599923, -52216.15609123184, -36022.31723336187, -44246.21692254745, -9453.044468527374, -45267.15520228806, 0.012, 0.778, 0.664, 192.0, 0.0, 96.0, 24.0, 80.0, 20.0, 192.0, 0.0, 0.0, 0.0, 1.6541567893600473E9, 0.0, 2022-06-02 09:59:49.360
78.0, 25483.402667451224, 9695.359730167358, -71552.58316428462, -52216.066684254016, -36019.43385832714, -44237.92442535453, -9444.751971334455, -45237.82971356269, 0.012, 0.778, 0.664, 192.0, 0.0, 0.0, 0.0, 0.0, 0.0, 0.0, 0.0, 0.0, 0.0, 1.6541567893600533E9, 0.0, 2022-06-02 09:59:49.360
79.0, 25483.402667451224, 9696.991407512594, -71534.388844298, -52197.93941950076, -36005.5981285093, -44220.4900646794, -9416.164090176117, -45216.260280163326, 0.012, 0.778, 0.664, 192.0, 0.0, 0.0, 0.0, 0.0, 0.0, 0.0, 0.0, 0.0, 0.0, 1.6541567893600593E9, 0.0, 2022-06-02 09:59:49.360
80.0, 25501.641690926754, 9719.790186857008, -71522.47536450332, -52183.544896071544, -35991.18125333563, -44209.493006407385, -9410.19617440655, -45217.936660997475, 0.012, 0.778, 0.664, 192.0, 0.0, 0.0, 0.0, 0.0, 0.0, 0.0, 0.0, 0.0, 0.0, 1.6541567893600647E9, 0.0, 2022-06-02 09:59:49.360
81.0, 25509.330691019382, 9730.407265473279, -71534.90293442046, -52196.553611344534, -35994.8469394263, -44221.719410624435, -9416.320552387304, -45240.802495575255, 0.012, 0.778, 0.664, 192.0, 0.0, 0.0, 0.0, 0.0, 0.0, 0.0, 0.0, 0.0, 0.0, 1.654156789360072E9, 0.0, 2022-06-02 09:59:49.360
82.0, 25507.788420651963, 9723.746445625597, -71543.86598394703, -52205.293143426556, -36007.36391632127, -44229.74368688389, -9425.417712380615, -45235.77335307281, 0.012, 0.778, 0.664, 192.0, 0.0, 0.0, 0.0, 0.0, 0.0, 0.0, 0.0, 0.0, 0.0, 1.6541567893600776E9, 0.0, 2022-06-02 09:59:49.360
83.0, 25501.731097904576, 9711.631800130821, -71537.31692282164, -52204.08614922597, -36006.98393666553, -44220.668878635035, -9417.48284309898, -45210.29236439376, 0.012, 0.778, 0.664, 192.0, 0.0, 0.0, 0.0, 0.0, 0.0, 0.0, 0.0, 0.0, 0.0, 1.6541567893600843E9, 0.0, 2022-06-02 09:59:49.360
84.0, 25495.986699579564, 9706.78147158402, -71530.52199250723, -52199.057006723524, -36001.75362846299, -44217.316116966744, -9415.873517498198, -45209.51005333782, 0.012, 0.778, 0.664, 192.0, 0.0, 0.0, 0.0, 0.0, 0.0, 0.0, 0.0, 0.0, 0.0, 1.6541567893600907E9, 0.0, 2022-06-02 09:59:49.360
85.0, 25489.28117624297, 9711.318875708446, -71538.32275132212, -52200.01813173511, -36008.05682039938, -44221.89822458008, -9431.385628150181, -45234.38754491658, 0.012, 0.778, 0.664, 192.0, 0.0, 0.0, 0.0, 0.0, 0.0, 0.0, 0.0, 0.0, 0.0, 1.6541567893600972E9, 0.0, 2022-06-02 09:59:49.360
86.0, 25492.969214078097, 9719.186689756714, -71558.52872830973, -52215.55259413154, -36024.17242815166, -44238.28205326582, -9457.827741840809, -45266.462298209946, 0.012, 0.778, 0.664, 192.0, 0.0, 0.0, 0.0, 0.0, 0.0, 0.0, 0.0, 0.0, 0.0, 1.6541567893601077E9, 0.0, 2022-06-02 09:59:49.360
87.0, 25498.355984491824, 9720.527794424033, -71564.16136791246, -52218.07834125499, -36030.90030323271, -44244.719355668945, -9463.415677954636, -45267.95986508845, 0.018000000000000002, 0.774, 0.654, 192.0, 0.0, 144.0, 24.0, 48.0, 20.0, 112.0, 0.0, 0.0, 0.0, 1.654156789360114E9, 0.0, 2022-06-02 09:59:49.360
88.0, 25498.601853680833, 9722.427692702735, -71544.17890836942, -52198.654675323334, -36009.64379425571, -44221.49589317988, -9420.075645455796, -45230.14071347007, 0.018000000000000002, 0.774, 0.654, 192.0, 0.0, 0.0, 0.0, 0.0, 0.0, 0.0, 0.0, 0.0, 0.0, 1.6541567893601215E9, 0.0, 2022-06-02 09:59:49.360
89.0, 25495.562016434913, 9722.248878747092, -71529.09148086209, -52189.44575660775, -35998.31145981687, -44205.96143078345, -9403.937685959065, -45210.0688469492, 0.018000000000000002, 0.774, 0.654, 192.0, 0.0, 0.0, 0.0, 0.0, 0.0, 0.0, 0.0, 0.0, 0.0, 1.6541567893601277E9, 0.0, 2022-06-02 09:59:49.360
90.0, 25496.165513535205, 9725.244012504103, -71533.8300506866, -52185.48949783915, -35994.936346404116, -44198.13832022409, -9400.562572546312, -45195.42845433098, 0.018000000000000002, 0.774, 0.654, 192.0, 0.0, 0.0, 0.0, 0.0, 0.0, 0.0, 0.0, 0.0, 0.0, 1.6541567893601344E9, 0.0, 2022-06-02 09:59:49.360
91.0, 25490.421115210193, 9722.40534095828, -71565.27895513523, -52211.97631501869, -36025.4017740967, -44225.54155892629, -9453.826779583309, -45238.45556240744, 0.018000000000000002, 0.774, 0.654, 192.0, 0.0, 0.0, 0.0, 0.0, 0.0, 0.0, 0.0, 0.0, 0.0, 1.654156789360144E9, 0.0, 2022-06-02 09:59:49.360
92.0, 25494.489132701055, 9722.226527002636, -71566.35183886909, -52218.637134866374, -36030.520323576966, -44241.9924428454, -9437.040619497373, -45254.39235620408, 0.018000000000000002, 0.774, 0.654, 192.0, 0.0, 0.0, 0.0, 0.0, 0.0, 0.0, 0.0, 0.0, 0.0, 1.654156789360151E9, 0.0, 2022-06-02 09:59:49.360
93.0, 25495.941996090653, 9717.599715900387, -71547.28580084871, -52201.35923640242, -36011.76720997896, -44224.62513740363, -9402.417767336103, -45214.80741677373, 0.018000000000000002, 0.774, 0.654, 192.0, 0.0, 0.0, 0.0, 0.0, 0.0, 0.0, 0.0, 0.0, 0.0, 1.654156789360158E9, 0.0, 2022-06-02 09:59:49.360
94.0, 25493.37154547829, 9717.175032755737, -71532.55600125265, -52182.82964024897, -35998.69143947261, -44203.01100051535, -9402.685988269566, -45187.113605393606, 0.018000000000000002, 0.774, 0.654, 192.0, 0.0, 0.0, 0.0, 0.0, 0.0, 0.0, 0.0, 0.0, 0.0, 1.6541567893601694E9, 0.0, 2022-06-02 09:59:49.360
95.0, 25486.017821552494, 9717.934992067218, -71542.03314090171, -52191.25624790863, -36003.22884359704, -44220.44536119048, -9426.557651347835, -45231.25830069283, 0.018000000000000002, 0.774, 0.654, 192.0, 0.0, 0.0, 0.0, 0.0, 0.0, 0.0, 0.0, 0.0, 0.0, 1.6541567893601785E9, 0.0, 2022-06-02 09:59:49.360
96.0, 25478.977022049075, 9720.773663613041, -71565.74834176879, -52214.50206214214, -36026.49700957501, -44245.836942891714, -9466.343756478282, -45273.59250469119, 0.018000000000000002, 0.774, 0.654, 192.0, 0.0, 0.0, 0.0, 0.0, 0.0, 0.0, 0.0, 0.0, 0.0, 1.654156789360185E9, 0.0, 2022-06-02 09:59:49.360
97.0, 25476.160702247704, 9716.839756588908, -71569.1905104149, -52225.14149250287, -36034.163657923185, -44263.76304194487, -9454.92201506162, -45283.717844929444, 0.014, 0.776, 0.648, 192.0, 0.0, 112.0, 24.0, 64.0, 20.0, 64.0, 0.0, 0.0, 0.0, 1.6541567893601906E9, 0.0, 2022-06-02 09:59:49.360
98.0, 25485.86135934131, 9721.175995013236, -71546.19056537039, -52206.3213236715, -36018.763305993474, -44238.79614338829, -9443.410866667136, -45248.73736485688, 0.014, 0.776, 0.648, 192.0, 0.0, 0.0, 0.0, 0.0, 0.0, 0.0, 0.0, 0.0, 0.0, 1.6541567893601968E9, 0.0, 2022-06-02 09:59:49.360
99.0, 25479.960498805107, 9719.387855456813, -71533.71829196434, -52191.41271011981, -36007.654488999186, -44220.17714025702, -9426.982334492486, -45227.65966983553, 0.014, 0.776, 0.648, 192.0, 0.0, 0.0, 0.0, 0.0, 0.0, 0.0, 0.0, 0.0, 0.0, 1.6541567893602061E9, 0.0, 2022-06-02 09:59:49.360
100.0, 25474.864301069298, 9719.767835112552, -71538.81448970015, -52196.061872966515, -36007.229805854535, -44211.795236086284, -9412.565459318812, -45217.646088319554, 0.014, 0.776, 0.648, 192.0, 0.0, 0.0, 0.0, 0.0, 0.0, 0.0, 0.0, 0.0, 0.0, 1.6541567893602135E9, 0.0, 2022-06-02 09:59:49.360
101.0, 25478.731152860066, 9726.160434026771, -71556.27120211974, -52209.696437084254, -36021.66903277267, -44223.954585069965, -9435.654811341145, -45230.90067278155, 0.014, 0.776, 0.648, 192.0, 0.0, 0.0, 0.0, 0.0, 0.0, 0.0, 0.0, 0.0, 0.0, 1.6541567893602204E9, 0.0, 2022-06-02 09:59:49.360
102.0, 25488.09653378684, 9727.345076482901, -71556.27120211974, -52216.35725693194, -36030.56502706588, -44236.046878820285, -9452.418619682625, -45250.14552475757, 0.014, 0.776, 0.648, 192.0, 0.0, 0.0, 0.0, 0.0, 0.0, 0.0, 0.0, 0.0, 0.0, 1.6541567893602276E9, 0.0, 2022-06-02 09:59:49.360
103.0, 25489.57174892089, 9722.472396191644, -71540.15559436746, -52208.26592543911, -36022.94308220662, -44232.917634596546, -9435.028962496395, -45247.3292049562, 0.014, 0.776, 0.648, 192.0, 0.0, 0.0, 0.0, 0.0, 0.0, 0.0, 0.0, 0.0, 0.0, 1.6541567893602345E9, 0.0, 2022-06-02 09:59:49.360
104.0, 25496.61254842431, 9729.78141662853, -71519.74845167977, -52185.80242226153, -36004.726410475545, -44211.21409073044, -9408.788014505866, -45221.66940232151, 0.014, 0.776, 0.648, 192.0, 0.0, 0.0, 0.0, 0.0, 0.0, 0.0, 0.0, 0.0, 0.0, 1.6541567893602457E9, 0.0, 2022-06-02 09:59:49.360
105.0, 25499.47357171459, 9737.962155099172, -71516.5298004782, -52177.77814600208, -35995.11516035976, -44196.37253241212, -9396.7180725, -45205.28557363577, 0.014, 0.776, 0.648, 192.0, 0.0, 0.0, 0.0, 0.0, 0.0, 0.0, 0.0, 0.0, 0.0, 1.6541567893602548E9, 0.0, 2022-06-02 09:59:49.360
106.0, 25507.654310185233, 9749.629765704844, -71530.58904774059, -52186.562381573014, -36006.045163398405, -44204.64267786058, -9419.561555333323, -45231.03478324828, 0.008, 0.77, 0.648, 192.0, 0.0, 64.0, 24.0, 16.0, 20.0, 64.0, 0.0, 0.0, 0.0, 1.6541567893602629E9, 0.0, 2022-06-02 09:59:49.360
107.0, 25502.84868512734, 9742.074876078948, -71541.96608566835, -52196.28539041107, -36021.31140486138, -44222.836997847204, -9431.564442105824, -45246.4798386669, 0.008, 0.77, 0.648, 192.0, 0.0, 0.0, 0.0, 0.0, 0.0, 0.0, 0.0, 0.0, 0.0, 1.6541567893602755E9, 0.0, 2022-06-02 09:59:49.360
108.0, 25494.690298401154, 9729.580250928433, -71535.39467279849, -52191.14448918635, -36011.923672190154, -44224.69219263699, -9423.808386779832, -45238.72378334091, 0.008, 0.77, 0.648, 192.0, 0.0, 0.0, 0.0, 0.0, 0.0, 0.0, 0.0, 0.0, 0.0, 1.6541567893602808E9, 0.0, 2022-06-02 09:59:49.360
109.0, 25486.777780863977, 9718.560840911967, -71525.69401570488, -52189.13283218537, -36007.43097155463, -44216.824378588724, -9424.300125157848, -45233.71699258292, 0.008, 0.77, 0.648, 192.0, 0.0, 0.0, 0.0, 0.0, 0.0, 0.0, 0.0, 0.0, 0.0, 1.6541567893602862E9, 0.0, 2022-06-02 09:59:49.360
110.0, 25476.764199348, 9713.799919342986, -71538.61332400005, -52198.654675323334, -36017.17633213715, -44219.350125712175, -9450.183445237095, -45251.79955384726, 0.008, 0.77, 0.648, 192.0, 0.0, 0.0, 0.0, 0.0, 0.0, 0.0, 0.0, 0.0, 0.0, 1.6541567893602915E9, 0.0, 2022-06-02 09:59:49.360
111.0, 25484.699068629634, 9724.819329359452, -71550.41504507244, -52202.923858514296, -36022.406640339694, -44227.50851243836, -9426.892927514664, -45250.6819666245, 0.008, 0.77, 0.648, 192.0, 0.0, 0.0, 0.0, 0.0, 0.0, 0.0, 0.0, 0.0, 0.0, 1.6541567893603013E9, 0.0, 2022-06-02 09:59:49.360
112.0, 25498.95948159212, 9737.895099865807, -71544.82710895862, -52197.31357065601, -36027.12285841976, -44230.950681084476, -9433.643154340167, -45244.848161321665, 0.008, 0.77, 0.648, 192.0, 0.0, 0.0, 0.0, 0.0, 0.0, 0.0, 0.0, 0.0, 0.0, 1.6541567893603082E9, 0.0, 2022-06-02 09:59:49.360
113.0, 25493.907987345217, 9729.356733483879, -71529.27029481773, -52195.59248633296, -36022.831323484344, -44230.101314795174, -9434.648982840656, -45243.99879503236, 0.008, 0.77, 0.648, 192.0, 0.0, 0.0, 0.0, 0.0, 0.0, 0.0, 0.0, 0.0, 0.0, 1.6541567893603194E9, 0.0, 2022-06-02 09:59:49.360
114.0, 25493.304490244926, 9728.552070683489, -71507.61145444053, -52178.91808496929, -36004.793465708906, -44213.203395986966, -9415.426482609091, -45224.75394305634, 0.008, 0.77, 0.648, 192.0, 0.0, 0.0, 0.0, 0.0, 0.0, 0.0, 0.0, 0.0, 0.0, 1.654156789360326E9, 0.0, 2022-06-02 09:59:49.360
115.0, 25500.99349033755, 9738.610355688377, -71508.95255910786, -52176.705262268224, -36000.36782030676, -44207.950736039966, -9422.6237443237, -45229.80543730324, 0.008, 0.77, 0.648, 192.0, 0.0, 0.0, 0.0, 0.0, 0.0, 0.0, 0.0, 0.0, 0.0, 1.654156789360332E9, 0.0, 2022-06-02 09:59:49.360
116.0, 25504.614472939313, 9742.231338290136, -71539.86502168955, -52198.05117822304, -36019.65737577169, -44233.52113169684, -9469.271835001926, -45288.27760079833, 0.01, 0.77, 0.652, 192.0, 0.0, 80.0, 24.0, 16.0, 20.0, 96.0, 0.0, 0.0, 0.0, 1.6541567893603384E9, 0.0, 2022-06-02 09:59:49.360
117.0, 25493.483304200567, 9726.786282871519, -71555.24302187479, -52213.697399341756, -36030.81089625489, -44256.27520755234, -9448.01532602493, -45281.08033908372, 0.01, 0.77, 0.652, 192.0, 0.0, 0.0, 0.0, 0.0, 0.0, 0.0, 0.0, 0.0, 0.0, 1.6541567893603456E9, 0.0, 2022-06-02 09:59:49.360
118.0, 25490.354059976824, 9722.964134569662, -71538.07688213311, -52196.03952122206, -36019.03152692694, -44232.068268307245, -9414.845337253253, -45215.74619004085, 0.01, 0.77, 0.652, 192.0, 0.0, 0.0, 0.0, 0.0, 0.0, 0.0, 0.0, 0.0, 0.0, 1.6541567893603528E9, 0.0, 2022-06-02 09:59:49.360
119.0, 25486.867187841795, 9718.359675211868, -71526.05164361616, -52183.544896071544, -36014.38236408024, -44231.21890201794, -9425.551822847347, -45234.09697223866, 0.01, 0.77, 0.652, 192.0, 0.0, 0.0, 0.0, 0.0, 0.0, 0.0, 0.0, 0.0, 0.0, 1.6541567893603597E9, 0.0, 2022-06-02 09:59:49.360
120.0, 25506.424964240192, 9738.856224877385, -71509.06431783013, -52170.02209067608, -35998.13264586123, -44209.85063431867, -9430.715075816523, -45228.03964949127, 0.01, 0.77, 0.652, 192.0, 0.0, 0.0, 0.0, 0.0, 0.0, 0.0, 0.0, 0.0, 0.0, 1.654156789360366E9, 0.0, 2022-06-02 09:59:49.360
121.0, 25515.320958533404, 9746.388762758823, -71529.5832192401, -52194.43019562128, -36013.667108257665, -44225.34039322619, -9437.331192175292, -45247.99975728986, 0.01, 0.77, 0.652, 192.0, 0.0, 0.0, 0.0, 0.0, 0.0, 0.0, 0.0, 0.0, 0.0, 1.6541567898402128E9, 0.0, 2022-06-02 09:59:49.840
122.0, 25505.888522373265, 9742.320745267958, -71534.880582676, -52191.90444849783, -36018.53978854892, -44238.68438466601, -9408.788014505866, -45241.42834442, 0.01, 0.77, 0.652, 192.0, 0.0, 0.0, 0.0, 0.0, 0.0, 0.0, 0.0, 0.0, 0.0, 1.6541567898403873E9, 0.0, 2022-06-02 09:59:49.840
123.0, 25495.986699579564, 9736.956326598684, -71520.46370750233, -52184.97540771669, -36016.03639316993, -44231.06243980675, -9431.787959550376, -45240.75779208634, 0.01, 0.77, 0.652, 192.0, 0.0, 0.0, 0.0, 0.0, 0.0, 0.0, 0.0, 0.0, 0.0, 1.6541567898403952E9, 0.0, 2022-06-02 09:59:49.840
124.0, 25487.67185064219, 9728.954402083684, -71516.70861443384, -52186.361215872916, -36014.96350943607, -44228.96137582796, -9446.987145779985, -45243.99879503236, 0.01, 0.77, 0.652, 192.0, 0.0, 0.0, 0.0, 0.0, 0.0, 0.0, 0.0, 0.0, 0.0, 1.654156789840403E9, 0.0, 2022-06-02 09:59:49.840
125.0, 25499.33946124786, 9744.801788902496, -71523.0788616036, -52185.0648146945, -36014.427067569144, -44222.836997847204, -9448.954099292052, -45244.512885154836, 0.01, 0.77, 0.652, 192.0, 0.0, 0.0, 0.0, 0.0, 0.0, 0.0, 0.0, 0.0, 0.0, 1.6541567898404129E9, 0.0, 2022-06-02 09:59:49.840
126.0, 25499.071240314395, 9744.980602858139, -71536.66872223244, -52198.87819276789, -36018.919768204665, -44225.206282759464, -9445.44487541257, -45227.39144890207, 0.008, 0.77, 0.656, 192.0, 0.0, 64.0, 24.0, 16.0, 20.0, 128.0, 0.0, 0.0, 0.0, 1.65415678984042E9, 0.0, 2022-06-02 09:59:49.840
127.0, 25486.911891330707, 9724.305239236981, -71531.6842832189, -52188.90931474082, -36011.67780300114, -44224.80395135927, -9424.590697835767, -45214.56154758472, 0.008, 0.77, 0.656, 192.0, 0.0, 0.0, 0.0, 0.0, 0.0, 0.0, 0.0, 0.0, 0.0, 1.6541567898404272E9, 0.0, 2022-06-02 09:59:49.840
128.0, 25481.32395521688, 9716.057445532972, -71518.29558829017, -52181.13090767037, -36000.099599373294, -44224.40161995908, -9402.19424989155, -45223.524597111296, 0.008, 0.77, 0.656, 192.0, 0.0, 0.0, 0.0, 0.0, 0.0, 0.0, 0.0, 0.0, 0.0, 1.654156789840448E9, 0.0, 2022-06-02 09:59:49.840
129.0, 25477.255937726015, 9711.11771000835, -71508.66198642993, -52178.49340182464, -35989.54957599039, -44220.043029790286, -9401.747215002444, -45227.61496634662, 0.008, 0.77, 0.656, 192.0, 0.0, 0.0, 0.0, 0.0, 0.0, 0.0, 0.0, 0.0, 0.0, 1.6541567898404553E9, 0.0, 2022-06-02 09:59:49.840
130.0, 25463.219042208082, 9700.768852325542, -71519.83785865759, -52185.6683117948, -35991.36006729127, -44212.778712842315, -9401.14371790215, -45212.058152205725, 0.008, 0.77, 0.656, 192.0, 0.0, 0.0, 0.0, 0.0, 0.0, 0.0, 0.0, 0.0, 0.0, 1.6541567898404624E9, 0.0, 2022-06-02 09:59:49.840
131.0, 25459.66511483969, 9702.959323282163, -71552.29259160669, -52210.34463767346, -36008.45915179958, -44235.73395439792, -9434.358410162737, -45249.96671080193, 0.008, 0.77, 0.656, 192.0, 0.0, 0.0, 0.0, 0.0, 0.0, 0.0, 0.0, 0.0, 0.0, 1.6541567898404694E9, 0.0, 2022-06-02 09:59:49.840
132.0, 25455.239469437536, 9699.271285447036, -71568.9893447148, -52232.852844339955, -36029.045108442915, -44265.059443123275, -9450.630480126201, -45277.74992915987, 0.008, 0.77, 0.656, 192.0, 0.0, 0.0, 0.0, 0.0, 0.0, 0.0, 0.0, 0.0, 0.0, 1.6541567898404765E9, 0.0, 2022-06-02 09:59:49.840
133.0, 25457.787568305444, 9698.399567413278, -71543.93303918041, -52209.964658017714, -36020.663204272176, -44248.787373159816, -9430.91624151662, -45243.81998107672, 0.008, 0.77, 0.656, 192.0, 0.0, 0.0, 0.0, 0.0, 0.0, 0.0, 0.0, 0.0, 0.0, 1.6541567898404834E9, 0.0, 2022-06-02 09:59:49.840
134.0, 25463.531966630457, 9702.333474437413, -71527.0351203722, -52193.625532820886, -36002.558291263376, -44230.101314795174, -9420.410921622626, -45230.36423091462, 0.008, 0.77, 0.656, 192.0, 0.0, 0.0, 0.0, 0.0, 0.0, 0.0, 0.0, 0.0, 0.0, 1.6541567898404903E9, 0.0, 2022-06-02 09:59:49.840
135.0, 25480.04990578293, 9723.075893291938, -71511.94769286487, -52179.633340791865, -35982.66523869816, -44212.51049190885, -9392.80651722032, -45210.448826604945, 0.008, 0.77, 0.656, 192.0, 0.0, 0.0, 0.0, 0.0, 0.0, 0.0, 0.0, 0.0, 0.0, 1.6541567898404977E9, 0.0, 2022-06-02 09:59:49.840
136.0, 25477.39004819275, 9724.5958119149, -71541.00496065676, -52203.99674224815, -36006.15692212068, -44233.90111135258, -9415.471186098002, -45248.35738520115, 0.008, 0.774, 0.658, 192.0, 0.0, 64.0, 24.0, 48.0, 20.0, 144.0, 0.0, 0.0, 0.0, 1.654156789840505E9, 0.0, 2022-06-02 09:59:49.840
137.0, 25471.690353356644, 9718.87376533434, -71554.34895209658, -52225.81204483653, -36025.22296014106, -44248.87678013764, -9433.576099106802, -45260.00264406236, 0.008, 0.774, 0.658, 192.0, 0.0, 0.0, 0.0, 0.0, 0.0, 0.0, 0.0, 0.0, 0.0, 1.6541567898405118E9, 0.0, 2022-06-02 09:59:49.840
138.0, 25473.322030701882, 9720.572497912945, -71536.80283269916, -52212.423349907804, -36013.22007336856, -44236.672727665034, -9439.856939298743, -45245.98810028888, 0.008, 0.774, 0.658, 192.0, 0.0, 0.0, 0.0, 0.0, 0.0, 0.0, 0.0, 0.0, 0.0, 1.6541567898405187E9, 0.0, 2022-06-02 09:59:49.840
139.0, 25468.829330066364, 9718.002047300584, -71524.9340563934, -52194.385492132365, -36007.98976516602, -44223.08286703621, -9440.371029421214, -45237.293271695766, 0.008, 0.774, 0.658, 192.0, 0.0, 0.0, 0.0, 0.0, 0.0, 0.0, 0.0, 0.0, 0.0, 1.6541567898405263E9, 0.0, 2022-06-02 09:59:49.840
140.0, 25463.19669046363, 9718.337323467413, -71526.40927152745, -52191.25624790863, -36002.78180870793, -44224.15575077006, -9420.76854953391, -45243.95409154345, 0.008, 0.774, 0.658, 192.0, 0.0, 0.0, 0.0, 0.0, 0.0, 0.0, 0.0, 0.0, 0.0, 1.6541567898405344E9, 0.0, 2022-06-02 09:59:49.840
141.0, 25469.879862055765, 9731.323686995947, -71540.35676006756, -52199.16876544581, -36009.30851808888, -44229.09548629469, -9445.333116690292, -45266.8869813546, 0.008, 0.774, 0.658, 192.0, 0.0, 0.0, 0.0, 0.0, 0.0, 0.0, 0.0, 0.0, 0.0, 1.654156789840542E9, 0.0, 2022-06-02 09:59:49.840
142.0, 25469.23166146656, 9726.11573053786, -71551.24205961729, -52209.89760278435, -36029.64860554321, -44244.96522485796, -9462.767477365433, -45275.15712680306, 0.008, 0.774, 0.658, 192.0, 0.0, 0.0, 0.0, 0.0, 0.0, 0.0, 0.0, 0.0, 0.0, 1.6541567898405504E9, 0.0, 2022-06-02 09:59:49.840
143.0, 25475.400742936225, 9730.474320706644, -71526.90100990546, -52187.43409960677, -36009.12970413324, -44217.47257917793, -9401.94838070254, -45220.26124242083, 0.008, 0.774, 0.658, 192.0, 0.0, 0.0, 0.0, 0.0, 0.0, 0.0, 0.0, 0.0, 0.0, 1.654156789840557E9, 0.0, 2022-06-02 09:59:49.840
144.0, 25473.85847256881, 9730.787245129019, -71508.5278759632, -52169.39624183134, -35987.62732596723, -44191.92453526551, -9371.840580921244, -45177.43530004445, 0.008, 0.774, 0.658, 192.0, 0.0, 0.0, 0.0, 0.0, 0.0, 0.0, 0.0, 0.0, 0.0, 1.6541567898405635E9, 0.0, 2022-06-02 09:59:49.840
145.0, 25474.90900455821, 9732.508329452077, -71514.60755045504, -52174.85006747843, -35993.28231731443, -44200.55230862526, -9414.48770934197, -45217.73549529738, 0.008, 0.774, 0.658, 192.0, 0.0, 0.0, 0.0, 0.0, 0.0, 0.0, 0.0, 0.0, 0.0, 1.6541567898405716E9, 0.0, 2022-06-02 09:59:49.840
146.0, 25471.690353356644, 9733.178881785738, -71542.21195485735, -52201.49334686915, -36011.32017508986, -44230.16837002854, -9450.228148726004, -45270.03857732279, 0.006, 0.772, 0.66, 192.0, 0.0, 48.0, 24.0, 32.0, 20.0, 160.0, 0.0, 0.0, 0.0, 1.6541567898405797E9, 0.0, 2022-06-02 09:59:49.840
147.0, 25470.79628357843, 9728.395608472301, -71553.34312359609, -52212.46805339671, -36020.21616938307, -44238.214998032454, -9431.855014783743, -45268.742176144384, 0.006, 0.772, 0.66, 192.0, 0.0, 0.0, 0.0, 0.0, 0.0, 0.0, 0.0, 0.0, 0.0, 1.6541567898405907E9, 0.0, 2022-06-02 09:59:49.840
148.0, 25470.863338811796, 9723.21000375867, -71532.75716695275, -52196.79948053354, -36004.9499279201, -44209.202433729464, -9382.323549070781, -45191.852175218126, 0.006, 0.772, 0.66, 192.0, 0.0, 0.0, 0.0, 0.0, 0.0, 0.0, 0.0, 0.0, 0.0, 1.6541567898405993E9, 0.0, 2022-06-02 09:59:49.840
149.0, 25474.439617924647, 9726.20513751568, -71517.02153885622, -52184.93070422777, -35991.94121264711, -44203.70390459346, -9380.133078114162, -45204.99500095785, 0.006, 0.772, 0.66, 192.0, 0.0, 0.0, 0.0, 0.0, 0.0, 0.0, 0.0, 0.0, 0.0, 1.654156789840606E9, 0.0, 2022-06-02 09:59:49.840
150.0, 25480.943975561142, 9736.97867834314, -71514.54049522168, -52183.74606177164, -35993.617593481256, -44208.017791273334, -9427.541128103869, -45251.084298024696, 0.006, 0.772, 0.66, 192.0, 0.0, 0.0, 0.0, 0.0, 0.0, 0.0, 0.0, 0.0, 0.0, 1.654156789840617E9, 0.0, 2022-06-02 09:59:49.840
151.0, 25477.725324359577, 9734.54233819751, -71541.3849403125, -52198.94524800125, -36008.079172143836, -44223.35108796968, -9438.001744508952, -45253.945321314975, 0.006, 0.772, 0.66, 192.0, 0.0, 0.0, 0.0, 0.0, 0.0, 0.0, 0.0, 0.0, 0.0, 1.6541567898406243E9, 0.0, 2022-06-02 09:59:49.840
152.0, 25492.969214078097, 9744.041829591017, -71536.7357774658, -52196.15127994434, -36003.0947331303, -44219.43953269, -9394.304084098827, -45211.1193789386, 0.006, 0.772, 0.66, 192.0, 0.0, 0.0, 0.0, 0.0, 0.0, 0.0, 0.0, 0.0, 0.0, 1.6541567898406312E9, 0.0, 2022-06-02 09:59:49.840
153.0, 25483.648536640234, 9735.88344286483, -71533.76299545325, -52187.7693757736, -36003.43000929714, -44216.15382625507, -9386.100993883729, -45199.98821019986, 0.006, 0.772, 0.66, 192.0, 0.0, 0.0, 0.0, 0.0, 0.0, 0.0, 0.0, 0.0, 0.0, 1.654156789840638E9, 0.0, 2022-06-02 09:59:49.840
154.0, 25471.80211207892, 9720.125463023838, -71526.34221629408, -52185.19892516124, -36005.44166629812, -44218.76898035633, -9398.059177167319, -45218.51780635331, 0.006, 0.772, 0.66, 192.0, 0.0, 0.0, 0.0, 0.0, 0.0, 0.0, 0.0, 0.0, 0.0, 1.6541567898406446E9, 0.0, 2022-06-02 09:59:49.840
155.0, 25470.215138222593, 9720.773663613041, -71523.43648951489, -52182.38260535987, -36005.08403838683, -44212.51049190885, -9405.85993598222, -45222.87639652209, 0.006, 0.772, 0.66, 192.0, 0.0, 0.0, 0.0, 0.0, 0.0, 0.0, 0.0, 0.0, 0.0, 1.6541567898406515E9, 0.0, 2022-06-02 09:59:49.840
156.0, 25462.056751496406, 9721.824195602441, -71548.85042296058, -52196.39714913334, -36014.449419313605, -44225.38509671511, -9409.167994161606, -45231.68298383748, 0.008, 0.77, 0.65, 192.0, 0.0, 64.0, 24.0, 16.0, 20.0, 80.0, 0.0, 0.0, 0.0, 1.6541567898406582E9, 0.0, 2022-06-02 09:59:49.840
157.0, 25463.80018756392, 9721.578326413433, -71561.635620789, -52208.80236730604, -36029.91682647668, -44243.08767832371, -9435.744218318965, -45248.893827068074, 0.008, 0.77, 0.65, 192.0, 0.0, 0.0, 0.0, 0.0, 0.0, 0.0, 0.0, 0.0, 0.0, 1.6541567898406653E9, 0.0, 2022-06-02 09:59:49.840
158.0, 25467.220004465584, 9724.439349703713, -71545.5870682701, -52201.24747768015, -36021.04318392792, -44240.76309690036, -9441.980355021997, -45257.05221379426, 0.008, 0.77, 0.65, 192.0, 0.0, 0.0, 0.0, 0.0, 0.0, 0.0, 0.0, 0.0, 0.0, 1.6541567898406723E9, 0.0, 2022-06-02 09:59:49.840
159.0, 25478.32882145987, 9736.889271365319, -71516.68626268939, -52176.705262268224, -35991.494177758, -44218.433704189505, -9408.497441827947, -45237.04740250676, 0.008, 0.77, 0.65, 192.0, 0.0, 0.0, 0.0, 0.0, 0.0, 0.0, 0.0, 0.0, 0.0, 1.654156789840679E9, 0.0, 2022-06-02 09:59:49.840
160.0, 25470.55041438942, 9730.787245129019, -71527.5268587502, -52182.74023327115, -35995.20456733758, -44216.2879367218, -9412.05136919634, -45231.638280348576, 0.008, 0.77, 0.65, 192.0, 0.0, 0.0, 0.0, 0.0, 0.0, 0.0, 0.0, 0.0, 0.0, 1.6541567898406856E9, 0.0, 2022-06-02 09:59:49.840
161.0, 25476.98771679255, 9736.755160898587, -71538.5909722556, -52199.12406195689, -36006.98393666553, -44229.542521183794, -9425.171843191605, -45262.21546676344, 0.008, 0.77, 0.65, 192.0, 0.0, 0.0, 0.0, 0.0, 0.0, 0.0, 0.0, 0.0, 0.0, 1.6541567898406944E9, 0.0, 2022-06-02 09:59:49.840
162.0, 25481.301603472424, 9734.74350389761, -71548.24692586028, -52213.697399341756, -36022.8536752288, -44243.467657979454, -9436.347715419259, -45267.31166449925, 0.008, 0.77, 0.65, 192.0, 0.0, 0.0, 0.0, 0.0, 0.0, 0.0, 0.0, 0.0, 0.0, 1.654156789840702E9, 0.0, 2022-06-02 09:59:49.840
163.0, 25488.543568675945, 9738.11861731036, -71526.38691978299, -52196.12892819988, -36005.66518374267, -44219.39482920108, -9409.391511606158, -45216.61790807461, 0.008, 0.77, 0.65, 192.0, 0.0, 0.0, 0.0, 0.0, 0.0, 0.0, 0.0, 0.0, 0.0, 1.6541567898407092E9, 0.0, 2022-06-02 09:59:49.840
164.0, 25481.301603472424, 9733.134178296827, -71518.85438190155, -52184.260151894116, -35995.83041618233, -44203.681552849004, -9401.076662668786, -45190.444015317444, 0.008, 0.77, 0.65, 192.0, 0.0, 0.0, 0.0, 0.0, 0.0, 0.0, 0.0, 0.0, 0.0, 1.654156789840719E9, 0.0, 2022-06-02 09:59:49.840
165.0, 25473.18792023515, 9725.31106773747, -71524.71053894884, -52193.08909095396, -35999.339640061815, -44219.75245711237, -9390.057252652317, -45219.34482089816, 0.008, 0.77, 0.65, 192.0, 0.0, 0.0, 0.0, 0.0, 0.0, 0.0, 0.0, 0.0, 0.0, 1.654156789840726E9, 0.0, 2022-06-02 09:59:49.840
166.0, 25484.09557152934, 9737.626878932344, -71534.05356813116, -52192.26207640911, -36011.61074776778, -44220.71358212395, -9424.456587369035, -45237.40503041804, 0.014, 0.778, 0.656, 192.0, 0.0, 112.0, 24.0, 80.0, 20.0, 128.0, 0.0, 0.0, 0.0, 1.6541567898407333E9, 0.0, 2022-06-02 09:59:49.840
167.0, 25479.312298215904, 9730.384913728823, -71550.70561775037, -52208.2212219502, -36031.213227655084, -44243.62412019064, -9430.58096534979, -45247.798591589766, 0.014, 0.778, 0.656, 192.0, 0.0, 0.0, 0.0, 0.0, 0.0, 0.0, 0.0, 0.0, 0.0, 1.6541567898407402E9, 0.0, 2022-06-02 09:59:49.840
168.0, 25484.676716885177, 9732.26246026307, -71532.37718729701, -52194.49725085464, -36015.499951303005, -44231.08479155121, -9398.416805078603, -45218.562509842224, 0.014, 0.778, 0.656, 192.0, 0.0, 0.0, 0.0, 0.0, 0.0, 0.0, 0.0, 0.0, 0.0, 1.6541567898407469E9, 0.0, 2022-06-02 09:59:49.840
169.0, 25485.6154901523, 9734.363524241868, -71514.27227428822, -52179.633340791865, -36003.31825057486, -44210.185910485496, -9393.700586998533, -45205.39733235804, 0.014, 0.778, 0.656, 192.0, 0.0, 0.0, 0.0, 0.0, 0.0, 0.0, 0.0, 0.0, 0.0, 1.654156789840754E9, 0.0, 2022-06-02 09:59:49.840
170.0, 25490.778743121475, 9747.662812192775, -71514.98753011078, -52171.586712787954, -35999.78667495092, -44205.24617496088, -9417.952229732542, -45235.21455946143, 0.014, 0.778, 0.656, 192.0, 0.0, 0.0, 0.0, 0.0, 0.0, 0.0, 0.0, 0.0, 0.0, 1.6541567898407612E9, 0.0, 2022-06-02 09:59:49.840
171.0, 25484.676716885177, 9750.590890716421, -71538.52391702222, -52186.65178855083, -36002.31242207437, -44216.354991955166, -9397.656845767122, -45232.889978038074, 0.014, 0.778, 0.656, 192.0, 0.0, 0.0, 0.0, 0.0, 0.0, 0.0, 0.0, 0.0, 0.0, 1.6541567898407784E9, 0.0, 2022-06-02 09:59:49.840
172.0, 25479.066429026894, 9741.896062123307, -71550.10212065007, -52204.823756793, -36012.92950069064, -44232.02356481834, -9400.115537657206, -45230.2748239368, 0.014, 0.778, 0.656, 192.0, 0.0, 0.0, 0.0, 0.0, 0.0, 0.0, 0.0, 0.0, 0.0, 1.654156789840786E9, 0.0, 2022-06-02 09:59:49.840
173.0, 25484.296737229437, 9739.705591166687, -71531.4384140299, -52196.01716947761, -36003.8993959307, -44231.66593690705, -9415.918220987109, -45246.01045203334, 0.014, 0.778, 0.656, 192.0, 0.0, 0.0, 0.0, 0.0, 0.0, 0.0, 0.0, 0.0, 0.0, 1.6541567898407934E9, 0.0, 2022-06-02 09:59:49.840
174.0, 25463.956649775108, 9714.135195509816, -71534.76882395374, -52210.05406499554, -36012.95185243509, -44247.96035861497, -9432.905546773141, -45273.61485643564, 0.014, 0.778, 0.656, 192.0, 0.0, 0.0, 0.0, 0.0, 0.0, 0.0, 0.0, 0.0, 0.0, 1.6541567898408008E9, 0.0, 2022-06-02 09:59:49.840
175.0, 25457.206422949606, 9709.4413291742, -71535.72994896531, -52211.90925978533, -36011.96837567906, -44235.2422160199, -9417.86282275472, -45244.66934736602, 0.014, 0.778, 0.656, 192.0, 0.0, 0.0, 0.0, 0.0, 0.0, 0.0, 0.0, 0.0, 0.0, 1.6541567898408122E9, 0.0, 2022-06-02 09:59:49.840
176.0, 25467.04119050994, 9729.40143697279, -71536.2887425767, -52203.61676259241, -36000.814855195866, -44215.52797741032, -9381.384775803659, -45205.26322189131, 0.012, 0.776, 0.656, 192.0, 0.0, 96.0, 24.0, 64.0, 20.0, 128.0, 0.0, 0.0, 0.0, 1.6541567898408277E9, 0.0, 2022-06-02 09:59:49.840
177.0, 25472.85264406832, 9730.474320706644, -71549.74449273878, -52215.642001109365, -36020.97612869455, -44234.81753287525, -9427.697590315056, -45241.562454886734, 0.012, 0.776, 0.656, 192.0, 0.0, 0.0, 0.0, 0.0, 0.0, 0.0, 0.0, 0.0, 0.0, 1.654156789840882E9, 0.0, 2022-06-02 09:59:49.840
178.0, 25466.772969576476, 9719.96900081265, -71551.86790846204, -52216.84899530995, -36025.89351247472, -44239.489047466406, -9453.759724349944, -45263.60127491967, 0.012, 0.776, 0.656, 192.0, 0.0, 0.0, 0.0, 0.0, 0.0, 0.0, 0.0, 0.0, 0.0, 1.654156789840902E9, 0.0, 2022-06-02 09:59:49.840
179.0, 25454.70302757061, 9711.028303030527, -71544.89416419198, -52219.44179766677, -36008.97324192205, -44225.005117059365, -9402.86480222521, -45230.20776870344, 0.012, 0.776, 0.656, 192.0, 0.0, 0.0, 0.0, 0.0, 0.0, 0.0, 0.0, 0.0, 0.0, 1.6541567898409119E9, 0.0, 2022-06-02 09:59:49.840
180.0, 25464.22487070857, 9726.272192749047, -71525.87282966053, -52193.24555316515, -35984.3416195323, -44202.74277958188, -9348.103028309706, -45181.77153846878, 0.012, 0.776, 0.656, 192.0, 0.0, 0.0, 0.0, 0.0, 0.0, 0.0, 0.0, 0.0, 0.0, 1.65415678984093E9, 0.0, 2022-06-02 09:59:49.840
181.0, 25464.023705008472, 9732.150701540793, -71555.17596664143, -52202.67798932529, -36011.76720997896, -44228.447285705486, -9414.308895386326, -45247.10568751165, 0.012, 0.776, 0.656, 192.0, 0.0, 0.0, 0.0, 0.0, 0.0, 0.0, 0.0, 0.0, 0.0, 1.6541567898409605E9, 0.0, 2022-06-02 09:59:49.840
182.0, 25474.4619696691, 9738.02921033254, -71561.88148997803, -52215.61964936491, -36031.10146893281, -44250.731974927425, -9442.740314333478, -45284.45545249647, 0.012, 0.776, 0.656, 192.0, 0.0, 0.0, 0.0, 0.0, 0.0, 0.0, 0.0, 0.0, 0.0, 1.6541567898409715E9, 0.0, 2022-06-02 09:59:49.840
183.0, 25477.099475514828, 9734.654096919787, -71545.14003338099, -52204.309666670524, -36021.17729439465, -44225.31804148174, -9397.500383555935, -45225.02216398981, 0.012, 0.776, 0.656, 192.0, 0.0, 0.0, 0.0, 0.0, 0.0, 0.0, 0.0, 0.0, 0.0, 1.6541567898409865E9, 0.0, 2022-06-02 09:59:49.840
184.0, 25470.304545200415, 9730.11669279536, -71530.09730936257, -52194.13962294336, -36005.50872153148, -44204.19564297148, -9379.104897869218, -45193.90853570802, 0.012, 0.776, 0.656, 192.0, 0.0, 0.0, 0.0, 0.0, 0.0, 0.0, 0.0, 0.0, 0.0, 1.6541567898411992E9, 0.0, 2022-06-02 09:59:49.841
185.0, 25469.835158566853, 9738.096265565904, -71523.14591683698, -52187.59056181795, -35996.23274758253, -44203.30157319326, -9390.347825330236, -45207.36428587011, 0.006, 0.778, 0.656, 192.0, 0.0, 48.0, 24.0, 80.0, 20.0, 128.0, 0.0, 0.0, 0.0, 1.654156789841244E9, 0.0, 2022-06-02 09:59:49.841
186.0, 25469.18695797765, 9743.192463301715, -71546.12351013703, -52206.23191669368, -36016.97516643705, -44223.686364136505, -9423.540165846369, -45245.94339679997, 0.006, 0.778, 0.656, 192.0, 0.0, 0.0, 0.0, 0.0, 0.0, 0.0, 0.0, 0.0, 0.0, 1.6541567898412592E9, 0.0, 2022-06-02 09:59:49.841
187.0, 25472.785588834955, 9739.012687088572, -71559.75807425476, -52215.88787029837, -36035.86239050179, -44237.879721865625, -9454.832608083798, -45254.52646667081, 0.006, 0.778, 0.656, 192.0, 0.0, 0.0, 0.0, 0.0, 0.0, 0.0, 0.0, 0.0, 0.0, 1.6541567898412733E9, 0.0, 2022-06-02 09:59:49.841
188.0, 25466.90708004321, 9727.88151834983, -71547.28580084871, -52205.159032959826, -36023.881855473745, -44229.497817694886, -9422.668447812612, -45217.936660997475, 0.006, 0.778, 0.656, 192.0, 0.0, 0.0, 0.0, 0.0, 0.0, 0.0, 0.0, 0.0, 0.0, 1.6541567898412907E9, 0.0, 2022-06-02 09:59:49.841
189.0, 25460.380370662257, 9720.483090935122, -71537.31692282164, -52194.29608515455, -36005.68753548712, -44231.21890201794, -9409.659732539623, -45237.67325135151, 0.006, 0.778, 0.656, 192.0, 0.0, 0.0, 0.0, 0.0, 0.0, 0.0, 0.0, 0.0, 0.0, 1.6541567898413055E9, 0.0, 2022-06-02 09:59:49.841
190.0, 25453.33957115884, 9718.627896145332, -71541.04966414567, -52194.5196025991, -36009.196759366605, -44232.783524129816, -9429.172805449105, -45256.76164111634, 0.006, 0.778, 0.656, 192.0, 0.0, 0.0, 0.0, 0.0, 0.0, 0.0, 0.0, 0.0, 0.0, 1.6541567898413224E9, 0.0, 2022-06-02 09:59:49.841
191.0, 25452.84783278082, 9715.744521110597, -71559.02046668774, -52211.730445829686, -36021.13259090574, -44243.13238181262, -9429.776302549399, -45242.09889675366, 0.006, 0.778, 0.656, 192.0, 0.0, 0.0, 0.0, 0.0, 0.0, 0.0, 0.0, 0.0, 0.0, 1.654156789841335E9, 0.0, 2022-06-02 09:59:49.841
192.0, 25451.75259730251, 9714.716340865652, -71566.06126619116, -52220.06764651152, -36026.117029919275, -44256.36461453016, -9417.236973909972, -45242.05419326475, 0.006, 0.778, 0.656, 192.0, 0.0, 0.0, 0.0, 0.0, 0.0, 0.0, 0.0, 0.0, 0.0, 1.6541567898413773E9, 0.0, 2022-06-02 09:59:49.841
193.0, 25445.27059141047, 9705.4403669167, -71561.05447543318, -52222.05695176804, -36027.01109969748, -44260.14205934311, -9429.888061271675, -45256.381661460604, 0.006, 0.778, 0.656, 192.0, 0.0, 0.0, 0.0, 0.0, 0.0, 0.0, 0.0, 0.0, 0.0, 1.6541567898413887E9, 0.0, 2022-06-02 09:59:49.841
194.0, 25435.122899427763, 9691.783451054509, -71560.49568182179, -52223.331001201994, -36021.82549498385, -44257.19162907501, -9426.58000309229, -45245.80928633324, 0.006, 0.778, 0.656, 192.0, 0.0, 0.0, 0.0, 0.0, 0.0, 0.0, 0.0, 0.0, 0.0, 1.6541567898414E9, 0.0, 2022-06-02 09:59:49.841
195.0, 25445.114129199283, 9704.63570411631, -71539.79796645617, -52206.23191669368, -36003.385305808224, -44230.61540491765, -9402.95420920303, -45219.07659996469, 0.012, 0.778, 0.654, 192.0, 0.0, 96.0, 24.0, 80.0, 20.0, 112.0, 0.0, 0.0, 0.0, 1.654156789841411E9, 0.0, 2022-06-02 09:59:49.841
196.0, 25448.958629245597, 9710.625971630332, -71552.71727475134, -52222.7275041017, -36018.293919359916, -44240.71839341145, -9418.779244277388, -45240.06488800823, 0.012, 0.778, 0.654, 192.0, 0.0, 0.0, 0.0, 0.0, 0.0, 0.0, 0.0, 0.0, 0.0, 1.6541567898414233E9, 0.0, 2022-06-02 09:59:49.841
197.0, 25438.587419818334, 9697.684311590709, -71587.18366470143, -52254.26581552814, -36058.75057682402, -44279.118690385665, -9475.820896127332, -45298.51469975885, 0.012, 0.778, 0.654, 192.0, 0.0, 0.0, 0.0, 0.0, 0.0, 0.0, 0.0, 0.0, 0.0, 1.6541567898414319E9, 0.0, 2022-06-02 09:59:49.841
198.0, 25441.381387875248, 9703.965151782651, -71575.58310932912, -52247.67205091382, -36057.007140756505, -44272.81549844927, -9485.610960198755, -45295.51956600184, 0.012, 0.778, 0.654, 192.0, 0.0, 0.0, 0.0, 0.0, 0.0, 0.0, 0.0, 0.0, 0.0, 1.6541567898414416E9, 0.0, 2022-06-02 09:59:49.841
199.0, 25447.19284143363, 9710.4918611636, -71556.69588526439, -52219.24063196667, -36028.88864623173, -44240.181951544524, -9434.53722411838, -45233.91815828302, 0.012, 0.778, 0.654, 192.0, 0.0, 0.0, 0.0, 0.0, 0.0, 0.0, 0.0, 0.0, 0.0, 1.654156789841458E9, 0.0, 2022-06-02 09:59:49.841
200.0, 25449.450367623613, 9715.163375754759, -71540.13324262301, -52201.40393989134, -36009.8002564669, -44230.86127410666, -9391.353653830725, -45217.84725401965, 0.012, 0.778, 0.654, 192.0, 0.0, 0.0, 0.0, 0.0, 0.0, 0.0, 0.0, 0.0, 0.0, 1.6541567898414693E9, 0.0, 2022-06-02 09:59:49.841
201.0, 25453.585440347844, 9728.999105572595, -71553.1866613849, -52207.21539344972, -36019.187989138125, -44223.84282634769, -9385.922179928086, -45205.24087014686, 0.012, 0.778, 0.654, 192.0, 0.0, 0.0, 0.0, 0.0, 0.0, 0.0, 0.0, 0.0, 0.0, 1.6541567898414826E9, 0.0, 2022-06-02 09:59:49.841
202.0, 25463.66607709719, 9739.012687088572, -71570.35280112657, -52209.361160917426, -36038.67871030315, -44238.907902110564, -9397.500383555935, -45225.58095760119, 0.012, 0.778, 0.654, 192.0, 0.0, 0.0, 0.0, 0.0, 0.0, 0.0, 0.0, 0.0, 0.0, 1.6541567898414934E9, 0.0, 2022-06-02 09:59:49.841
203.0, 25468.114074243793, 9736.397532987301, -71548.67160900493, -52191.882096753376, -36032.822553255864, -44221.76411411335, -9389.09612764074, -45200.47994857788, 0.012, 0.778, 0.654, 192.0, 0.0, 0.0, 0.0, 0.0, 0.0, 0.0, 0.0, 0.0, 0.0, 1.6541567898415086E9, 0.0, 2022-06-02 09:59:49.841
204.0, 25465.43186490916, 9733.089474807915, -71533.76299545325, -52183.567247816, -36015.209378625084, -44210.76705584134, -9377.495572268435, -45191.56160254021, 0.012, 0.778, 0.654, 192.0, 0.0, 0.0, 0.0, 0.0, 0.0, 0.0, 0.0, 0.0, 0.0, 1.6541567898415244E9, 0.0, 2022-06-02 09:59:49.841
205.0, 25461.117978229282, 9734.072951563949, -71533.7853471977, -52179.25336113613, -36011.7001547456, -44206.31905869473, -9393.14179338715, -45200.859928233614, 0.008, 0.778, 0.65, 192.0, 0.0, 64.0, 24.0, 80.0, 20.0, 80.0, 0.0, 0.0, 0.0, 1.654156789841534E9, 0.0, 2022-06-02 09:59:49.841
206.0, 25468.292888199438, 9738.54330045501, -71547.75518748227, -52189.69162579675, -36023.85950372928, -44214.79036984329, -9422.422578623602, -45230.34187917017, 0.008, 0.778, 0.65, 192.0, 0.0, 0.0, 0.0, 0.0, 0.0, 0.0, 0.0, 0.0, 0.0, 1.6541567898415527E9, 0.0, 2022-06-02 09:59:49.841
207.0, 25468.002315521517, 9727.479186949633, -71564.02725744573, -52210.29993418455, -36042.72437604957, -44235.644547420095, -9445.422523668114, -45248.51384741233, 0.008, 0.778, 0.65, 192.0, 0.0, 0.0, 0.0, 0.0, 0.0, 0.0, 0.0, 0.0, 0.0, 1.654156789841569E9, 0.0, 2022-06-02 09:59:49.841
208.0, 25471.80211207892, 9732.530681196533, -71543.39659731348, -52189.0210734631, -36026.63112004175, -44214.05276227627, -9403.557706303323, -45213.48866385087, 0.008, 0.778, 0.65, 192.0, 0.0, 0.0, 0.0, 0.0, 0.0, 0.0, 0.0, 0.0, 0.0, 1.654156789841581E9, 0.0, 2022-06-02 09:59:49.841
209.0, 25472.22679522357, 9730.183748028725, -71523.39178602598, -52180.59446580344, -36003.251195341494, -44212.24227097539, -9374.679252467067, -45202.87158523459, 0.008, 0.778, 0.65, 192.0, 0.0, 0.0, 0.0, 0.0, 0.0, 0.0, 0.0, 0.0, 0.0, 1.6541567898415947E9, 0.0, 2022-06-02 09:59:49.841
210.0, 25477.94884180413, 9735.995201587106, -71515.36750976653, -52180.75092801463, -35994.91399465966, -44211.12468375262, -9412.990142463463, -45220.68592556548, 0.008, 0.778, 0.65, 192.0, 0.0, 0.0, 0.0, 0.0, 0.0, 0.0, 0.0, 0.0, 0.0, 1.6541567898416038E9, 0.0, 2022-06-02 09:59:49.841
211.0, 25467.37646667677, 9730.094341050904, -71537.47338503282, -52201.023960235594, -36005.46401804257, -44229.833093861715, -9416.946401232053, -45242.881207809594, 0.008, 0.778, 0.65, 192.0, 0.0, 0.0, 0.0, 0.0, 0.0, 0.0, 0.0, 0.0, 0.0, 1.6541567898416111E9, 0.0, 2022-06-02 09:59:49.841
212.0, 25467.95761203261, 9730.4966724511, -71553.29842010718, -52213.00449526364, -36015.276433858446, -44238.483218965914, -9412.565459318812, -45244.71405085493, 0.008, 0.778, 0.65, 192.0, 0.0, 0.0, 0.0, 0.0, 0.0, 0.0, 0.0, 0.0, 0.0, 1.6541567898416212E9, 0.0, 2022-06-02 09:59:49.841
213.0, 25462.79435906343, 9722.338285724913, -71549.78919622769, -52205.09197772646, -36008.86148319978, -44234.6387189196, -9383.374081060181, -45226.452675634944, 0.008, 0.778, 0.65, 192.0, 0.0, 0.0, 0.0, 0.0, 0.0, 0.0, 0.0, 0.0, 0.0, 1.6541567898416336E9, 0.0, 2022-06-02 09:59:49.841
214.0, 25442.61073382029, 9703.831041315918, -71545.34119908109, -52201.04631198005, -36006.827474454345, -44236.58332068722, -9388.425575307081, -45231.54887337075, 0.008, 0.778, 0.65, 192.0, 0.0, 0.0, 0.0, 0.0, 0.0, 0.0, 0.0, 0.0, 0.0, 1.6541567898416524E9, 0.0, 2022-06-02 09:59:49.841
215.0, 25437.670998295667, 9703.741634338097, -71542.4354723019, -52204.667294581806, -36003.76528546397, -44230.593053173194, -9399.601447534735, -45213.48866385087, 0.012, 0.788, 0.654, 192.0, 0.0, 96.0, 24.0, 160.0, 20.0, 112.0, 0.0, 0.0, 0.0, 1.6541567898416631E9, 0.0, 2022-06-02 09:59:49.841
216.0, 25440.442614608124, 9708.770776840542, -71564.02725744573, -52219.53120464459, -36016.08109665884, -44245.926349869536, -9431.475035128002, -45245.00462353285, 0.012, 0.788, 0.654, 192.0, 0.0, 0.0, 0.0, 0.0, 0.0, 0.0, 0.0, 0.0, 0.0, 1.6541567898416765E9, 0.0, 2022-06-02 09:59:49.841
217.0, 25446.52228909997, 9715.722169366141, -71569.07875169262, -52229.63419313839, -36024.91003571868, -44268.836887936224, -9437.040619497373, -45285.12600483013, 0.012, 0.788, 0.654, 192.0, 0.0, 0.0, 0.0, 0.0, 0.0, 0.0, 0.0, 0.0, 0.0, 1.6541567898416936E9, 0.0, 2022-06-02 09:59:49.841
218.0, 25440.17439367466, 9713.308180964968, -71557.52289980924, -52220.51468140062, -36018.763305993474, -44250.173181316044, -9399.042653923352, -45228.62079484711, 0.012, 0.788, 0.654, 192.0, 0.0, 0.0, 0.0, 0.0, 0.0, 0.0, 0.0, 0.0, 0.0, 1.6541567898417094E9, 0.0, 2022-06-02 09:59:49.841
219.0, 25452.065521724886, 9721.555974668978, -71537.22751584381, -52198.60997183442, -36003.65352674169, -44222.74759086938, -9389.744328229945, -45196.47898632038, 0.012, 0.788, 0.654, 192.0, 0.0, 0.0, 0.0, 0.0, 0.0, 0.0, 0.0, 0.0, 0.0, 1.6541567898417368E9, 0.0, 2022-06-02 09:59:49.841
220.0, 25459.307486928403, 9729.244974761603, -71532.0866146191, -52184.103689682925, -35998.24440458351, -44209.31419245174, -9392.426537564581, -45190.57812578417, 0.012, 0.788, 0.654, 192.0, 0.0, 0.0, 0.0, 0.0, 0.0, 0.0, 0.0, 0.0, 0.0, 1.6541567898417716E9, 0.0, 2022-06-02 09:59:49.841
221.0, 25448.533946100946, 9726.048675304493, -71557.90287946498, -52211.97631501869, -36019.7020792606, -44220.44536119048, -9396.80747947782, -45203.07275093469, 0.012, 0.788, 0.654, 192.0, 0.0, 0.0, 0.0, 0.0, 0.0, 0.0, 0.0, 0.0, 0.0, 1.6541567898417883E9, 0.0, 2022-06-02 09:59:49.841
222.0, 25455.12771071526, 9732.418922474257, -71567.17885341393, -52215.28437319808, -36032.397870111214, -44230.05661130627, -9405.032921437374, -45208.54892832624, 0.012, 0.788, 0.654, 192.0, 0.0, 0.0, 0.0, 0.0, 0.0, 0.0, 0.0, 0.0, 0.0, 1.65415678984181E9, 0.0, 2022-06-02 09:59:49.841
223.0, 25468.69521959963, 9743.415980746267, -71541.89903043497, -52192.575000831486, -36020.864369972274, -44218.21018674495, -9408.34097961676, -45203.251564890335, 0.012, 0.788, 0.654, 192.0, 0.0, 0.0, 0.0, 0.0, 0.0, 0.0, 0.0, 0.0, 0.0, 1.6541567898418229E9, 0.0, 2022-06-02 09:59:49.841
224.0, 25468.784626577453, 9742.432503990234, -71523.883524404, -52180.57211405899, -36015.075268158354, -44210.20826222996, -9412.029017451885, -45209.44299810446, 0.012, 0.788, 0.654, 192.0, 0.0, 0.0, 0.0, 0.0, 0.0, 0.0, 0.0, 0.0, 0.0, 1.6541567898418329E9, 0.0, 2022-06-02 09:59:49.841
225.0, 25475.08781851385, 9750.657945949788, -71520.19548656887, -52168.79274473104, -36007.453323299094, -44206.833148817204, -9412.05136919634, -45230.319527425716, 0.014, 0.778, 0.656, 192.0, 0.0, 112.0, 24.0, 80.0, 20.0, 128.0, 0.0, 0.0, 0.0, 1.654156789841846E9, 0.0, 2022-06-02 09:59:49.841
226.0, 25462.727303830066, 9739.906756866785, -71551.51028055076, -52199.59344859046, -36021.713736261576, -44230.391887473095, -9427.362314148226, -45257.40984170554, 0.014, 0.778, 0.656, 192.0, 0.0, 0.0, 0.0, 0.0, 0.0, 0.0, 0.0, 0.0, 0.0, 1.6541567898418627E9, 0.0, 2022-06-02 09:59:49.841
227.0, 25461.56501311839, 9739.325611510947, -71566.66476329145, -52221.520509901115, -36037.650530058214, -44241.83598063421, -9420.299162900348, -45235.616890861624, 0.014, 0.778, 0.656, 192.0, 0.0, 0.0, 0.0, 0.0, 0.0, 0.0, 0.0, 0.0, 0.0, 1.654156789841874E9, 0.0, 2022-06-02 09:59:49.841
228.0, 25483.112094773307, 9757.698745453208, -71535.6852454764, -52198.67702706779, -36024.999442696506, -44222.56877691374, -9406.19521214905, -45203.16215791251, 0.014, 0.778, 0.656, 192.0, 0.0, 0.0, 0.0, 0.0, 0.0, 0.0, 0.0, 0.0, 0.0, 1.654156789841885E9, 0.0, 2022-06-02 09:59:49.841
229.0, 25487.60479540882, 9761.051507121505, -71516.77566966721, -52175.9676547012, -36008.05682039938, -44204.88854704959, -9384.357557816214, -45186.84538446014, 0.014, 0.778, 0.656, 192.0, 0.0, 0.0, 0.0, 0.0, 0.0, 0.0, 0.0, 0.0, 0.0, 1.654156789841914E9, 0.0, 2022-06-02 09:59:49.841
230.0, 25463.956649775108, 9749.78622791603, -71523.79411742618, -52182.717881526696, -36002.31242207437, -44215.639736132594, -9386.615084006202, -45219.23306217588, 0.014, 0.778, 0.656, 192.0, 0.0, 0.0, 0.0, 0.0, 0.0, 0.0, 0.0, 0.0, 0.0, 1.6541567898419538E9, 0.0, 2022-06-02 09:59:49.841
231.0, 25452.08787346934, 9742.208986545682, -71551.97966718432, -52204.39907364835, -36008.705020988586, -44227.82143686074, -9388.246761351438, -45220.06007672073, 0.014, 0.778, 0.656, 192.0, 0.0, 0.0, 0.0, 0.0, 0.0, 0.0, 0.0, 0.0, 0.0, 1.654156789841987E9, 0.0, 2022-06-02 09:59:49.841
232.0, 25460.626239851266, 9746.16524531427, -71557.12056840904, -52217.51954764361, -36023.390117095725, -44245.41225974706, -9423.048427468351, -45235.43807690598, 0.014, 0.778, 0.656, 192.0, 0.0, 0.0, 0.0, 0.0, 0.0, 0.0, 0.0, 0.0, 0.0, 1.6541567898420196E9, 0.0, 2022-06-02 09:59:49.842
233.0, 25457.27347818297, 9741.40432374529, -71551.10794915057, -52222.45928316823, -36013.73416349103, -44246.08281208072, -9432.369104906214, -45243.57411188771, 0.014, 0.778, 0.656, 192.0, 0.0, 0.0, 0.0, 0.0, 0.0, 0.0, 0.0, 0.0, 0.0, 1.6541567898420382E9, 0.0, 2022-06-02 09:59:49.842
234.0, 25457.385236905247, 9742.477207479145, -71537.22751584381, -52227.667239626324, -36000.323116817846, -44219.685401879, -9390.683101497067, -45183.9173059365, 0.014, 0.778, 0.656, 192.0, 0.0, 0.0, 0.0, 0.0, 0.0, 0.0, 0.0, 0.0, 0.0, 1.6541567898420508E9, 0.0, 2022-06-02 09:59:49.842
235.0, 25452.780777547454, 9743.483035979634, -71531.14784135197, -52224.35918144693, -35996.09863711579, -44213.49396866489, -9377.272054823883, -45169.54513425173, 0.016, 0.772, 0.66, 192.0, 0.0, 128.0, 24.0, 32.0, 20.0, 160.0, 0.0, 0.0, 0.0, 1.6541567898420956E9, 0.0, 2022-06-02 09:59:49.842
236.0, 25444.354169887803, 9736.755160898587, -71551.04089391719, -52205.11432947092, -36019.43385832714, -44249.27911153783, -9432.123235717207, -45243.171780487515, 0.016, 0.772, 0.66, 192.0, 0.0, 0.0, 0.0, 0.0, 0.0, 0.0, 0.0, 0.0, 0.0, 1.6541567898421092E9, 0.0, 2022-06-02 09:59:49.842
237.0, 25438.006274462496, 9727.009800316073, -71574.53257733972, -52238.083152542495, -36032.08494568884, -44282.06912065377, -9440.952174777052, -45273.77131864683, 0.016, 0.772, 0.66, 192.0, 0.0, 0.0, 0.0, 0.0, 0.0, 0.0, 0.0, 0.0, 0.0, 1.654156789842122E9, 0.0, 2022-06-02 09:59:49.842
238.0, 25440.330855885848, 9719.946649068195, -71559.9368882104, -52240.318326988025, -36010.18023612264, -44268.79218444732, -9395.265209110405, -45225.04451573426, 0.016, 0.772, 0.66, 192.0, 0.0, 0.0, 0.0, 0.0, 0.0, 0.0, 0.0, 0.0, 0.0, 1.6541567898421404E9, 0.0, 2022-06-02 09:59:49.842
239.0, 25432.79831800441, 9713.241125731603, -71545.89999269247, -52251.74006840469, -36003.02767789694, -44260.879666910136, -9390.303121841327, -45214.24862316235, 0.016, 0.772, 0.66, 192.0, 0.0, 0.0, 0.0, 0.0, 0.0, 0.0, 0.0, 0.0, 0.0, 1.6541567898421571E9, 0.0, 2022-06-02 09:59:49.842
240.0, 25428.573838302356, 9710.134233252315, -71549.72214099433, -52241.4806176997, -36017.69042225962, -44271.362635059675, -9416.544069831858, -45248.02210903432, 0.016, 0.772, 0.66, 192.0, 0.0, 0.0, 0.0, 0.0, 0.0, 0.0, 0.0, 0.0, 0.0, 1.6541567898421693E9, 0.0, 2022-06-02 09:59:49.842
241.0, 25434.98878896103, 9717.331494966924, -71573.86202500606, -52241.54767293307, -36032.91196023369, -44282.76202473188, -9450.630480126201, -45284.25428679637, 0.016, 0.772, 0.66, 192.0, 0.0, 0.0, 0.0, 0.0, 0.0, 0.0, 0.0, 0.0, 0.0, 1.6541567903193645E9, 0.0, 2022-06-02 09:59:50.319
242.0, 25442.767196031476, 9728.797939872496, -71567.58118481412, -52254.82460913952, -36043.9090185057, -44284.5501642883, -9458.028907540907, -45281.16974606154, 0.016, 0.772, 0.66, 192.0, 0.0, 0.0, 0.0, 0.0, 0.0, 0.0, 0.0, 0.0, 0.0, 1.6541567903195615E9, 0.0, 2022-06-02 09:59:50.319
243.0, 25448.399835634213, 9735.816387631463, -71547.64342875998, -52242.64290841138, -36038.41048936969, -44269.887419925624, -9454.273814472415, -45265.97055983193, 0.016, 0.772, 0.66, 192.0, 0.0, 0.0, 0.0, 0.0, 0.0, 0.0, 0.0, 0.0, 0.0, 1.6541567903195682E9, 0.0, 2022-06-02 09:59:50.319
244.0, 25440.822594263864, 9725.713399137665, -71550.39269332799, -52262.84888539898, -36031.302634632906, -44268.16633560257, -9426.53529960338, -45260.87436209612, 0.016, 0.772, 0.66, 192.0, 0.0, 0.0, 0.0, 0.0, 0.0, 0.0, 0.0, 0.0, 0.0, 1.654156790319574E9, 0.0, 2022-06-02 09:59:50.319
245.0, 25442.051940208905, 9735.928146353739, -71550.03506541671, -52244.4310479678, -36021.53492230594, -44256.14109708561, -9413.683046541577, -45250.25728347985, 0.014, 0.772, 0.66, 192.0, 0.0, 112.0, 24.0, 32.0, 20.0, 160.0, 0.0, 0.0, 0.0, 1.6541567903195808E9, 0.0, 2022-06-02 09:59:50.319
246.0, 25456.088835726838, 9751.082629094439, -71559.42279808794, -52221.76637909012, -36030.94500672162, -44248.630910948625, -9434.671334585111, -45250.793725346775, 0.014, 0.772, 0.66, 192.0, 0.0, 0.0, 0.0, 0.0, 0.0, 0.0, 0.0, 0.0, 0.0, 1.6541567903195868E9, 0.0, 2022-06-02 09:59:50.319
247.0, 25454.457158381603, 9745.338230769425, -71567.0447429472, -52227.33196345949, -36045.674806317664, -44257.862181408665, -9437.733523575489, -45253.520638170325, 0.014, 0.772, 0.66, 192.0, 0.0, 0.0, 0.0, 0.0, 0.0, 0.0, 0.0, 0.0, 0.0, 1.6541567903195925E9, 0.0, 2022-06-02 09:59:50.319
248.0, 25438.922695985162, 9728.619125916854, -71583.85325477758, -52258.62440569692, -36050.927466264664, -44266.37819604614, -9444.48375040099, -45256.806344605255, 0.014, 0.772, 0.66, 192.0, 0.0, 0.0, 0.0, 0.0, 0.0, 0.0, 0.0, 0.0, 0.0, 1.6541567903195984E9, 0.0, 2022-06-02 09:59:50.319
249.0, 25444.354169887803, 9734.698800408698, -71548.47044330483, -52252.09769631597, -36031.45909684409, -44236.42685847603, -9414.10772968623, -45214.82976851818, 0.014, 0.772, 0.66, 192.0, 0.0, 0.0, 0.0, 0.0, 0.0, 0.0, 0.0, 0.0, 0.0, 1.6541567903196044E9, 0.0, 2022-06-02 09:59:50.319
250.0, 25452.244335680527, 9748.22160580416, -71522.40830926994, -52264.01117611065, -36006.78277096543, -44216.84673033318, -9376.556799001313, -45198.200070643434, 0.014, 0.772, 0.66, 192.0, 0.0, 0.0, 0.0, 0.0, 0.0, 0.0, 0.0, 0.0, 0.0, 1.65415679031961E9, 0.0, 2022-06-02 09:59:50.319
251.0, 25448.064559467384, 9747.729867426142, -71548.00105667127, -52230.48355942769, -36017.53396004844, -44232.2917857518, -9392.00185441993, -45226.385620401576, 0.014, 0.772, 0.66, 192.0, 0.0, 0.0, 0.0, 0.0, 0.0, 0.0, 0.0, 0.0, 0.0, 1.6541567903196156E9, 0.0, 2022-06-02 09:59:50.319
252.0, 25443.66126580969, 9740.242033033614, -71575.85133026258, -52209.78584406208, -36038.634006814245, -44256.811649419265, -9414.8229855088, -45233.024088504804, 0.014, 0.772, 0.66, 192.0, 0.0, 0.0, 0.0, 0.0, 0.0, 0.0, 0.0, 0.0, 0.0, 1.6541567903196216E9, 0.0, 2022-06-02 09:59:50.319
253.0, 25436.978094217553, 9729.334381739423, -71575.51605409576, -52217.16191973232, -36046.121841206776, -44261.080832610234, -9433.263174684427, -45237.38267867359, 0.014, 0.772, 0.66, 192.0, 0.0, 0.0, 0.0, 0.0, 0.0, 0.0, 0.0, 0.0, 0.0, 1.6541567903196273E9, 0.0, 2022-06-02 09:59:50.319
254.0, 25439.906172741197, 9731.413093973768, -71534.70176872036, -52206.76835856061, -36019.76913449397, -44242.50653296787, -9413.079549441285, -45216.66261156352, 0.014, 0.772, 0.66, 192.0, 0.0, 0.0, 0.0, 0.0, 0.0, 0.0, 0.0, 0.0, 0.0, 1.6541567903196332E9, 0.0, 2022-06-02 09:59:50.319
255.0, 25453.69719907012, 9750.836759905429, -71506.96325385133, -52188.03759670706, -35990.55540449088, -44209.94004129649, -9368.33135704176, -45182.553849524724, 0.016, 0.774, 0.66, 192.0, 0.0, 128.0, 24.0, 48.0, 20.0, 160.0, 0.0, 0.0, 0.0, 1.6541567903196387E9, 0.0, 2022-06-02 09:59:50.319
0.0, 25457.340533416336, 9757.877559408851, -71533.7853471977, -52233.38928620688, -36006.29103258742, -44220.15478851256, -9384.424613049581, -45209.97943997139, 0.016, 0.774, 0.66, 192.0, 0.0, 0.0, 0.0, 0.0, 0.0, 0.0, 0.0, 0.0, 0.0, 1.654156790319654E9, 0.0, 2022-06-02 09:59:50.319
1.0, 25460.380370662257, 9753.541320984521, -71545.85528920357, -52246.465056713234, -36020.97612869455, -44241.90303586758, -9387.039767150853, -45207.67721029249, 0.016, 0.774, 0.66, 192.0, 0.0, 0.0, 0.0, 0.0, 0.0, 0.0, 0.0, 0.0, 0.0, 1.6541567903196597E9, 0.0, 2022-06-02 09:59:50.319
2.0, 25449.94210600163, 9733.044771319006, -71552.38199858452, -52227.06374252603, -36031.68261428864, -44257.54925698629, -9410.687912784566, -45221.95997499943, 0.016, 0.774, 0.66, 192.0, 0.0, 0.0, 0.0, 0.0, 0.0, 0.0, 0.0, 0.0, 0.0, 1.6541567903196652E9, 0.0, 2022-06-02 09:59:50.319
3.0, 25437.112204684283, 9731.793073629507, -71547.53167003772, -52255.94219636228, -36023.21130314008, -44254.48706799592, -9415.761758775921, -45232.3758879156, 0.016, 0.774, 0.66, 192.0, 0.0, 0.0, 0.0, 0.0, 0.0, 0.0, 0.0, 0.0, 0.0, 1.6541567903196704E9, 0.0, 2022-06-02 09:59:50.319
4.0, 25444.868260010277, 9741.02434408955, -71549.65508576097, -52229.85771058294, -36012.68363150163, -44241.83598063421, -9407.603372049734, -45228.7772570583, 0.016, 0.774, 0.66, 192.0, 0.0, 0.0, 0.0, 0.0, 0.0, 0.0, 0.0, 0.0, 0.0, 1.6541567903196762E9, 0.0, 2022-06-02 09:59:50.319
5.0, 25439.7050070411, 9735.16818704226, -71571.2915743937, -52217.83247206599, -36018.40567808219, -44254.97880637393, -9417.996933221451, -45254.638225393086, 0.016, 0.774, 0.66, 192.0, 0.0, 0.0, 0.0, 0.0, 0.0, 0.0, 0.0, 0.0, 0.0, 1.6541567903196816E9, 0.0, 2022-06-02 09:59:50.319
6.0, 25439.7050070411, 9733.536509697022, -71571.00100171579, -52236.876158341904, -36033.85073350081, -44276.03414965083, -9440.81806431032, -45282.801423406774, 0.016, 0.774, 0.66, 192.0, 0.0, 0.0, 0.0, 0.0, 0.0, 0.0, 0.0, 0.0, 0.0, 1.6541567903196871E9, 0.0, 2022-06-02 09:59:50.319
7.0, 25433.960608716086, 9725.936916582217, -71574.66668780646, -52256.21041729575, -36041.159753937696, -44276.68235024004, -9450.988108037485, -45263.91419934204, 0.016, 0.774, 0.66, 192.0, 0.0, 0.0, 0.0, 0.0, 0.0, 0.0, 0.0, 0.0, 0.0, 1.6541567903196926E9, 0.0, 2022-06-02 09:59:50.319
8.0, 25423.857620222287, 9719.186689756714, -71566.28478363571, -52280.19383909629, -36017.75747749299, -44255.13526858512, -9404.876459226187, -45215.9250039965, 0.014, 0.774, 0.654, 192.0, 0.0, 112.0, 24.0, 48.0, 20.0, 112.0, 0.0, 0.0, 0.0, 1.654156790319698E9, 0.0, 2022-06-02 09:59:50.319
9.0, 25421.823611476855, 9721.824195602441, -71565.77069351324, -52226.95198380375, -36002.29007032992, -44235.51043695336, -9375.483915267458, -45191.87452696259, 0.014, 0.774, 0.654, 192.0, 0.0, 0.0, 0.0, 0.0, 0.0, 0.0, 0.0, 0.0, 0.0, 1.6541567903197036E9, 0.0, 2022-06-02 09:59:50.319
10.0, 25440.956704730597, 9744.265347035569, -71567.6929435364, -52251.3824404934, -36008.48150354403, -44238.8408468772, -9397.634494022668, -45209.91238473802, 0.014, 0.774, 0.654, 192.0, 0.0, 0.0, 0.0, 0.0, 0.0, 0.0, 0.0, 0.0, 0.0, 1.6541567903197093E9, 0.0, 2022-06-02 09:59:50.319
11.0, 25440.956704730597, 9732.955364341184, -71572.16329242746, -52248.47671371421, -36020.93142520564, -44272.34611181571, -9414.375950619693, -45240.55662638624, 0.014, 0.774, 0.654, 192.0, 0.0, 0.0, 0.0, 0.0, 0.0, 0.0, 0.0, 0.0, 0.0, 1.6541567903197148E9, 0.0, 2022-06-02 09:59:50.319
12.0, 25430.473736581058, 9716.482128677622, -71568.31879238115, -52282.98780715321, -36034.40952711219, -44288.46171956798, -9433.82196829581, -45258.79564986177, 0.014, 0.774, 0.654, 192.0, 0.0, 0.0, 0.0, 0.0, 0.0, 0.0, 0.0, 0.0, 0.0, 1.6541567903197203E9, 0.0, 2022-06-02 09:59:50.319
13.0, 25425.869277223264, 9719.700779879187, -71561.4344550889, -52259.5855307085, -36030.36386136578, -44279.47631829695, -9437.889985786675, -45265.70233889847, 0.014, 0.774, 0.654, 192.0, 0.0, 0.0, 0.0, 0.0, 0.0, 0.0, 0.0, 0.0, 0.0, 1.6541567903197255E9, 0.0, 2022-06-02 09:59:50.319
14.0, 25414.26872185096, 9713.978733298629, -71572.61032731656, -52259.1831993083, -36033.26958814497, -44269.50744026988, -9423.406055379637, -45245.31754795522, 0.014, 0.774, 0.654, 192.0, 0.0, 0.0, 0.0, 0.0, 0.0, 0.0, 0.0, 0.0, 0.0, 1.654156790319733E9, 0.0, 2022-06-02 09:59:50.319
15.0, 25422.047128921407, 9723.098245036394, -71582.57920534363, -52243.9840130787, -36025.96056770808, -44257.25868430838, -9397.81330797831, -45217.33316389718, 0.014, 0.774, 0.654, 192.0, 0.0, 0.0, 0.0, 0.0, 0.0, 0.0, 0.0, 0.0, 0.0, 1.6541567903197381E9, 0.0, 2022-06-02 09:59:50.319
16.0, 25437.46983259557, 9723.5452799255, -71579.87464426454, -52299.77396723914, -36035.348300379315, -44278.0011031629, -9412.654866296634, -45248.826771834705, 0.014, 0.774, 0.654, 192.0, 0.0, 0.0, 0.0, 0.0, 0.0, 0.0, 0.0, 0.0, 0.0, 1.6541567903197436E9, 0.0, 2022-06-02 09:59:50.319
17.0, 25438.475661096058, 9729.759064884074, -71569.61519355956, -52240.6312514104, -36040.53390509295, -44268.79218444732, -9437.510006130935, -45270.59737093418, 0.014, 0.774, 0.654, 192.0, 0.0, 0.0, 0.0, 0.0, 0.0, 0.0, 0.0, 0.0, 0.0, 1.654156790319749E9, 0.0, 2022-06-02 09:59:50.319
18.0, 25431.591323803823, 9722.785320614019, -71573.48204535032, -52242.82172236702, -36041.070346959874, -44267.719300713456, -9433.553747362346, -45246.681004367, 0.012, 0.778, 0.65, 192.0, 0.0, 96.0, 24.0, 80.0, 20.0, 80.0, 0.0, 0.0, 0.0, 1.6541567903197544E9, 0.0, 2022-06-02 09:59:50.319
19.0, 25427.389195846226, 9726.361599726868, -71577.08067620762, -52305.607772541975, -36034.56598932338, -44248.25093129289, -9400.227296379482, -45215.94735574095, 0.012, 0.778, 0.65, 192.0, 0.0, 0.0, 0.0, 0.0, 0.0, 0.0, 0.0, 0.0, 0.0, 1.65415679031976E9, 0.0, 2022-06-02 09:59:50.319
20.0, 25416.36978582976, 9719.521965923544, -71596.37023167255, -52238.30666998705, -36046.121841206776, -44269.32862631424, -9423.875442013197, -45250.25728347985, 0.012, 0.778, 0.65, 192.0, 0.0, 0.0, 0.0, 0.0, 0.0, 0.0, 0.0, 0.0, 0.0, 1.654156790319765E9, 0.0, 2022-06-02 09:59:50.319
21.0, 25424.237599878026, 9725.378122970835, -71600.68411835244, -52242.128818288904, -36066.79720482793, -44287.500594556404, -9453.089172016284, -45291.25038281088, 0.012, 0.778, 0.65, 192.0, 0.0, 0.0, 0.0, 0.0, 0.0, 0.0, 0.0, 0.0, 0.0, 1.6541567903197708E9, 0.0, 2022-06-02 09:59:50.319
22.0, 25438.833289007343, 9737.06808532096, -71601.08644975263, -52271.34254829199, -36057.431823901155, -44274.26836183886, -9463.72860237701, -45295.1395863461, 0.012, 0.778, 0.65, 192.0, 0.0, 0.0, 0.0, 0.0, 0.0, 0.0, 0.0, 0.0, 0.0, 1.6541567903197792E9, 0.0, 2022-06-02 09:59:50.319
23.0, 25439.436786107635, 9734.274117264047, -71566.17302491344, -52231.020001294615, -36037.35995738029, -44248.362690015165, -9412.76662501891, -45221.75880929933, 0.012, 0.778, 0.65, 192.0, 0.0, 0.0, 0.0, 0.0, 0.0, 0.0, 0.0, 0.0, 0.0, 1.6541567903197849E9, 0.0, 2022-06-02 09:59:50.319
24.0, 25439.32502738536, 9743.237166790625, -71532.55600125265, -52210.679913840286, -36016.57283503686, -44225.47450369293, -9364.956243629009, -45177.30118957772, 0.012, 0.778, 0.65, 192.0, 0.0, 0.0, 0.0, 0.0, 0.0, 0.0, 0.0, 0.0, 0.0, 1.65415679031979E9, 0.0, 2022-06-02 09:59:50.319
25.0, 25439.101509940807, 9751.730829683642, -71570.37515287104, -52187.121175184395, -36015.85757921429, -44229.25194850587, -9373.89694141113, -45199.63058228858, 0.012, 0.778, 0.65, 192.0, 0.0, 0.0, 0.0, 0.0, 0.0, 0.0, 0.0, 0.0, 0.0, 1.6541567903197956E9, 0.0, 2022-06-02 09:59:50.319
26.0, 25449.673885068165, 9754.591852973921, -71582.73566755482, -52224.33682970248, -36039.259855658995, -44257.3480912862, -9411.783148262877, -45245.38460318859, 0.012, 0.778, 0.65, 192.0, 0.0, 0.0, 0.0, 0.0, 0.0, 0.0, 0.0, 0.0, 0.0, 1.6541567903198009E9, 0.0, 2022-06-02 09:59:50.319
27.0, 25445.203536177105, 9749.607413960388, -71573.21382441686, -52277.44457452829, -36042.92554174966, -44258.75625118688, -9418.846299510753, -45248.87147532362, 0.012, 0.778, 0.65, 192.0, 0.0, 0.0, 0.0, 0.0, 0.0, 0.0, 0.0, 0.0, 0.0, 1.6541567903198063E9, 0.0, 2022-06-02 09:59:50.319
28.0, 25428.775004002455, 9730.653134662287, -71567.22355690284, -52280.4397082853, -36031.79437301092, -44240.13724805561, -9401.188421391062, -45213.55571908423, 0.012, 0.778, 0.654, 192.0, 0.0, 96.0, 24.0, 80.0, 20.0, 112.0, 0.0, 0.0, 0.0, 1.654156790319812E9, 0.0, 2022-06-02 09:59:50.319
29.0, 25435.949913972607, 9745.204120302693, -71560.49568182179, -52176.99583494614, -36031.95083522211, -44237.67855616553, -9385.743365972445, -45207.43134110348, 0.012, 0.778, 0.654, 192.0, 0.0, 0.0, 0.0, 0.0, 0.0, 0.0, 0.0, 0.0, 0.0, 1.6541567903198173E9, 0.0, 2022-06-02 09:59:50.319
30.0, 25456.46881538258, 9769.902797925806, -71555.7347602528, -52187.50115484013, -36034.856562001296, -44237.05270732078, -9414.375950619693, -45244.19996073246, 0.012, 0.778, 0.654, 192.0, 0.0, 0.0, 0.0, 0.0, 0.0, 0.0, 0.0, 0.0, 0.0, 1.6541567903198228E9, 0.0, 2022-06-02 09:59:50.319
31.0, 25458.07814098336, 9766.818257190975, -71567.6929435364, -52219.084169755486, -36043.104355705305, -44268.59101874722, -9434.87250028521, -45296.12306310214, 0.012, 0.778, 0.654, 192.0, 0.0, 0.0, 0.0, 0.0, 0.0, 0.0, 0.0, 0.0, 0.0, 1.6541567903198283E9, 0.0, 2022-06-02 09:59:50.319
32.0, 25445.628219321756, 9754.658908207288, -71572.20799591637, -52243.42521946731, -36042.50085860501, -44267.27226582435, -9399.042653923352, -45248.24562647887, 0.012, 0.778, 0.654, 192.0, 0.0, 0.0, 0.0, 0.0, 0.0, 0.0, 0.0, 0.0, 0.0, 1.654156790319836E9, 0.0, 2022-06-02 09:59:50.319
33.0, 25445.382350132746, 9756.447047763711, -71562.95437371188, -52195.74894854414, -36024.440649085125, -44225.787428115305, -9367.638452963645, -45169.411023785, 0.012, 0.778, 0.654, 192.0, 0.0, 0.0, 0.0, 0.0, 0.0, 0.0, 0.0, 0.0, 0.0, 1.6541567903198416E9, 0.0, 2022-06-02 09:59:50.319
34.0, 25456.647629338222, 9769.232245592148, -71563.82609174564, -52196.218335177706, -36009.91201518918, -44203.72625633791, -9355.23323479095, -45162.52668649277, 0.012, 0.778, 0.654, 192.0, 0.0, 0.0, 0.0, 0.0, 0.0, 0.0, 0.0, 0.0, 0.0, 1.6541567903198488E9, 0.0, 2022-06-02 09:59:50.319
35.0, 25445.874088510765, 9758.525759998056, -71581.28280416522, -52293.96251368076, -36037.56112308039, -44245.74753591389, -9404.183555148073, -45237.941472284976, 0.012, 0.778, 0.654, 192.0, 0.0, 0.0, 0.0, 0.0, 0.0, 0.0, 0.0, 0.0, 0.0, 1.65415679031986E9, 0.0, 2022-06-02 09:59:50.319
36.0, 25430.27257088096, 9739.59383244441, -71623.08056629664, -52275.3882140384, -36061.209268714105, -44276.41412930658, -9438.672296842611, -45268.07162381073, 0.012, 0.778, 0.654, 192.0, 0.0, 0.0, 0.0, 0.0, 0.0, 0.0, 0.0, 0.0, 0.0, 1.6541567903198693E9, 0.0, 2022-06-02 09:59:50.319
37.0, 25426.80805049039, 9731.055466062482, -71564.2954783792, -52233.23282399569, -36059.42112915768, -44281.8008997203, -9442.382686422192, -45261.32139698522, 0.012, 0.778, 0.654, 192.0, 0.0, 0.0, 0.0, 0.0, 0.0, 0.0, 0.0, 0.0, 0.0, 1.65415679031988E9, 0.0, 2022-06-02 09:59:50.319
38.0, 25419.253160864493, 9723.344114225401, -71554.50541430777, -52235.11037052994, -36059.9128675357, -44276.14590837311, -9449.065858014328, -45262.99777781937, 0.006, 0.774, 0.654, 192.0, 0.0, 48.0, 24.0, 48.0, 20.0, 112.0, 0.0, 0.0, 0.0, 1.654156790319894E9, 0.0, 2022-06-02 09:59:50.319
39.0, 25416.92857944114, 9725.668695648754, -71549.07394040513, -52210.27758244009, -36045.965378995585, -44257.035166863825, -9429.53043336039, -45247.373908445115, 0.006, 0.774, 0.654, 192.0, 0.0, 0.0, 0.0, 0.0, 0.0, 0.0, 0.0, 0.0, 0.0, 1.6541567903199053E9, 0.0, 2022-06-02 09:59:50.319
40.0, 25418.22498061955, 9726.540413682511, -71555.06420791915, -52235.28918448558, -36045.13836445074, -44264.12066985615, -9415.582944820278, -45248.96088230144, 0.006, 0.774, 0.654, 192.0, 0.0, 0.0, 0.0, 0.0, 0.0, 0.0, 0.0, 0.0, 0.0, 1.6541567903199115E9, 0.0, 2022-06-02 09:59:50.319
41.0, 25403.02579438994, 9704.591000627399, -71603.00869977579, -52278.02571988413, -36072.69806536413, -44301.984524963445, -9433.576099106802, -45271.87142036813, 0.006, 0.774, 0.654, 192.0, 0.0, 0.0, 0.0, 0.0, 0.0, 0.0, 0.0, 0.0, 0.0, 1.6541567903199172E9, 0.0, 2022-06-02 09:59:50.319
42.0, 25411.698271238598, 9711.005951286072, -71601.08644975263, -52293.60488576948, -36074.352094453825, -44299.86110924019, -9443.321459689316, -45279.20279254947, 0.006, 0.774, 0.654, 192.0, 0.0, 0.0, 0.0, 0.0, 0.0, 0.0, 0.0, 0.0, 0.0, 1.6541567903199224E9, 0.0, 2022-06-02 09:59:50.319
43.0, 25424.058785922385, 9733.201233530192, -71544.78240546971, -52211.32811442949, -36039.77394578147, -44264.32183555625, -9427.161148448127, -45249.810248590744, 0.006, 0.774, 0.654, 192.0, 0.0, 0.0, 0.0, 0.0, 0.0, 0.0, 0.0, 0.0, 0.0, 1.6541567903199315E9, 0.0, 2022-06-02 09:59:50.319
44.0, 25423.567047544366, 9735.369352742357, -71546.90582119297, -52220.872309311904, -36035.683576546144, -44246.66395743656, -9418.220450666005, -45232.06296349323, 0.006, 0.774, 0.654, 192.0, 0.0, 0.0, 0.0, 0.0, 0.0, 0.0, 0.0, 0.0, 0.0, 1.6541567903199368E9, 0.0, 2022-06-02 09:59:50.319
45.0, 25416.45919280758, 9737.917451610261, -71577.37124888555, -52251.717716660234, -36033.96249222309, -44256.31991104125, -9401.613104535712, -45238.12028624061, 0.006, 0.774, 0.654, 192.0, 0.0, 0.0, 0.0, 0.0, 0.0, 0.0, 0.0, 0.0, 0.0, 1.6541567903199425E9, 0.0, 2022-06-02 09:59:50.319
46.0, 25424.79639348941, 9741.158454556282, -71588.7482868133, -52240.6312514104, -36050.14515520873, -44272.79314670481, -9418.309857643826, -45250.34669045767, 0.006, 0.774, 0.654, 192.0, 0.0, 0.0, 0.0, 0.0, 0.0, 0.0, 0.0, 0.0, 0.0, 1.654156790319949E9, 0.0, 2022-06-02 09:59:50.319
47.0, 25432.99948370451, 9745.517044725066, -71578.75705704177, -52250.82364688202, -36060.918696036184, -44263.65128322259, -9440.505139887946, -45254.370004459626, 0.006, 0.774, 0.654, 192.0, 0.0, 0.0, 0.0, 0.0, 0.0, 0.0, 0.0, 0.0, 0.0, 1.6541567903199544E9, 0.0, 2022-06-02 09:59:50.319
48.0, 25428.395024346715, 9740.018515589061, -71555.7347602528, -52188.6187420629, -36046.63593132924, -44247.26745453685, -9391.688929997556, -45230.49834138135, 0.012, 0.774, 0.662, 192.0, 0.0, 96.0, 24.0, 48.0, 20.0, 176.0, 0.0, 0.0, 0.0, 1.6541567903199596E9, 0.0, 2022-06-02 09:59:50.319
49.0, 25432.46304183758, 9746.388762758823, -71544.62594325852, -52184.70718678322, -36023.0548409289, -44222.68053563601, -9347.432475976047, -45191.427492073475, 0.012, 0.774, 0.662, 192.0, 0.0, 0.0, 0.0, 0.0, 0.0, 0.0, 0.0, 0.0, 0.0, 1.6541567903199651E9, 0.0, 2022-06-02 09:59:50.319
50.0, 25437.022797706464, 9750.993222116616, -71565.32365862414, -52209.85289929544, -36032.80020151141, -44228.42493396103, -9363.078697094763, -45203.542137568256, 0.012, 0.774, 0.662, 192.0, 0.0, 0.0, 0.0, 0.0, 0.0, 0.0, 0.0, 0.0, 0.0, 1.6541567903199704E9, 0.0, 2022-06-02 09:59:50.319
51.0, 25451.03734147994, 9766.773553702064, -71573.9961354728, -52205.293143426556, -36047.68646331864, -44229.9895560729, -9390.705453241522, -45213.64512606205, 0.012, 0.774, 0.662, 192.0, 0.0, 0.0, 0.0, 0.0, 0.0, 0.0, 0.0, 0.0, 0.0, 1.654156790319976E9, 0.0, 2022-06-02 09:59:50.319
52.0, 25445.27059141047, 9761.543245499523, -71573.23617616131, -52210.47874814019, -36059.532887879956, -44249.43557374902, -9425.10478795824, -45253.721803870416, 0.012, 0.774, 0.662, 192.0, 0.0, 0.0, 0.0, 0.0, 0.0, 0.0, 0.0, 0.0, 0.0, 1.6541567903199813E9, 0.0, 2022-06-02 09:59:50.319
53.0, 25425.578704545343, 9739.862053377874, -71573.1914726724, -52215.75375983164, -36056.537754122946, -44250.68727143852, -9418.868651255209, -45237.941472284976, 0.012, 0.774, 0.662, 192.0, 0.0, 0.0, 0.0, 0.0, 0.0, 0.0, 0.0, 0.0, 0.0, 1.6541567903199868E9, 0.0, 2022-06-02 09:59:50.319
54.0, 25426.763347001477, 9738.342134754914, -71555.26537361924, -52219.01711452212, -36039.84100101483, -44232.7388206409, -9377.137944357151, -45194.69084676395, 0.012, 0.774, 0.662, 192.0, 0.0, 0.0, 0.0, 0.0, 0.0, 0.0, 0.0, 0.0, 0.0, 1.6541567903199923E9, 0.0, 2022-06-02 09:59:50.319
55.0, 25423.187067888626, 9742.656021434786, -71574.30905989517, -52222.23576572368, -36046.524172606965, -44259.49385875391, -9405.122328415195, -45255.50994342684, 0.012, 0.774, 0.662, 192.0, 0.0, 0.0, 0.0, 0.0, 0.0, 0.0, 0.0, 0.0, 0.0, 1.6541567903199975E9, 0.0, 2022-06-02 09:59:50.319
56.0, 25432.038358692927, 9749.4509517492, -71605.93677829942, -52254.48933297269, -36068.13830949525, -44278.828117707744, -9450.563424892835, -45287.87526939813, 0.012, 0.774, 0.662, 192.0, 0.0, 0.0, 0.0, 0.0, 0.0, 0.0, 0.0, 0.0, 0.0, 1.6541567903200033E9, 0.0, 2022-06-02 09:59:50.320
57.0, 25445.628219321756, 9752.490788995123, -71564.9883824573, -52232.562271662035, -36050.167506953185, -44245.926349869536, -9405.703473771033, -45203.676248034986, 0.012, 0.774, 0.662, 192.0, 0.0, 0.0, 0.0, 0.0, 0.0, 0.0, 0.0, 0.0, 0.0, 1.6541567903200085E9, 0.0, 2022-06-02 09:59:50.320
58.0, 25428.305617368893, 9736.933974854228, -71538.36745481104, -52208.8247190505, -36044.356053394804, -44241.25483527838, -9391.823040464287, -45200.23407938887, 0.01, 0.772, 0.656, 192.0, 0.0, 80.0, 24.0, 32.0, 20.0, 128.0, 0.0, 0.0, 0.0, 1.654156790320014E9, 0.0, 2022-06-02 09:59:50.320
59.0, 25428.59619004681, 9737.358657998879, -71547.95635318237, -52214.36795167541, -36042.545562093925, -44253.525942984335, -9430.648020583156, -45243.55176014325, 0.01, 0.772, 0.656, 192.0, 0.0, 0.0, 0.0, 0.0, 0.0, 0.0, 0.0, 0.0, 0.0, 1.6541567903200195E9, 0.0, 2022-06-02 09:59:50.320
60.0, 25417.710890497077, 9723.098245036394, -71573.41499011696, -52238.68664964279, -36050.27926567546, -44269.06040538078, -9432.749084561954, -45256.158144016044, 0.01, 0.772, 0.656, 192.0, 0.0, 0.0, 0.0, 0.0, 0.0, 0.0, 0.0, 0.0, 0.0, 1.6541567903200252E9, 0.0, 2022-06-02 09:59:50.320
61.0, 25407.65260549219, 9719.343151967902, -71601.46642940836, -52260.99369060918, -36073.8156525869, -44289.24403062392, -9455.525512161912, -45271.64790292358, 0.01, 0.772, 0.656, 192.0, 0.0, 0.0, 0.0, 0.0, 0.0, 0.0, 0.0, 0.0, 0.0, 1.6541567903200307E9, 0.0, 2022-06-02 09:59:50.320
62.0, 25430.674902281156, 9733.000067830095, -71570.93394648242, -52234.28335598509, -36047.84292552983, -44269.32862631424, -9395.108746899217, -45234.45460014995, 0.01, 0.772, 0.656, 192.0, 0.0, 0.0, 0.0, 0.0, 0.0, 0.0, 0.0, 0.0, 0.0, 1.654156790320036E9, 0.0, 2022-06-02 09:59:50.320
63.0, 25422.4494603216, 9718.560840911967, -71571.20216741588, -52242.061763055535, -36036.13061143525, -44255.38113777413, -9389.833735207765, -45229.246643691855, 0.01, 0.772, 0.656, 192.0, 0.0, 0.0, 0.0, 0.0, 0.0, 0.0, 0.0, 0.0, 0.0, 1.6541567903200424E9, 0.0, 2022-06-02 09:59:50.320
64.0, 25424.79639348941, 9721.578326413433, -71559.0875219211, -52235.11037052994, -36025.6029397968, -44245.501666724886, -9402.23895338046, -45229.06782973622, 0.01, 0.772, 0.656, 192.0, 0.0, 0.0, 0.0, 0.0, 0.0, 0.0, 0.0, 0.0, 0.0, 1.6541567903200507E9, 0.0, 2022-06-02 09:59:50.320
65.0, 25431.79248950392, 9732.955364341184, -71562.59674580059, -52247.806161380555, -36039.84100101483, -44246.46279173646, -9402.618933036201, -45230.4759896369, 0.01, 0.772, 0.656, 192.0, 0.0, 0.0, 0.0, 0.0, 0.0, 0.0, 0.0, 0.0, 0.0, 1.654156790320056E9, 0.0, 2022-06-02 09:59:50.320
66.0, 25424.192896389115, 9722.584154913922, -71588.30125192419, -52247.96262359174, -36060.69517859163, -44273.91073392758, -9408.855069739231, -45255.64405389358, 0.01, 0.772, 0.656, 192.0, 0.0, 0.0, 0.0, 0.0, 0.0, 0.0, 0.0, 0.0, 0.0, 1.6541567903200617E9, 0.0, 2022-06-02 09:59:50.320
67.0, 25416.79446897441, 9709.396625685291, -71602.47225790886, -52263.3853272659, -36079.89532707874, -44289.5569550463, -9456.039602284385, -45281.01328385035, 0.01, 0.772, 0.656, 192.0, 0.0, 0.0, 0.0, 0.0, 0.0, 0.0, 0.0, 0.0, 0.0, 1.6541567903200667E9, 0.0, 2022-06-02 09:59:50.320
68.0, 25418.627312019744, 9713.151718753781, -71575.20312967338, -52238.1278560314, -36053.96730351059, -44256.43166976353, -9387.084470639762, -45232.93468152698, 0.008, 0.77, 0.656, 192.0, 0.0, 64.0, 24.0, 16.0, 20.0, 128.0, 0.0, 0.0, 0.0, 1.654156790320073E9, 0.0, 2022-06-02 09:59:50.320
69.0, 25421.242466121017, 9715.811576343964, -71568.83288250362, -52251.3824404934, -36042.76907953848, -44243.33354751272, -9367.750211685921, -45203.02804744578, 0.008, 0.77, 0.656, 192.0, 0.0, 0.0, 0.0, 0.0, 0.0, 0.0, 0.0, 0.0, 0.0, 1.6541567903200784E9, 0.0, 2022-06-02 09:59:50.320
70.0, 25432.731262771045, 9730.183748028725, -71580.09816170909, -52270.91786514734, -36045.92067550668, -44251.022547605346, -9384.357557816214, -45221.51294011032, 0.008, 0.77, 0.656, 192.0, 0.0, 0.0, 0.0, 0.0, 0.0, 0.0, 0.0, 0.0, 0.0, 1.6541567903200836E9, 0.0, 2022-06-02 09:59:50.320
71.0, 25424.617579533766, 9721.667733391254, -71591.58695835913, -52227.26490822613, -36076.69902762163, -44277.88934444062, -9415.33707563127, -45241.070716508715, 0.008, 0.77, 0.656, 192.0, 0.0, 0.0, 0.0, 0.0, 0.0, 0.0, 0.0, 0.0, 0.0, 1.654156790320089E9, 0.0, 2022-06-02 09:59:50.320
72.0, 25426.763347001477, 9726.674524149243, -71574.93490873992, -52221.74402734567, -36068.60769612881, -44270.24504783691, -9417.214622165517, -45236.51096063983, 0.008, 0.77, 0.656, 192.0, 0.0, 0.0, 0.0, 0.0, 0.0, 0.0, 0.0, 0.0, 0.0, 1.6541567903200943E9, 0.0, 2022-06-02 09:59:50.320
73.0, 25416.7497654855, 9710.357750696869, -71576.11955119605, -52254.3328707615, -36076.63197238827, -44281.286809597834, -9431.564442105824, -45262.10370804116, 0.008, 0.77, 0.656, 192.0, 0.0, 0.0, 0.0, 0.0, 0.0, 0.0, 0.0, 0.0, 0.0, 1.6541567903201E9, 0.0, 2022-06-02 09:59:50.320
74.0, 25419.58843703132, 9716.415073444257, -71556.137091653, -52256.255120784655, -36061.79041406994, -44282.91848694307, -9443.433218411592, -45278.86751638264, 0.008, 0.77, 0.656, 192.0, 0.0, 0.0, 0.0, 0.0, 0.0, 0.0, 0.0, 0.0, 0.0, 1.6541567903201053E9, 0.0, 2022-06-02 09:59:50.320
75.0, 25442.61073382029, 9753.608376217888, -71548.09046364909, -52222.213413979225, -36047.97703599656, -44260.92437039904, -9419.606258822234, -45255.889923082585, 0.008, 0.77, 0.656, 192.0, 0.0, 0.0, 0.0, 0.0, 0.0, 0.0, 0.0, 0.0, 0.0, 1.6541567903201108E9, 0.0, 2022-06-02 09:59:50.320
76.0, 25442.23075416455, 9752.356678528391, -71570.71042903786, -52240.161864776834, -36052.31327442089, -44261.84079192171, -9400.450813824036, -45231.347707670655, 0.008, 0.77, 0.656, 192.0, 0.0, 0.0, 0.0, 0.0, 0.0, 0.0, 0.0, 0.0, 0.0, 1.6541567903201168E9, 0.0, 2022-06-02 09:59:50.320
77.0, 25450.27738216846, 9754.390687273823, -71558.640487032, -52252.209455038246, -36057.87885879027, -44279.31985608576, -9412.408997107625, -45242.52357989831, 0.008, 0.77, 0.656, 192.0, 0.0, 0.0, 0.0, 0.0, 0.0, 0.0, 0.0, 0.0, 0.0, 1.654156790320122E9, 0.0, 2022-06-02 09:59:50.320
78.0, 25422.494163810512, 9724.037018303516, -71562.55204231168, -52239.49131244318, -36059.37642566877, -44265.72999545694, -9414.510061086425, -45231.5265216263, 0.014, 0.776, 0.658, 192.0, 0.0, 112.0, 24.0, 64.0, 20.0, 144.0, 0.0, 0.0, 0.0, 1.6541567903201275E9, 0.0, 2022-06-02 09:59:50.320
79.0, 25416.07921315184, 9720.594849657398, -71570.75513252677, -52241.43591421079, -36041.18210568215, -44279.610428763684, -9414.375950619693, -45246.12221075562, 0.014, 0.776, 0.658, 192.0, 0.0, 0.0, 0.0, 0.0, 0.0, 0.0, 0.0, 0.0, 0.0, 1.654156790320133E9, 0.0, 2022-06-02 09:59:50.320
80.0, 25397.527265253935, 9711.788262342008, -71600.59471137461, -52260.81487665354, -36049.675768575165, -44283.700797999, -9434.760741562932, -45274.10659481366, 0.014, 0.776, 0.658, 192.0, 0.0, 0.0, 0.0, 0.0, 0.0, 0.0, 0.0, 0.0, 0.0, 1.6541567903201385E9, 0.0, 2022-06-02 09:59:50.320
81.0, 25431.56897205937, 9742.030172590039, -71569.70460053737, -52246.77798113561, -36048.558181352404, -44268.43455653603, -9431.363276405726, -45249.54202765728, 0.014, 0.776, 0.658, 192.0, 0.0, 0.0, 0.0, 0.0, 0.0, 0.0, 0.0, 0.0, 0.0, 1.6541567903201437E9, 0.0, 2022-06-02 09:59:50.320
82.0, 25444.801204776908, 9753.697783195708, -71551.4879288063, -52227.108446014936, -36048.66994007468, -44259.76207968737, -9421.796729778855, -45223.748114555856, 0.014, 0.776, 0.658, 192.0, 0.0, 0.0, 0.0, 0.0, 0.0, 0.0, 0.0, 0.0, 0.0, 1.6541567903201492E9, 0.0, 2022-06-02 09:59:50.320
83.0, 25421.957721943585, 9728.283849750025, -71543.53070778021, -52238.932518831796, -36027.2569688865, -44247.870951637145, -9366.453810507513, -45188.61117227211, 0.014, 0.776, 0.658, 192.0, 0.0, 0.0, 0.0, 0.0, 0.0, 0.0, 0.0, 0.0, 0.0, 1.654156790320155E9, 0.0, 2022-06-02 09:59:50.320
84.0, 25410.78184971593, 9721.444215946702, -71553.67839976292, -52270.24731281368, -36030.162695665684, -44256.811649419265, -9396.00281667743, -45228.01729774682, 0.014, 0.776, 0.658, 192.0, 0.0, 0.0, 0.0, 0.0, 0.0, 0.0, 0.0, 0.0, 0.0, 1.65415679032016E9, 0.0, 2022-06-02 09:59:50.320
85.0, 25400.477695522037, 9715.275134477037, -71581.99805998779, -52251.94123410479, -36051.39685289822, -44283.030245665344, -9433.374933406703, -45271.02205407883, 0.014, 0.776, 0.658, 192.0, 0.0, 0.0, 0.0, 0.0, 0.0, 0.0, 0.0, 0.0, 0.0, 1.6541567903201663E9, 0.0, 2022-06-02 09:59:50.320
86.0, 25407.965529914563, 9721.846547346897, -71594.02329850475, -52277.8916094174, -36052.84971628782, -44293.08853067023, -9425.887099014175, -45267.691644154984, 0.014, 0.776, 0.658, 192.0, 0.0, 0.0, 0.0, 0.0, 0.0, 0.0, 0.0, 0.0, 0.0, 1.6541567903201735E9, 0.0, 2022-06-02 09:59:50.320
87.0, 25407.093811880808, 9706.915582050751, -71592.7939525597, -52290.25212410118, -36059.7117018356, -44288.99816143491, -9437.286488686383, -45254.280597481804, 0.014, 0.776, 0.658, 192.0, 0.0, 0.0, 0.0, 0.0, 0.0, 0.0, 0.0, 0.0, 0.0, 1.654156790320179E9, 0.0, 2022-06-02 09:59:50.320
88.0, 25406.69148048061, 9719.83489034592, -71578.24296691931, -52294.11897589195, -36052.38032965426, -44271.228524592945, -9417.885174499175, -45233.69464083846, 0.014, 0.774, 0.654, 192.0, 0.0, 112.0, 24.0, 48.0, 20.0, 112.0, 0.0, 0.0, 0.0, 1.6541567903201845E9, 0.0, 2022-06-02 09:59:50.320
89.0, 25408.211399103573, 9727.076855549438, -71554.77363524123, -52199.146413701346, -36043.01494872748, -44268.5463152583, -9411.559630818323, -45234.4769518944, 0.014, 0.774, 0.654, 192.0, 0.0, 0.0, 0.0, 0.0, 0.0, 0.0, 0.0, 0.0, 0.0, 1.6541567903201897E9, 0.0, 2022-06-02 09:59:50.320
90.0, 25409.26193109297, 9735.995201587106, -71564.00490570128, -52222.19106223477, -36043.75255629451, -44264.0983181117, -9377.406165290615, -45215.58972782967, 0.014, 0.774, 0.654, 192.0, 0.0, 0.0, 0.0, 0.0, 0.0, 0.0, 0.0, 0.0, 0.0, 1.6541567903201952E9, 0.0, 2022-06-02 09:59:50.320
91.0, 25407.87612293674, 9733.82708237494, -71589.82117054715, -52258.065612085535, -36064.80789957141, -44277.24114385142, -9398.90854345662, -45240.82484731971, 0.014, 0.774, 0.654, 192.0, 0.0, 0.0, 0.0, 0.0, 0.0, 0.0, 0.0, 0.0, 0.0, 1.6541567903202007E9, 0.0, 2022-06-02 09:59:50.320
92.0, 25421.376576587747, 9740.197329544704, -71595.47616189434, -52273.4883157597, -36076.3637514548, -44284.72897824395, -9444.886081801187, -45283.986065862904, 0.014, 0.774, 0.654, 192.0, 0.0, 0.0, 0.0, 0.0, 0.0, 0.0, 0.0, 0.0, 0.0, 1.654156790320206E9, 0.0, 2022-06-02 09:59:50.320
93.0, 25410.69244273811, 9731.122521295849, -71572.4985685943, -52247.13560904689, -36072.407492686216, -44272.45787053798, -9407.312799371815, -45250.34669045767, 0.014, 0.774, 0.654, 192.0, 0.0, 0.0, 0.0, 0.0, 0.0, 0.0, 0.0, 0.0, 0.0, 1.6541567903202112E9, 0.0, 2022-06-02 09:59:50.320
94.0, 25422.605922532788, 9745.002954602594, -71540.24500134528, -52198.85584102343, -36040.84682951532, -44243.51236146836, -9365.336223284748, -45194.13205315257, 0.014, 0.774, 0.654, 192.0, 0.0, 0.0, 0.0, 0.0, 0.0, 0.0, 0.0, 0.0, 0.0, 1.6541567903202257E9, 0.0, 2022-06-02 09:59:50.320
95.0, 25440.621428563765, 9765.79007694603, -71548.13516713801, -52213.94326853076, -36032.37551836676, -44228.67080315004, -9375.685080967556, -45175.915381421495, 0.014, 0.774, 0.654, 192.0, 0.0, 0.0, 0.0, 0.0, 0.0, 0.0, 0.0, 0.0, 0.0, 1.6541567903202307E9, 0.0, 2022-06-02 09:59:50.320
96.0, 25426.137498156728, 9744.958251113683, -71590.8493507921, -52262.31244353205, -36076.14023401025, -44276.14590837311, -9435.25247994095, -45234.923986783506, 0.014, 0.774, 0.654, 192.0, 0.0, 0.0, 0.0, 0.0, 0.0, 0.0, 0.0, 0.0, 0.0, 1.6541567903202364E9, 0.0, 2022-06-02 09:59:50.320
97.0, 25424.12584115575, 9737.671582421253, -71577.70652505237, -52252.47767597171, -36078.71068462261, -44274.89421068361, -9433.754913062443, -45239.86372230813, 0.014, 0.774, 0.66, 192.0, 0.0, 112.0, 24.0, 48.0, 20.0, 160.0, 0.0, 0.0, 0.0, 1.6541567903202417E9, 0.0, 2022-06-02 09:59:50.320
98.0, 25410.245407849005, 9722.472396191644, -71580.65695532048, -52248.25319626966, -36072.49689966404, -44274.71539672797, -9423.406055379637, -45242.85885606514, 0.014, 0.774, 0.66, 192.0, 0.0, 0.0, 0.0, 0.0, 0.0, 0.0, 0.0, 0.0, 0.0, 1.654156790320247E9, 0.0, 2022-06-02 09:59:50.320
99.0, 25425.98103594554, 9740.085570822426, -71546.6376002595, -52231.75760886164, -36049.69812031962, -44256.02933836333, -9404.474127825992, -45240.69073685297, 0.014, 0.774, 0.66, 192.0, 0.0, 0.0, 0.0, 0.0, 0.0, 0.0, 0.0, 0.0, 0.0, 1.6541567903202524E9, 0.0, 2022-06-02 09:59:50.320
100.0, 25425.086966167328, 9743.036001090528, -71560.9874201998, -52252.50002771617, -36044.5572190949, -44271.072062381754, -9392.962979431508, -45270.23974302289, 0.014, 0.774, 0.66, 192.0, 0.0, 0.0, 0.0, 0.0, 0.0, 0.0, 0.0, 0.0, 0.0, 1.654156790320258E9, 0.0, 2022-06-02 09:59:50.320
101.0, 25415.766288729465, 9736.889271365319, -71592.83865604863, -52256.94802486277, -36071.17814674117, -44279.56572527477, -9423.62957282419, -45257.566303916734, 0.014, 0.774, 0.66, 192.0, 0.0, 0.0, 0.0, 0.0, 0.0, 0.0, 0.0, 0.0, 0.0, 1.6541567903202631E9, 0.0, 2022-06-02 09:59:50.320
102.0, 25426.74099525702, 9742.656021434786, -71569.5481383262, -52241.212396766234, -36054.637855844245, -44255.91757964106, -9390.124307885684, -45205.93377422497, 0.014, 0.774, 0.66, 192.0, 0.0, 0.0, 0.0, 0.0, 0.0, 0.0, 0.0, 0.0, 0.0, 1.6541567903202686E9, 0.0, 2022-06-02 09:59:50.320
103.0, 25432.954780215598, 9746.098190080904, -71542.54723102417, -52226.99668729266, -36035.52711433496, -44249.01089060437, -9368.063136108296, -45208.23600390387, 0.014, 0.774, 0.66, 192.0, 0.0, 0.0, 0.0, 0.0, 0.0, 0.0, 0.0, 0.0, 0.0, 1.654156790320274E9, 0.0, 2022-06-02 09:59:50.320
104.0, 25429.13263191374, 9741.180806300737, -71534.65706523145, -52209.80819580653, -36023.501875818, -44234.41520147505, -9369.225426819972, -45193.103872907624, 0.014, 0.774, 0.66, 192.0, 0.0, 0.0, 0.0, 0.0, 0.0, 0.0, 0.0, 0.0, 0.0, 1.6541567903202791E9, 0.0, 2022-06-02 09:59:50.320
105.0, 25427.679768524144, 9747.618108703866, -71546.39173107049, -52215.73140808719, -36020.03735542743, -44239.4443439775, -9375.841543178743, -45223.39048664457, 0.014, 0.774, 0.66, 192.0, 0.0, 0.0, 0.0, 0.0, 0.0, 0.0, 0.0, 0.0, 0.0, 1.6541567907997472E9, 0.0, 2022-06-02 09:59:50.799
106.0, 25412.681747994633, 9734.408227730779, -71591.4975513813, -52256.36687950693, -36061.11986173628, -44283.43257706554, -9405.85993598222, -45272.49726921288, 0.014, 0.774, 0.66, 192.0, 0.0, 0.0, 0.0, 0.0, 0.0, 0.0, 0.0, 0.0, 0.0, 1.6541567907997847E9, 0.0, 2022-06-02 09:59:50.799
107.0, 25407.473791536548, 9731.569556184955, -71570.57631857114, -52248.52141720312, -36052.00034999852, -44264.32183555625, -9367.52669424137, -45205.95612596943, 0.02, 0.774, 0.664, 192.0, 0.0, 160.0, 24.0, 48.0, 20.0, 192.0, 0.0, 0.0, 0.0, 1.6541567907999945E9, 0.0, 2022-06-02 09:59:50.799
108.0, 25402.958739156573, 9735.548166698, -71544.06714964713, -52236.29501298607, -36022.630157784246, -44218.8360355897, -9335.250775247905, -45138.76678213677, 0.02, 0.774, 0.664, 192.0, 0.0, 0.0, 0.0, 0.0, 0.0, 0.0, 0.0, 0.0, 0.0, 1.6541567908000007E9, 0.0, 2022-06-02 09:59:50.800
109.0, 25399.002480387986, 9746.411114503278, -71548.35868458256, -52246.06272531304, -36019.813837982874, -44216.265584977344, -9370.588883231745, -45178.0611488892, 0.02, 0.774, 0.664, 192.0, 0.0, 0.0, 0.0, 0.0, 0.0, 0.0, 0.0, 0.0, 0.0, 1.6541567908000062E9, 0.0, 2022-06-02 09:59:50.800
110.0, 25375.577852198825, 9732.888309107819, -71579.58407158662, -52211.864556296416, -36040.82447777087, -44260.23146632093, -9416.991104720963, -45243.596463632166, 0.02, 0.774, 0.664, 192.0, 0.0, 0.0, 0.0, 0.0, 0.0, 0.0, 0.0, 0.0, 0.0, 1.6541567908000119E9, 0.0, 2022-06-02 09:59:50.800
111.0, 25361.473901447524, 9727.345076482901, -71596.146714228, -52257.171542307326, -36060.53871638045, -44293.42380683706, -9429.083398471284, -45284.50015598538, 0.02, 0.774, 0.664, 192.0, 0.0, 0.0, 0.0, 0.0, 0.0, 0.0, 0.0, 0.0, 0.0, 1.654156790800017E9, 0.0, 2022-06-02 09:59:50.800
112.0, 25366.324229994327, 9731.88248060733, -71578.8464640196, -52267.520399990135, -36051.150983709216, -44269.7980129478, -9384.268150838394, -45222.16114069953, 0.02, 0.774, 0.664, 192.0, 0.0, 0.0, 0.0, 0.0, 0.0, 0.0, 0.0, 0.0, 0.0, 1.6541567908000228E9, 0.0, 2022-06-02 09:59:50.800
113.0, 25366.190119527593, 9731.010762573573, -71563.78138825671, -52258.356184763456, -36051.30744592041, -44251.40252726108, -9401.52369755789, -45198.155367154526, 0.02, 0.774, 0.664, 192.0, 0.0, 0.0, 0.0, 0.0, 0.0, 0.0, 0.0, 0.0, 0.0, 1.6541567908000283E9, 0.0, 2022-06-02 09:59:50.800
114.0, 25355.170709511127, 9727.658000905276, -71558.81930098764, -52208.645905094854, -36048.982864497055, -44251.715451683456, -9397.723901000489, -45213.0192772173, 0.02, 0.774, 0.664, 192.0, 0.0, 0.0, 0.0, 0.0, 0.0, 0.0, 0.0, 0.0, 0.0, 1.654156790800034E9, 0.0, 2022-06-02 09:59:50.800
115.0, 25360.535128180403, 9744.6006232024, -71567.26826039175, -52238.798408365066, -36056.91773377868, -44262.533695999824, -9432.704381073045, -45255.62170214912, 0.02, 0.774, 0.664, 192.0, 0.0, 0.0, 0.0, 0.0, 0.0, 0.0, 0.0, 0.0, 0.0, 1.6541567908000393E9, 0.0, 2022-06-02 09:59:50.800
116.0, 25360.82570085832, 9743.795960402007, -71580.52284485374, -52239.62542290991, -36067.80303332842, -44275.542411272814, -9420.187404178072, -45245.71987935542, 0.02, 0.774, 0.664, 192.0, 0.0, 0.0, 0.0, 0.0, 0.0, 0.0, 0.0, 0.0, 0.0, 1.6541567908000448E9, 0.0, 2022-06-02 09:59:50.800
117.0, 25345.64886637317, 9723.031189803027, -71588.03303099073, -52257.57387370752, -36070.8652223188, -44280.1021671417, -9385.47514503898, -45215.61207957412, 0.018000000000000002, 0.776, 0.662, 192.0, 0.0, 144.0, 24.0, 64.0, 20.0, 176.0, 0.0, 0.0, 0.0, 1.6541567908000505E9, 0.0, 2022-06-02 09:59:50.800
118.0, 25352.264982731936, 9736.397532987301, -71565.41306560196, -52236.09384728597, -36050.14515520873, -44260.11970759866, -9379.373118802681, -45215.38856212957, 0.018000000000000002, 0.776, 0.662, 192.0, 0.0, 0.0, 0.0, 0.0, 0.0, 0.0, 0.0, 0.0, 0.0, 1.6541567908000557E9, 0.0, 2022-06-02 09:59:50.800
119.0, 25348.711055363543, 9735.056428319982, -71561.36739985555, -52224.09096051347, -36047.7088150631, -44263.09248961121, -9398.170935889595, -45244.8258095772, 0.018000000000000002, 0.776, 0.662, 192.0, 0.0, 0.0, 0.0, 0.0, 0.0, 0.0, 0.0, 0.0, 0.0, 1.6541567908000612E9, 0.0, 2022-06-02 09:59:50.800
120.0, 25344.754796594956, 9731.21192827367, -71575.6948680514, -52258.46794348573, -36061.45513790311, -44256.76694593036, -9418.8239477663, -45215.79089352976, 0.018000000000000002, 0.776, 0.662, 192.0, 0.0, 0.0, 0.0, 0.0, 0.0, 0.0, 0.0, 0.0, 0.0, 1.6541567908000667E9, 0.0, 2022-06-02 09:59:50.800
121.0, 25353.114349021238, 9744.332402268936, -71585.30611816718, -52280.14913560738, -36057.07419598987, -44260.79025993231, -9386.592732261746, -45197.730684009875, 0.018000000000000002, 0.776, 0.662, 192.0, 0.0, 0.0, 0.0, 0.0, 0.0, 0.0, 0.0, 0.0, 0.0, 1.654156790800072E9, 0.0, 2022-06-02 09:59:50.800
122.0, 25352.44379668758, 9741.225509789647, -71583.22740593283, -52231.28822222808, -36056.7612715675, -44273.866030438665, -9377.920255413086, -45213.19809117295, 0.018000000000000002, 0.776, 0.662, 192.0, 0.0, 0.0, 0.0, 0.0, 0.0, 0.0, 0.0, 0.0, 0.0, 1.6541567908000777E9, 0.0, 2022-06-02 09:59:50.800
123.0, 25348.889869319188, 9731.748370140598, -71559.17692889893, -52234.372762962914, -36050.12280346427, -44262.93602740002, -9386.548028772835, -45216.79672203025, 0.018000000000000002, 0.776, 0.662, 192.0, 0.0, 0.0, 0.0, 0.0, 0.0, 0.0, 0.0, 0.0, 0.0, 1.6541567908000827E9, 0.0, 2022-06-02 09:59:50.800
124.0, 25334.24947670096, 9725.579288670933, -71565.7930452577, -52232.986954806685, -36054.302579677416, -44253.70475693998, -9397.52273530039, -45216.43909411897, 0.018000000000000002, 0.776, 0.662, 192.0, 0.0, 0.0, 0.0, 0.0, 0.0, 0.0, 0.0, 0.0, 0.0, 1.6541567908000884E9, 0.0, 2022-06-02 09:59:50.800
125.0, 25346.07354951782, 9737.850396376896, -71574.06319070616, -52243.9840130787, -36053.00617849901, -44264.59005648972, -9392.940627687052, -45228.33022216919, 0.018000000000000002, 0.776, 0.662, 192.0, 0.0, 0.0, 0.0, 0.0, 0.0, 0.0, 0.0, 0.0, 0.0, 1.654156790800094E9, 0.0, 2022-06-02 09:59:50.800
126.0, 25336.842279057775, 9726.853338104886, -71609.06602252317, -52304.75840625267, -36078.64362938925, -44295.45781558249, -9425.305953658337, -45262.84131560819, 0.018000000000000002, 0.776, 0.662, 192.0, 0.0, 0.0, 0.0, 0.0, 0.0, 0.0, 0.0, 0.0, 0.0, 1.6541567908000996E9, 0.0, 2022-06-02 09:59:50.800
127.0, 25337.758700580445, 9729.155567783782, -71590.40231590299, -52280.59617049649, -36070.8652223188, -44284.48310905494, -9384.402261305126, -45237.58384437369, 0.018000000000000002, 0.77, 0.662, 192.0, 0.0, 144.0, 24.0, 16.0, 20.0, 176.0, 0.0, 0.0, 0.0, 1.654156790800105E9, 0.0, 2022-06-02 09:59:50.800
128.0, 25324.906447518642, 9722.315933980457, -71576.85715876307, -52227.5778326485, -36055.75544306701, -44257.77277443085, -9371.795877432332, -45210.18060567148, 0.018000000000000002, 0.77, 0.662, 192.0, 0.0, 0.0, 0.0, 0.0, 0.0, 0.0, 0.0, 0.0, 0.0, 1.654156790800116E9, 0.0, 2022-06-02 09:59:50.800
129.0, 25329.53325862089, 9728.864995105863, -71583.16035069947, -52233.70221062926, -36059.48818439105, -44259.51621049836, -9423.42840712409, -45233.26995769381, 0.018000000000000002, 0.77, 0.662, 192.0, 0.0, 0.0, 0.0, 0.0, 0.0, 0.0, 0.0, 0.0, 0.0, 1.6541567908001213E9, 0.0, 2022-06-02 09:59:50.800
130.0, 25329.667369087623, 9731.144873040304, -71604.72978409885, -52275.45526927177, -36054.97313201107, -44282.33734158723, -9397.187459133562, -45250.793725346775, 0.018000000000000002, 0.77, 0.662, 192.0, 0.0, 0.0, 0.0, 0.0, 0.0, 0.0, 0.0, 0.0, 0.0, 1.6541567908001268E9, 0.0, 2022-06-02 09:59:50.800
131.0, 25330.315569676826, 9735.279945764536, -71605.06506026567, -52276.72931870572, -36064.51732689349, -44289.176975390554, -9387.375043317681, -45250.83842883568, 0.018000000000000002, 0.77, 0.662, 192.0, 0.0, 0.0, 0.0, 0.0, 0.0, 0.0, 0.0, 0.0, 0.0, 1.654156790800132E9, 0.0, 2022-06-02 09:59:50.800
132.0, 25336.082319746296, 9740.197329544704, -71595.36440317208, -52243.02288806711, -36070.149966496225, -44272.45787053798, -9404.876459226187, -45223.882225022586, 0.018000000000000002, 0.77, 0.662, 192.0, 0.0, 0.0, 0.0, 0.0, 0.0, 0.0, 0.0, 0.0, 0.0, 1.6541567908001375E9, 0.0, 2022-06-02 09:59:50.800
133.0, 25346.96761929603, 9747.349887770402, -71571.53744358271, -52237.83728335349, -36062.4609664036, -44254.04003310681, -9416.722883787499, -45224.39631514506, 0.018000000000000002, 0.77, 0.662, 192.0, 0.0, 0.0, 0.0, 0.0, 0.0, 0.0, 0.0, 0.0, 0.0, 1.6541567908001432E9, 0.0, 2022-06-02 09:59:50.800
134.0, 25334.607104612245, 9736.330477753936, -71577.3488971411, -52245.8839113574, -36058.415300657194, -44259.06917560926, -9407.759834260922, -45240.40016417506, 0.018000000000000002, 0.77, 0.662, 192.0, 0.0, 0.0, 0.0, 0.0, 0.0, 0.0, 0.0, 0.0, 0.0, 1.6541567908001485E9, 0.0, 2022-06-02 09:59:50.800
135.0, 25316.18926718107, 9723.098245036394, -71614.69866212591, -52257.8867981299, -36071.33460895236, -44293.46851032597, -9420.902660000642, -45299.92285965954, 0.018000000000000002, 0.77, 0.662, 192.0, 0.0, 0.0, 0.0, 0.0, 0.0, 0.0, 0.0, 0.0, 0.0, 1.654156790800154E9, 0.0, 2022-06-02 09:59:50.800
136.0, 25331.25434294395, 9740.35379175589, -71605.33328119914, -52280.14913560738, -36082.24226024655, -44287.43353932304, -9436.861805541732, -45296.41363578005, 0.018000000000000002, 0.77, 0.662, 192.0, 0.0, 0.0, 0.0, 0.0, 0.0, 0.0, 0.0, 0.0, 0.0, 1.6541567908001597E9, 0.0, 2022-06-02 09:59:50.800
137.0, 25325.934627763585, 9729.78141662853, -71610.0047957903, -52274.06946111554, -36079.67180963419, -44268.23339083593, -9406.597543549246, -45224.932757011986, 0.01, 0.768, 0.658, 192.0, 0.0, 80.0, 24.0, 0.0, 20.0, 144.0, 0.0, 0.0, 0.0, 1.6541567908001647E9, 0.0, 2022-06-02 09:59:50.800
138.0, 25341.983180282496, 9732.530681196533, -71571.93977498291, -52232.495216428666, -36068.071254261886, -44271.80966994878, -9397.947418445041, -45223.97163200041, 0.01, 0.768, 0.658, 192.0, 0.0, 0.0, 0.0, 0.0, 0.0, 0.0, 0.0, 0.0, 0.0, 1.6541567908001704E9, 0.0, 2022-06-02 09:59:50.800
139.0, 25332.193116211074, 9726.071027048949, -71565.63658304651, -52227.13079775939, -36054.0567104884, -44255.71641394096, -9372.309967554804, -45213.46631210641, 0.01, 0.768, 0.658, 192.0, 0.0, 0.0, 0.0, 0.0, 0.0, 0.0, 0.0, 0.0, 0.0, 1.654156790800176E9, 0.0, 2022-06-02 09:59:50.800
140.0, 25329.645017343166, 9722.584154913922, -71597.30900493969, -52243.82755086751, -36067.62421937278, -44273.48605078293, -9398.126232400684, -45246.50219041135, 0.01, 0.768, 0.658, 192.0, 0.0, 0.0, 0.0, 0.0, 0.0, 0.0, 0.0, 0.0, 0.0, 1.6541567908001812E9, 0.0, 2022-06-02 09:59:50.800
141.0, 25357.025904300917, 9760.090382109927, -71611.39060394652, -52270.29201630259, -36092.92639409618, -44275.698873484005, -9455.525512161912, -45242.14360024257, 0.01, 0.768, 0.658, 192.0, 0.0, 0.0, 0.0, 0.0, 0.0, 0.0, 0.0, 0.0, 0.0, 1.6541567908001876E9, 0.0, 2022-06-02 09:59:50.800
142.0, 25343.21252622754, 9735.704628909187, -71602.78518233124, -52288.82161245604, -36081.079969534876, -44265.52882975684, -9421.126177445196, -45216.729666796884, 0.01, 0.768, 0.658, 192.0, 0.0, 0.0, 0.0, 0.0, 0.0, 0.0, 0.0, 0.0, 0.0, 1.6541567908001928E9, 0.0, 2022-06-02 09:59:50.800
143.0, 25347.63817162969, 9743.751256913098, -71563.2896498787, -52263.56414122154, -36050.18985869764, -44253.97297787345, -9372.198208832528, -45209.35359112664, 0.01, 0.768, 0.658, 192.0, 0.0, 0.0, 0.0, 0.0, 0.0, 0.0, 0.0, 0.0, 0.0, 1.6541567908001983E9, 0.0, 2022-06-02 09:59:50.800
144.0, 25346.788805340388, 9747.551053470499, -71543.35189382457, -52186.16005017282, -36034.87891374575, -44247.82624814824, -9351.835769633743, -45197.32835260968, 0.01, 0.768, 0.658, 192.0, 0.0, 0.0, 0.0, 0.0, 0.0, 0.0, 0.0, 0.0, 0.0, 1.654156790800204E9, 0.0, 2022-06-02 09:59:50.800
145.0, 25355.796558355876, 9761.498542010611, -71561.47915857783, -52193.51377409861, -36040.869181259775, -44240.249006777885, -9351.500493466914, -45184.7666722258, 0.01, 0.768, 0.658, 192.0, 0.0, 0.0, 0.0, 0.0, 0.0, 0.0, 0.0, 0.0, 0.0, 1.6541567908002093E9, 0.0, 2022-06-02 09:59:50.800
146.0, 25350.16391875314, 9756.245882063613, -71593.10687698208, -52254.24346378368, -36060.1140332358, -44259.337396542716, -9375.372156545181, -45214.20391967343, 0.01, 0.768, 0.658, 192.0, 0.0, 0.0, 0.0, 0.0, 0.0, 0.0, 0.0, 0.0, 0.0, 1.6541567908002152E9, 0.0, 2022-06-02 09:59:50.800
147.0, 25352.801424598867, 9761.967928644173, -71577.147731441, -52255.45045798427, -36053.90024827722, -44265.64058847912, -9378.6131594912, -45225.17862620099, 0.02, 0.772, 0.662, 192.0, 0.0, 160.0, 24.0, 32.0, 20.0, 176.0, 0.0, 0.0, 0.0, 1.6541567908002205E9, 0.0, 2022-06-02 09:59:50.800
148.0, 25338.295142447372, 9740.957288856183, -71580.25462392028, -52231.06470478353, -36053.721434321575, -44283.36552183217, -9420.746197789455, -45260.96376907394, 0.02, 0.772, 0.662, 192.0, 0.0, 0.0, 0.0, 0.0, 0.0, 0.0, 0.0, 0.0, 0.0, 1.654156790800226E9, 0.0, 2022-06-02 09:59:50.800
149.0, 25339.63624711469, 9742.745428412609, -71564.40723710146, -52241.368858977425, -36049.02756798596, -44262.556047744285, -9418.891002999664, -45226.117399468116, 0.02, 0.772, 0.662, 192.0, 0.0, 0.0, 0.0, 0.0, 0.0, 0.0, 0.0, 0.0, 0.0, 1.6541567908002317E9, 0.0, 2022-06-02 09:59:50.800
150.0, 25356.221241500527, 9762.951405400207, -71557.29938236468, -52232.830492595494, -36037.42701261366, -44257.303387797285, -9378.568456002291, -45217.511977852824, 0.02, 0.772, 0.662, 192.0, 0.0, 0.0, 0.0, 0.0, 0.0, 0.0, 0.0, 0.0, 0.0, 1.654156790800239E9, 0.0, 2022-06-02 09:59:50.800
151.0, 25351.482671676004, 9763.443143778222, -71582.02041173226, -52258.87027488593, -36039.66218705919, -44265.52882975684, -9366.923197141075, -45214.20391967343, 0.02, 0.772, 0.662, 192.0, 0.0, 0.0, 0.0, 0.0, 0.0, 0.0, 0.0, 0.0, 0.0, 1.6541567908002453E9, 0.0, 2022-06-02 09:59:50.800
152.0, 25341.267924459928, 9756.178826830248, -71593.26333919328, -52254.377574250415, -36053.94495176613, -44273.93308567203, -9377.540275757347, -45210.78410277177, 0.02, 0.772, 0.662, 192.0, 0.0, 0.0, 0.0, 0.0, 0.0, 0.0, 0.0, 0.0, 0.0, 1.6541567908002532E9, 0.0, 2022-06-02 09:59:50.800
153.0, 25360.02103805793, 9771.847399693419, -71574.73374303982, -52255.7857341511, -36044.84779177282, -44262.8466204222, -9373.584016988756, -45195.696675264444, 0.02, 0.772, 0.662, 192.0, 0.0, 0.0, 0.0, 0.0, 0.0, 0.0, 0.0, 0.0, 0.0, 1.6541567908002608E9, 0.0, 2022-06-02 09:59:50.800
154.0, 25381.478712735025, 9791.807507492007, -71555.22067013034, -52235.46799844122, -36036.13061143525, -44239.533750955314, -9367.772563430377, -45182.53149778026, 0.02, 0.772, 0.662, 192.0, 0.0, 0.0, 0.0, 0.0, 0.0, 0.0, 0.0, 0.0, 0.0, 1.6541567908002687E9, 0.0, 2022-06-02 09:59:50.800
155.0, 25366.748913138978, 9782.240960865136, -71578.69000180841, -52211.95396327424, -36082.398722457736, -44248.362690015165, -9399.735558001466, -45208.88420449307, 0.02, 0.772, 0.662, 192.0, 0.0, 0.0, 0.0, 0.0, 0.0, 0.0, 0.0, 0.0, 0.0, 1.654156790800275E9, 0.0, 2022-06-02 09:59:50.800
