%OpenBCI Raw EEG Data
%Number of channels = 8
%Sample Rate = 250 Hz
%Board = OpenBCI_GUI$BoardCytonSerial
Sample Index, EXG Channel 0, EXG Channel 1, EXG Channel 2, EXG Channel 3, EXG Channel 4, EXG Channel 5, EXG Channel 6, EXG Channel 7, Accel Channel 0, Accel Channel 1, Accel Channel 2, Other, Other, Other, Other, Other, Other, Other, Analog Channel 0, Analog Channel 1, Analog Channel 2, Timestamp, Other, Timestamp (Formatted)
0.0, 0.0, 0.0, 0.0, 0.0, 0.0, 0.0, 0.0, 0.0, 0.066, 0.87, 0.542, 192.0, 2.0, 16.0, 27.0, 48.0, 16.0, 240.0, 0.0, 0.0, 0.0, 1.6546746994955227E9, 0.0, 2022-06-08 09:51:39.495
1.0, 24139.973418709447, 29839.020054223547, -19536.989276050244, -14380.195961021896, 1706.689799629426, 2743.3637074665676, 11335.418979575514, -2772.890361892028, 0.066, 0.87, 0.542, 192.0, 0.0, 0.0, 0.0, 0.0, 0.0, 0.0, 0.0, 0.0, 0.0, 1.6546746995114348E9, 0.0, 2022-06-08 09:51:39.511
2.0, 24127.29997960329, 29852.654618341283, -19533.614162637492, -14376.619681909047, 1711.3836659650406, 2756.797105884207, 11341.677468023, -2765.4025274995006, 0.066, 0.87, 0.542, 192.0, 0.0, 0.0, 0.0, 0.0, 0.0, 0.0, 0.0, 0.0, 0.0, 1.6546746999845796E9, 0.0, 2022-06-08 09:51:39.984
3.0, 24162.191052698025, 29849.458318884175, -19530.887249813946, -14374.675080141436, 1719.6091079245937, 2755.7912773837184, 11359.357697887148, -2790.190612100436, 0.066, 0.87, 0.542, 192.0, 0.0, 0.0, 0.0, 0.0, 0.0, 0.0, 0.0, 0.0, 0.0, 1.6546746999847655E9, 0.0, 2022-06-08 09:51:39.984
4.0, 24147.68477054653, 29845.81498453796, -19531.33428470305, -14372.08227778462, 1721.4419509699287, 2749.6892511474193, 11371.449991637468, -2764.5531612101986, 0.066, 0.87, 0.542, 192.0, 0.0, 0.0, 0.0, 0.0, 0.0, 0.0, 0.0, 0.0, 0.0, 1.654674699984771E9, 0.0, 2022-06-08 09:51:39.984
5.0, 24116.034700397817, 29846.91022001627, -19538.57624990657, -14376.954958075878, 1715.2505177558087, 2747.8564081020845, 11360.788209532288, -2755.7465738948076, 0.066, 0.87, 0.542, 192.0, 0.0, 0.0, 0.0, 0.0, 0.0, 0.0, 0.0, 0.0, 0.0, 1.6546746999847772E9, 0.0, 2022-06-08 09:51:39.984
6.0, 24095.29228154329, 29833.610932065363, -19542.66661914189, -14385.202751779885, 1706.1310060180433, 2756.0594983171823, 11350.305241382748, -2752.7737918822518, 0.066, 0.87, 0.542, 192.0, 0.0, 0.0, 0.0, 0.0, 0.0, 0.0, 0.0, 0.0, 0.0, 1.654674699984784E9, 0.0, 2022-06-08 09:51:39.984
7.0, 24111.452592784477, 29839.06475771246, -19528.227392223765, -14379.346594732595, 1716.9045468455015, 2756.998271584305, 11364.029212478306, -2739.16157950897, 0.066, 0.87, 0.542, 192.0, 0.0, 0.0, 0.0, 0.0, 0.0, 0.0, 0.0, 0.0, 0.0, 1.6546746999847896E9, 0.0, 2022-06-08 09:51:39.984
8.0, 24135.748939007397, 29838.01422572306, -19522.594752621026, -14371.344670217595, 1720.212605024887, 2761.35686175309, 11364.811523534241, -2717.838015298607, 0.066, 0.856, 0.532, 192.0, 2.0, 16.0, 26.0, 192.0, 16.0, 160.0, 0.0, 0.0, 0.0, 1.6546746999847958E9, 0.0, 2022-06-08 09:51:39.984
9.0, 24139.01229369787, 29835.264961155055, -19516.403319406905, -14360.861702068056, 1723.9900498378338, 2761.803896642196, 11366.130276457105, -2697.0508929551715, 0.066, 0.856, 0.532, 192.0, 0.0, 0.0, 0.0, 0.0, 0.0, 0.0, 0.0, 0.0, 0.0, 1.6546746999848025E9, 0.0, 2022-06-08 09:51:39.984
10.0, 24120.192124866502, 29838.550667589985, -19527.9591712903, -14374.786838863713, 1717.9550788349009, 2757.6688239179643, 11361.637575821589, -2710.8642710285512, 0.066, 0.856, 0.532, 192.0, 0.0, 0.0, 0.0, 0.0, 0.0, 0.0, 0.0, 0.0, 0.0, 1.6546746999848096E9, 0.0, 2022-06-08 09:51:39.984
11.0, 24109.798563694785, 29841.121118202343, -19532.116595758987, -14391.774164649745, 1708.5449944192167, 2749.801009869696, 11348.33828787068, -2741.8214370991514, 0.066, 0.856, 0.532, 192.0, 0.0, 0.0, 0.0, 0.0, 0.0, 0.0, 0.0, 0.0, 0.0, 1.6546746999848156E9, 0.0, 2022-06-08 09:51:39.984
12.0, 24115.81118295326, 29846.351426404886, -19520.180764219855, -14381.626472667036, 1716.9045468455015, 2758.875818118551, 11354.283851895792, -2758.898169863006, 0.066, 0.856, 0.532, 192.0, 0.0, 0.0, 0.0, 0.0, 0.0, 0.0, 0.0, 0.0, 0.0, 1.6546746999848242E9, 0.0, 2022-06-08 09:51:39.984
13.0, 24138.609962297676, 29853.57103986395, -19503.43930762283, -14357.732457844313, 1735.7023639324148, 2767.54829496721, 11373.327538171714, -2746.82822785714, 0.066, 0.856, 0.532, 192.0, 0.0, 0.0, 0.0, 0.0, 0.0, 0.0, 0.0, 0.0, 0.0, 1.6546746999848287E9, 0.0, 2022-06-08 09:51:39.984
14.0, 24136.44184308551, 29832.113365186855, -19507.462621624785, -14353.887957798, 1733.2213202978755, 2759.0769838186484, 11359.849436265164, -2751.633852915031, 0.066, 0.856, 0.532, 192.0, 0.0, 0.0, 0.0, 0.0, 0.0, 0.0, 0.0, 0.0, 0.0, 1.6546746999848337E9, 0.0, 2022-06-08 09:51:39.984
15.0, 24125.198915624493, 29829.699376785684, -19517.230333951753, -14370.98704230631, 1728.0357155842444, 2744.771867367252, 11348.762971015332, -2768.509419978788, 0.066, 0.856, 0.532, 192.0, 0.0, 0.0, 0.0, 0.0, 0.0, 0.0, 0.0, 0.0, 0.0, 1.6546746999848392E9, 0.0, 2022-06-08 09:51:39.984
16.0, 24125.645950513597, 29834.1920774212, -19526.86393581199, -14378.005490065276, 1718.3127067461858, 2736.121742263048, 11340.090494166672, -2765.1119548215815, 0.066, 0.856, 0.532, 192.0, 0.0, 0.0, 0.0, 0.0, 0.0, 0.0, 0.0, 0.0, 0.0, 1.6546746999848444E9, 0.0, 2022-06-08 09:51:39.984
17.0, 24115.43120329752, 29808.80049571997, -19526.260438711695, -14383.392260479006, 1716.725732889859, 2740.703849876386, 11343.689125023977, -2765.290768777224, 0.062, 0.86, 0.524, 192.0, 1.0, 240.0, 26.0, 224.0, 16.0, 96.0, 0.0, 0.0, 0.0, 1.6546746999848497E9, 0.0, 2022-06-08 09:51:39.984
18.0, 24116.81701145375, 29825.340786616896, -19510.211886192785, -14365.622623637037, 1729.1533028070096, 2747.5658354241655, 11359.24593916487, -2789.184783599947, 0.062, 0.86, 0.524, 192.0, 0.0, 0.0, 0.0, 0.0, 0.0, 0.0, 0.0, 0.0, 0.0, 1.6546746999848568E9, 0.0, 2022-06-08 09:51:39.984
19.0, 24132.217363383457, 29855.582696864927, -19501.360595388483, -14355.7878560767, 1735.2329772988533, 2759.3005012632016, 11378.15551497406, -2810.0836646656594, 0.062, 0.86, 0.524, 192.0, 0.0, 0.0, 0.0, 0.0, 0.0, 0.0, 0.0, 0.0, 0.0, 1.6546746999848623E9, 0.0, 2022-06-08 09:51:39.984
20.0, 24138.565258808765, 29851.67114158525, -19515.57630486206, -14368.237777738308, 1723.8559393711018, 2758.83111462964, 11364.38684038959, -2756.841809373118, 0.062, 0.86, 0.524, 192.0, 0.0, 0.0, 0.0, 0.0, 0.0, 0.0, 0.0, 0.0, 0.0, 1.654674699984867E9, 0.0, 2022-06-08 09:51:39.984
21.0, 24125.198915624493, 29826.592484306395, -19535.06702602709, -14382.922873845444, 1704.566383906172, 2749.8457133586066, 11319.348075312148, -2719.447340899389, 0.062, 0.86, 0.524, 192.0, 0.0, 0.0, 0.0, 0.0, 0.0, 0.0, 0.0, 0.0, 0.0, 1.654674699984873E9, 0.0, 2022-06-08 09:51:39.984
22.0, 24123.366072579156, 29823.552647060475, -19532.407168436905, -14384.934530846422, 1705.1698810064652, 2749.1975127694027, 11293.911790122009, -2742.9166725774617, 0.062, 0.86, 0.524, 192.0, 0.0, 0.0, 0.0, 0.0, 0.0, 0.0, 0.0, 0.0, 0.0, 1.6546746999849129E9, 0.0, 2022-06-08 09:51:39.984
23.0, 24132.709101761473, 29826.72659477313, -19524.025264266165, -14375.926777830933, 1728.1251225620656, 2753.7796203827406, 11374.176904461016, -2712.7641693072524, 0.062, 0.86, 0.524, 192.0, 0.0, 0.0, 0.0, 0.0, 0.0, 0.0, 0.0, 0.0, 0.0, 1.6546746999849193E9, 0.0, 2022-06-08 09:51:39.984
24.0, 24142.812090255273, 29849.637132839816, -19508.177877447353, -14349.372905418028, 1744.7995239257245, 2760.574550697154, 11432.313791789269, -2676.6661020119313, 0.062, 0.86, 0.524, 192.0, 0.0, 0.0, 0.0, 0.0, 0.0, 0.0, 0.0, 0.0, 0.0, 1.6546746999849248E9, 0.0, 2022-06-08 09:51:39.984
25.0, 24147.818881013263, 29861.550612634495, -19506.166220446376, -14355.497283398783, 1743.2349018138532, 2764.776678654752, 11412.756015390876, -2708.0479512271827, 0.062, 0.86, 0.524, 192.0, 0.0, 0.0, 0.0, 0.0, 0.0, 0.0, 0.0, 0.0, 0.0, 1.6546746999849298E9, 0.0, 2022-06-08 09:51:39.984
26.0, 24130.83155522723, 29829.56526631895, -19525.835755567045, -14379.704222643879, 1724.3253260046633, 2744.190722011414, 11385.106907499661, -2771.191629313425, 0.062, 0.86, 0.524, 192.0, 0.0, 0.0, 0.0, 0.0, 0.0, 0.0, 0.0, 0.0, 0.0, 1.6546746999849353E9, 0.0, 2022-06-08 09:51:39.984
27.0, 24141.29217163231, 29826.748946517582, -19528.987351535245, -14374.451562696882, 1722.8724626150683, 2744.481294689333, 11371.852323037663, -2754.1148965495704, 0.062, 0.872, 0.52, 192.0, 1.0, 240.0, 27.0, 64.0, 16.0, 64.0, 0.0, 0.0, 0.0, 1.65467469998494E9, 0.0, 2022-06-08 09:51:39.984
28.0, 24147.550660079796, 29835.868458255347, -19513.564647861083, -14364.549739903181, 1733.0201545977777, 2760.194571041414, 11367.381974146601, -2703.8905267584955, 0.062, 0.872, 0.52, 192.0, 0.0, 0.0, 0.0, 0.0, 0.0, 0.0, 0.0, 0.0, 0.0, 1.6546746999849453E9, 0.0, 2022-06-08 09:51:39.984
29.0, 24148.35532288019, 29843.33394090342, -19505.47331636826, -14354.938489787399, 1734.0036313538112, 2772.197457813914, 11350.796979760764, -2720.810797311163, 0.062, 0.872, 0.52, 192.0, 0.0, 0.0, 0.0, 0.0, 0.0, 0.0, 0.0, 0.0, 0.0, 1.6546746999849522E9, 0.0, 2022-06-08 09:51:39.984
30.0, 24135.033683184825, 29840.025882724036, -19522.43829040984, -14364.773257347735, 1720.2796602582528, 2757.4006029845004, 11344.493787824367, -2745.0400883007155, 0.062, 0.872, 0.52, 192.0, 0.0, 0.0, 0.0, 0.0, 0.0, 0.0, 0.0, 0.0, 0.0, 1.6546746999849567E9, 0.0, 2022-06-08 09:51:39.984
31.0, 24137.179450652537, 29833.610932065363, -19524.561706133092, -14369.712992872357, 1720.3243637471635, 2754.092544805115, 11378.446087651979, -2739.519207420255, 0.062, 0.872, 0.52, 192.0, 0.0, 0.0, 0.0, 0.0, 0.0, 0.0, 0.0, 0.0, 0.0, 1.654674699984962E9, 0.0, 2022-06-08 09:51:39.984
32.0, 24142.700331532997, 29823.597350549386, -19520.270171197673, -14370.51765567275, 1724.5488434492165, 2749.0186988137602, 11385.553942388768, -2759.456963474389, 0.062, 0.872, 0.52, 192.0, 0.0, 0.0, 0.0, 0.0, 0.0, 0.0, 0.0, 0.0, 0.0, 1.654674699984968E9, 0.0, 2022-06-08 09:51:39.984
33.0, 24153.943258994015, 29837.85776351187, -19519.733729330746, -14369.690641127901, 1725.6440789275264, 2747.901111590995, 11374.82510505022, -2782.993350385827, 0.062, 0.872, 0.52, 192.0, 0.0, 0.0, 0.0, 0.0, 0.0, 0.0, 0.0, 0.0, 0.0, 1.6546746999849727E9, 0.0, 2022-06-08 09:51:39.984
34.0, 24151.909250248584, 29849.838298539915, -19510.61421759298, -14363.208635235864, 1735.2329772988533, 2760.9098268639837, 11389.309035457258, -2752.036184315227, 0.062, 0.872, 0.52, 192.0, 0.0, 0.0, 0.0, 0.0, 0.0, 0.0, 0.0, 0.0, 0.0, 1.6546746999849772E9, 0.0, 2022-06-08 09:51:39.984
35.0, 24154.01031422738, 29840.696435057693, -19516.58213336255, -14367.477818426827, 1728.4603987288951, 2757.512361706777, 11376.814410306743, -2703.5552505916658, 0.062, 0.872, 0.52, 192.0, 0.0, 0.0, 0.0, 0.0, 0.0, 0.0, 0.0, 0.0, 0.0, 1.654674699984984E9, 0.0, 2022-06-08 09:51:39.984
36.0, 24136.173622152048, 29823.57499880493, -19525.232258466753, -14382.31937674515, 1713.4176747104734, 2736.4346666854226, 11355.937880985484, -2740.189759753914, 0.062, 0.872, 0.52, 192.0, 0.0, 0.0, 0.0, 0.0, 0.0, 0.0, 0.0, 0.0, 0.0, 1.6546746999849951E9, 0.0, 2022-06-08 09:51:39.984
37.0, 24114.917113175048, 29823.172667404735, -19526.19338347833, -14386.499152958293, 1713.9541165774008, 2734.6241753845425, 11361.548168843767, -2762.83207688714, 0.052000000000000005, 0.868, 0.51, 192.0, 1.0, 160.0, 27.0, 32.0, 15.0, 240.0, 0.0, 0.0, 0.0, 1.6546746999850004E9, 0.0, 2022-06-08 09:51:39.985
38.0, 24124.528363290832, 29840.025882724036, -19517.990293263232, -14378.31841448765, 1721.9560410924007, 2747.387021468523, 11373.551055616266, -2789.095376622126, 0.052000000000000005, 0.868, 0.51, 192.0, 0.0, 0.0, 0.0, 0.0, 0.0, 0.0, 0.0, 0.0, 0.0, 1.6546746999850087E9, 0.0, 2022-06-08 09:51:39.985
39.0, 24132.954970950483, 29839.265923412553, -19514.212848450286, -14376.08324004212, 1726.404038239007, 2746.180027267936, 11367.739602057887, -2770.9904636133274, 0.052000000000000005, 0.868, 0.51, 192.0, 0.0, 0.0, 0.0, 0.0, 0.0, 0.0, 0.0, 0.0, 0.0, 1.654674699985015E9, 0.0, 2022-06-08 09:51:39.985
40.0, 24126.11533714716, 29827.553609317973, -19516.068043240077, -14378.117248787554, 1717.1727677789652, 2749.041050558216, 11352.719229783921, -2726.4881404028106, 0.052000000000000005, 0.868, 0.51, 192.0, 0.0, 0.0, 0.0, 0.0, 0.0, 0.0, 0.0, 0.0, 0.0, 1.6546746999850223E9, 0.0, 2022-06-08 09:51:39.985
41.0, 24125.780060980327, 29819.730498758618, -19528.24974396822, -14390.611873938069, 1706.019247295767, 2737.9098818194725, 11346.952479714451, -2756.7300506508413, 0.052000000000000005, 0.868, 0.51, 192.0, 0.0, 0.0, 0.0, 0.0, 0.0, 0.0, 0.0, 0.0, 0.0, 1.6546746999850304E9, 0.0, 2022-06-08 09:51:39.985
42.0, 24128.77519473734, 29833.90150474328, -19534.508232415705, -14391.327129760639, 1707.561517663183, 2737.4404951859115, 11353.635651306588, -2748.035222057727, 0.052000000000000005, 0.868, 0.51, 192.0, 0.0, 0.0, 0.0, 0.0, 0.0, 0.0, 0.0, 0.0, 0.0, 1.654674699985036E9, 0.0, 2022-06-08 09:51:39.985
43.0, 24141.694503032508, 29843.445699625696, -19530.52962190266, -14382.498190700793, 1717.3739334790628, 2740.614442898565, 11362.44223862198, -2716.0275239977273, 0.052000000000000005, 0.868, 0.51, 192.0, 0.0, 0.0, 0.0, 0.0, 0.0, 0.0, 0.0, 0.0, 0.0, 1.654674699985048E9, 0.0, 2022-06-08 09:51:39.985
44.0, 24157.094854962215, 29844.317417659455, -19512.42470889386, -14363.834484080611, 1732.1260848195654, 2744.503646433788, 11373.215779449438, -2734.087733517615, 0.052000000000000005, 0.868, 0.51, 192.0, 0.0, 0.0, 0.0, 0.0, 0.0, 0.0, 0.0, 0.0, 0.0, 1.6546746999850538E9, 0.0, 2022-06-08 09:51:39.985
45.0, 24140.643971043108, 29847.08903397191, -19524.852278811013, -14377.960786576366, 1717.9997823238114, 2733.0148497837604, 11353.881520495597, -2756.1042018060925, 0.052000000000000005, 0.868, 0.51, 192.0, 0.0, 0.0, 0.0, 0.0, 0.0, 0.0, 0.0, 0.0, 0.0, 1.65467469998506E9, 0.0, 2022-06-08 09:51:39.985
46.0, 24136.10656691868, 29837.05310071148, -19537.793938850635, -14387.683795414425, 1710.0425612977222, 2733.484236417322, 11344.67260178001, -2754.874855861051, 0.052000000000000005, 0.868, 0.51, 192.0, 0.0, 0.0, 0.0, 0.0, 0.0, 0.0, 0.0, 0.0, 0.0, 1.654674699985064E9, 0.0, 2022-06-08 09:51:39.985
47.0, 24137.96176170847, 29835.71199604416, -19539.984409807257, -14383.168743034452, 1707.628572896549, 2724.8564630575734, 11344.806712246742, -2786.9719608988717, 0.05, 0.88, 0.512, 192.0, 1.0, 144.0, 27.0, 128.0, 16.0, 0.0, 0.0, 0.0, 0.0, 1.6546746999850683E9, 0.0, 2022-06-08 09:51:39.985
48.0, 24144.309657133777, 29859.449548655695, -19523.28765669914, -14369.288309727706, 1727.3204597616746, 2732.3442974501013, 11357.144875186072, -2801.8805744505617, 0.05, 0.88, 0.512, 192.0, 0.0, 0.0, 0.0, 0.0, 0.0, 0.0, 0.0, 0.0, 0.0, 1.654674699985073E9, 0.0, 2022-06-08 09:51:39.985
49.0, 24143.125014677647, 29859.00251376659, -19508.021415236166, -14352.07746649712, 1735.3447360211296, 2765.4919344773216, 11352.540415828278, -2720.810797311163, 0.05, 0.88, 0.512, 192.0, 0.0, 0.0, 0.0, 0.0, 0.0, 0.0, 0.0, 0.0, 0.0, 1.6546746999850774E9, 0.0, 2022-06-08 09:51:39.985
50.0, 24135.033683184825, 29833.3427111319, -19519.085528741543, -14368.014260293754, 1720.2796602582528, 2749.9798238253384, 11335.486034808879, -2727.315154947657, 0.05, 0.88, 0.512, 192.0, 0.0, 0.0, 0.0, 0.0, 0.0, 0.0, 0.0, 0.0, 0.0, 1.654674699985082E9, 0.0, 2022-06-08 09:51:39.985
51.0, 24132.530287805832, 29823.306777871465, -19533.77062484868, -14384.643958168503, 1710.5566514201942, 2728.902128803984, 11351.735753027888, -2753.0420128157157, 0.05, 0.88, 0.512, 192.0, 0.0, 0.0, 0.0, 0.0, 0.0, 0.0, 0.0, 0.0, 0.0, 1.654674699985087E9, 0.0, 2022-06-08 09:51:39.985
52.0, 24144.332008878235, 29837.746004789595, -19525.72399684477, -14373.08810628511, 1718.692686401926, 2739.3403934646126, 11364.520950856322, -2729.3491636930903, 0.05, 0.88, 0.512, 192.0, 0.0, 0.0, 0.0, 0.0, 0.0, 0.0, 0.0, 0.0, 0.0, 1.6546746999850907E9, 0.0, 2022-06-08 09:51:39.985
53.0, 24154.613811327676, 29847.781938050026, -19512.938799016334, -14361.867530568545, 1731.1202563190766, 2749.5327889362325, 11364.476247367413, -2752.617329671065, 0.05, 0.88, 0.512, 192.0, 0.0, 0.0, 0.0, 0.0, 0.0, 0.0, 0.0, 0.0, 0.0, 1.6546746999850957E9, 0.0, 2022-06-08 09:51:39.985
54.0, 24143.661456544574, 29845.882039771324, -19517.297389185118, -14365.935548059411, 1727.365163250585, 2740.8156085986625, 11367.784305546798, -2797.0078941593047, 0.05, 0.88, 0.512, 192.0, 0.0, 0.0, 0.0, 0.0, 0.0, 0.0, 0.0, 0.0, 0.0, 1.6546746999850998E9, 0.0, 2022-06-08 09:51:39.985
55.0, 24137.96176170847, 29839.28827515701, -19524.271133455175, -14379.458353454871, 1717.4186369679735, 2729.0585910151713, 11347.600680303656, -2835.7881707892625, 0.05, 0.88, 0.512, 192.0, 0.0, 0.0, 0.0, 0.0, 0.0, 0.0, 0.0, 0.0, 0.0, 1.654674699985104E9, 0.0, 2022-06-08 09:51:39.985
56.0, 24132.86556397266, 29837.38837687831, -19537.838642339546, -14397.18328680793, 1705.4604536843842, 2715.1111024750594, 11324.936011425974, -2809.927202454472, 0.05, 0.88, 0.512, 192.0, 0.0, 0.0, 0.0, 0.0, 0.0, 0.0, 0.0, 0.0, 0.0, 1.654674699985108E9, 0.0, 2022-06-08 09:51:39.985
57.0, 24133.267895372857, 29855.180365464734, -19538.263325484197, -14380.263016255263, 1709.7296368753478, 2722.688343845409, 11346.214872147426, -2747.54348367971, 0.052000000000000005, 0.894, 0.512, 192.0, 1.0, 160.0, 27.0, 240.0, 16.0, 0.0, 0.0, 0.0, 0.0, 1.654674699985112E9, 0.0, 2022-06-08 09:51:39.985
58.0, 24149.472910102955, 29855.806214309483, -19525.366368933486, -14368.640109138503, 1720.1679015359762, 2731.6960968608973, 11353.43448560649, -2704.4940238587888, 0.052000000000000005, 0.894, 0.512, 192.0, 0.0, 0.0, 0.0, 0.0, 0.0, 0.0, 0.0, 0.0, 0.0, 1.6546746999851162E9, 0.0, 2022-06-08 09:51:39.985
59.0, 24160.224099185958, 29859.82952831144, -19511.709453071293, -14363.968594547343, 1727.141645806032, 2739.7650766092634, 11343.465607579423, -2731.785503838719, 0.052000000000000005, 0.894, 0.512, 192.0, 0.0, 0.0, 0.0, 0.0, 0.0, 0.0, 0.0, 0.0, 0.0, 1.6546746999851203E9, 0.0, 2022-06-08 09:51:39.985
60.0, 24158.16773869607, 29850.62060959585, -19517.744424074226, -14374.719783630346, 1725.0629335716885, 2732.031373027727, 11346.550148314256, -2752.5949779266093, 0.052000000000000005, 0.894, 0.512, 192.0, 0.0, 0.0, 0.0, 0.0, 0.0, 0.0, 0.0, 0.0, 0.0, 1.6546746999851248E9, 0.0, 2022-06-08 09:51:39.985
61.0, 24154.099721205203, 29842.730443803128, -19536.85516558351, -14388.734327403823, 1712.9929915658226, 2716.4075036534673, 11345.81254074723, -2758.6299489295425, 0.052000000000000005, 0.894, 0.512, 192.0, 0.0, 0.0, 0.0, 0.0, 0.0, 0.0, 0.0, 0.0, 0.0, 1.654674699985129E9, 0.0, 2022-06-08 09:51:39.985
62.0, 24159.68765731903, 29852.118176474356, -19527.48978465674, -14382.98992907881, 1718.24565151282, 2727.225747969836, 11364.811523534241, -2757.6688239179643, 0.052000000000000005, 0.894, 0.512, 192.0, 0.0, 0.0, 0.0, 0.0, 0.0, 0.0, 0.0, 0.0, 0.0, 1.6546746999851332E9, 0.0, 2022-06-08 09:51:39.985
63.0, 24158.435959629533, 29854.889792786813, -19514.995159506223, -14372.484609184816, 1728.4827504733505, 2734.4677131733556, 11380.278930697314, -2776.131364838048, 0.052000000000000005, 0.894, 0.512, 192.0, 0.0, 0.0, 0.0, 0.0, 0.0, 0.0, 0.0, 0.0, 0.0, 1.6546746999851375E9, 0.0, 2022-06-08 09:51:39.985
64.0, 24158.681828818542, 29856.074435242946, -19513.877572283458, -14370.361193461562, 1729.332116762652, 2736.054687029682, 11373.77457306082, -2749.3986784695007, 0.052000000000000005, 0.894, 0.512, 192.0, 0.0, 0.0, 0.0, 0.0, 0.0, 0.0, 0.0, 0.0, 0.0, 1.6546746999851449E9, 0.0, 2022-06-08 09:51:39.985
65.0, 24149.11528219167, 29843.043368225502, -19523.041787510134, -14384.040461068209, 1715.0046485668004, 2726.0858090026154, 11353.881520495597, -2720.766093822252, 0.052000000000000005, 0.894, 0.512, 192.0, 0.0, 0.0, 0.0, 0.0, 0.0, 0.0, 0.0, 0.0, 0.0, 1.6546746999851499E9, 0.0, 2022-06-08 09:51:39.985
66.0, 24142.58857281072, 29835.980216977623, -19536.184613249854, -14396.736251918825, 1704.275811228253, 2715.848710042085, 11325.472453292901, -2734.8253410846405, 0.052000000000000005, 0.894, 0.512, 192.0, 0.0, 0.0, 0.0, 0.0, 0.0, 0.0, 0.0, 0.0, 0.0, 1.6546746999851565E9, 0.0, 2022-06-08 09:51:39.985
67.0, 24154.43499737203, 29842.171650191744, -19534.19530799333, -14391.37183324955, 1714.848186355613, 2720.073189744138, 11347.62303204811, -2755.7242221503525, 0.054, 0.888, 0.516, 192.0, 1.0, 176.0, 27.0, 192.0, 16.0, 32.0, 0.0, 0.0, 0.0, 1.654674699985161E9, 0.0, 2022-06-08 09:51:39.985
68.0, 24184.654555875608, 29861.9976475236, -19523.555877632603, -14378.65369065448, 1731.9249191194679, 2732.791332339207, 11391.320692458235, -2752.7514401377966, 0.054, 0.888, 0.516, 192.0, 0.0, 0.0, 0.0, 0.0, 0.0, 0.0, 0.0, 0.0, 0.0, 1.654674699985165E9, 0.0, 2022-06-08 09:51:39.985
69.0, 24190.376602456166, 29856.47676664314, -19529.68025561336, -14382.744059889801, 1727.1863492949426, 2726.309326447168, 11371.315881170736, -2762.8544286315955, 0.054, 0.888, 0.516, 192.0, 0.0, 0.0, 0.0, 0.0, 0.0, 0.0, 0.0, 0.0, 0.0, 1.6546746999851713E9, 0.0, 2022-06-08 09:51:39.985
70.0, 24153.183299682536, 29858.667237599762, -19539.62678189597, -14394.545780962204, 1719.050314313211, 2709.8360907836072, 11347.488921581378, -2798.50546103781, 0.054, 0.888, 0.516, 192.0, 0.0, 0.0, 0.0, 0.0, 0.0, 0.0, 0.0, 0.0, 0.0, 1.654674699985176E9, 0.0, 2022-06-08 09:51:39.985
71.0, 24145.561354823276, 29860.790653323016, -19543.58304066456, -14394.836353640123, 1718.8044451242024, 2713.926460018928, 11347.511273325834, -2765.581341455143, 0.054, 0.888, 0.516, 192.0, 0.0, 0.0, 0.0, 0.0, 0.0, 0.0, 0.0, 0.0, 0.0, 1.6546746999851804E9, 0.0, 2022-06-08 09:51:39.985
72.0, 24150.948125237006, 29841.121118202343, -19543.471281942282, -14389.583693693125, 1714.6693723999706, 2718.709733332364, 11334.01081967483, -2741.3744022100454, 0.054, 0.888, 0.516, 192.0, 0.0, 0.0, 0.0, 0.0, 0.0, 0.0, 0.0, 0.0, 0.0, 1.654674699985186E9, 0.0, 2022-06-08 09:51:39.985
73.0, 24164.35917191019, 29854.28629568652, -19538.084511528556, -14383.436963967915, 1721.2854887587416, 2727.9857072813165, 11342.638593034577, -2758.875818118551, 0.054, 0.888, 0.516, 192.0, 0.0, 0.0, 0.0, 0.0, 0.0, 0.0, 0.0, 0.0, 0.0, 1.654674699985191E9, 0.0, 2022-06-08 09:51:39.985
74.0, 24159.3523811522, 29840.562324590963, -19543.42657845337, -14390.768336149256, 1717.53039569025, 2717.2792216872244, 11359.000069975862, -2777.159545082992, 0.054, 0.888, 0.516, 192.0, 0.0, 0.0, 0.0, 0.0, 0.0, 0.0, 0.0, 0.0, 0.0, 1.654674699985196E9, 0.0, 2022-06-08 09:51:39.985
75.0, 24162.54868060931, 29847.759586305572, -19548.567479678095, -14399.172592064453, 1708.2320699968423, 2706.639791326498, 11350.193482660472, -2777.2042485719026, 0.054, 0.888, 0.516, 192.0, 0.0, 0.0, 0.0, 0.0, 0.0, 0.0, 0.0, 0.0, 0.0, 1.654674699985201E9, 0.0, 2022-06-08 09:51:39.985
76.0, 24155.776102039352, 29849.212449695166, -19546.265249999196, -14399.396109509005, 1709.8637473420797, 2704.9857622368054, 11352.6298228061, -2775.5949229711205, 0.054, 0.888, 0.516, 192.0, 0.0, 0.0, 0.0, 0.0, 0.0, 0.0, 0.0, 0.0, 0.0, 1.6546746999852057E9, 0.0, 2022-06-08 09:51:39.985
77.0, 24151.81984327076, 29866.82562432595, -19534.552935904616, -14389.538990204215, 1712.7471223768143, 2704.9634104923502, 11349.925261727007, -2781.607542229598, 0.056, 0.88, 0.516, 192.0, 1.0, 192.0, 27.0, 128.0, 16.0, 32.0, 0.0, 0.0, 0.0, 1.6546746999852107E9, 0.0, 2022-06-08 09:51:39.985
78.0, 24172.4057999141, 29884.416447212276, -19529.30027595762, -14377.491399942804, 1726.0017068388113, 2722.710695589864, 11354.663831551532, -2783.574495741665, 0.056, 0.88, 0.516, 192.0, 0.0, 0.0, 0.0, 0.0, 0.0, 0.0, 0.0, 0.0, 0.0, 1.654674699985216E9, 0.0, 2022-06-08 09:51:39.985
79.0, 24182.64289887463, 29857.77316782155, -19523.086490999045, -14369.020088794243, 1727.5216254617721, 2719.9614310218612, 11363.604529333656, -2759.702832663397, 0.056, 0.88, 0.516, 192.0, 0.0, 0.0, 0.0, 0.0, 0.0, 0.0, 0.0, 0.0, 0.0, 1.654674699985221E9, 0.0, 2022-06-08 09:51:39.985
80.0, 24179.580709884252, 29851.872307285346, -19519.532563630648, -14370.741173117302, 1732.1707883084762, 2730.9584892938724, 11357.591910075178, -2721.0119630112604, 0.056, 0.88, 0.516, 192.0, 0.0, 0.0, 0.0, 0.0, 0.0, 0.0, 0.0, 0.0, 0.0, 1.6546746999852269E9, 0.0, 2022-06-08 09:51:39.985
81.0, 24158.055979973793, 29845.77028104905, -19534.709398115803, -14387.080298314131, 1716.7033811454037, 2724.096503746093, 11337.251822620849, -2726.5328438917213, 0.056, 0.88, 0.516, 192.0, 0.0, 0.0, 0.0, 0.0, 0.0, 0.0, 0.0, 0.0, 0.0, 1.6546746999852316E9, 0.0, 2022-06-08 09:51:39.985
82.0, 24151.3504566372, 29848.877173528337, -19542.756026119714, -14395.864533885067, 1704.6781426284485, 2715.7145995753526, 11325.941839926463, -2744.5930534116096, 0.056, 0.88, 0.516, 192.0, 0.0, 0.0, 0.0, 0.0, 0.0, 0.0, 0.0, 0.0, 0.0, 1.6546746999852364E9, 0.0, 2022-06-08 09:51:39.985
83.0, 24168.002506256405, 29870.066627271968, -19534.82115683808, -14382.542894189704, 1714.4235032109623, 2721.637811856009, 11340.269308122315, -2782.0098736297937, 0.056, 0.88, 0.516, 192.0, 0.0, 0.0, 0.0, 0.0, 0.0, 0.0, 0.0, 0.0, 0.0, 1.6546746999852412E9, 0.0, 2022-06-08 09:51:39.985
84.0, 24171.91406153608, 29878.202662253698, -19527.24391546773, -14376.507923186771, 1730.114427818588, 2719.8943757884954, 11357.770724030821, -2852.060240752726, 0.056, 0.88, 0.516, 192.0, 0.0, 0.0, 0.0, 0.0, 0.0, 0.0, 0.0, 0.0, 0.0, 1.6546746999852457E9, 0.0, 2022-06-08 09:51:39.985
85.0, 24159.173567196558, 29863.450510913197, -19534.552935904616, -14388.108478559076, 1719.4749974578617, 2701.7000558018754, 11351.981622216896, -2849.154513973536, 0.056, 0.88, 0.516, 192.0, 0.0, 0.0, 0.0, 0.0, 0.0, 0.0, 0.0, 0.0, 0.0, 1.6546746999852507E9, 0.0, 2022-06-08 09:51:39.985
86.0, 24160.514671863875, 29847.71488281666, -19540.8114243521, -14393.383490250528, 1706.1533577624987, 2704.874003514529, 11342.124502912106, -2741.6873266324196, 0.056, 0.88, 0.516, 192.0, 0.0, 0.0, 0.0, 0.0, 0.0, 0.0, 0.0, 0.0, 0.0, 1.6546746999852602E9, 0.0, 2022-06-08 09:51:39.985
87.0, 24157.854814273695, 29853.19106020821, -19544.90179358742, -14394.769298406756, 1703.404093194496, 2709.2772971722243, 11338.794092988264, -2747.7222976353523, 0.06, 0.872, 0.508, 192.0, 1.0, 224.0, 27.0, 64.0, 15.0, 224.0, 0.0, 0.0, 0.0, 1.6546746999852655E9, 0.0, 2022-06-08 09:51:39.985
88.0, 24151.909250248584, 29872.078284272946, -19540.096168529533, -14385.627434924536, 1710.3554857200963, 2707.9585442493612, 11339.755217999842, -2746.5823586681317, 0.06, 0.872, 0.508, 192.0, 0.0, 0.0, 0.0, 0.0, 0.0, 0.0, 0.0, 0.0, 0.0, 1.6546746999852724E9, 0.0, 2022-06-08 09:51:39.985
89.0, 24171.91406153608, 29873.77701685155, -19532.027188781165, -14375.41268770846, 1717.083360801144, 2716.9215937759395, 11338.682334265988, -2734.646527128998, 0.06, 0.872, 0.508, 192.0, 0.0, 0.0, 0.0, 0.0, 0.0, 0.0, 0.0, 0.0, 0.0, 1.6546746999852784E9, 0.0, 2022-06-08 09:51:39.985
90.0, 24166.661401589085, 29852.744025319105, -19546.57817442157, -14387.303815758683, 1705.013418795278, 2717.815663554152, 11324.33251432568, -2753.0867163046264, 0.06, 0.872, 0.508, 192.0, 0.0, 0.0, 0.0, 0.0, 0.0, 0.0, 0.0, 0.0, 0.0, 1.6546746999852836E9, 0.0, 2022-06-08 09:51:39.985
91.0, 24142.186241410524, 29829.744080274595, -19560.39155249495, -14401.117193832064, 1690.305970943686, 2708.651448327476, 11319.99627590135, -2756.8194576286623, 0.06, 0.872, 0.508, 192.0, 0.0, 0.0, 0.0, 0.0, 0.0, 0.0, 0.0, 0.0, 0.0, 1.654674699985289E9, 0.0, 2022-06-08 09:51:39.985
92.0, 24138.520555319854, 29839.891772257302, -19561.73265716227, -14391.483591971826, 1693.435215167429, 2703.711712802853, 11336.894194709563, -2742.0226027992494, 0.06, 0.872, 0.508, 192.0, 0.0, 0.0, 0.0, 0.0, 0.0, 0.0, 0.0, 0.0, 0.0, 1.6546746999852931E9, 0.0, 2022-06-08 09:51:39.985
93.0, 24158.860642774183, 29877.48740643113, -19552.52373844668, -14377.51375168726, 1711.9424595764233, 2706.639791326498, 11354.373258873613, -2763.5696844541653, 0.06, 0.872, 0.508, 192.0, 0.0, 0.0, 0.0, 0.0, 0.0, 0.0, 0.0, 0.0, 0.0, 1.6546746999852977E9, 0.0, 2022-06-08 09:51:39.985
94.0, 24178.016087772383, 29859.874231800346, -19549.081569800564, -14380.866513355555, 1710.3554857200963, 2714.6640675859535, 11349.634689049088, -2770.2081525573913, 0.06, 0.872, 0.508, 192.0, 0.0, 0.0, 0.0, 0.0, 0.0, 0.0, 0.0, 0.0, 0.0, 1.654674699985302E9, 0.0, 2022-06-08 09:51:39.985
95.0, 24163.97919225445, 29839.71295830166, -19546.980505821768, -14386.074469813642, 1705.5498606622054, 2713.188852451903, 11328.847566705654, -2834.9164527555054, 0.06, 0.872, 0.508, 192.0, 0.0, 0.0, 0.0, 0.0, 0.0, 0.0, 0.0, 0.0, 0.0, 1.6546746999853094E9, 0.0, 2022-06-08 09:51:39.985
96.0, 24130.02689242684, 29835.19790592169, -19557.30701176012, -14402.033615354732, 1697.9055640584904, 2695.3968638654787, 11316.509403766324, -2848.036926750771, 0.056, 0.878, 0.51, 192.0, 1.0, 192.0, 27.0, 112.0, 15.0, 240.0, 0.0, 0.0, 0.0, 1.654674699985314E9, 0.0, 2022-06-08 09:51:39.985
97.0, 24142.096834432705, 29840.115289701855, -19555.474168714783, -14403.933513633432, 1696.8103285801803, 2698.5037563447663, 11317.805804944732, -2742.7155068773636, 0.056, 0.878, 0.51, 192.0, 0.0, 0.0, 0.0, 0.0, 0.0, 0.0, 0.0, 0.0, 0.0, 1.654674699985319E9, 0.0, 2022-06-08 09:51:39.985
98.0, 24174.77508482636, 29862.154109734787, -19536.63164813896, -14368.148370760486, 1714.6023171666047, 2720.1849484664144, 11326.455930048935, -2686.1208899165263, 0.056, 0.878, 0.51, 192.0, 0.0, 0.0, 0.0, 0.0, 0.0, 0.0, 0.0, 0.0, 0.0, 1.6546746999853232E9, 0.0, 2022-06-08 09:51:39.985
99.0, 24176.898500549618, 29873.10646451789, -19530.194345735832, -14363.767428847246, 1724.370029493574, 2718.9779542658275, 11361.972851988417, -2740.4132771984673, 0.056, 0.878, 0.51, 192.0, 0.0, 0.0, 0.0, 0.0, 0.0, 0.0, 0.0, 0.0, 0.0, 1.6546746999853284E9, 0.0, 2022-06-08 09:51:39.985
100.0, 24158.994753240917, 29878.984973309634, -19537.235145239254, -14381.045327311198, 1718.3797619795516, 2706.349218648579, 11368.231340435905, -2772.9127136364837, 0.056, 0.878, 0.51, 192.0, 0.0, 0.0, 0.0, 0.0, 0.0, 0.0, 0.0, 0.0, 0.0, 1.6546746999853327E9, 0.0, 2022-06-08 09:51:39.985
101.0, 24145.449596101, 29879.54376692102, -19550.400322723428, -14394.098746073098, 1705.728674617848, 2698.7272737893195, 11342.884462223587, -2768.64353044552, 0.056, 0.878, 0.51, 192.0, 0.0, 0.0, 0.0, 0.0, 0.0, 0.0, 0.0, 0.0, 0.0, 1.6546746999853373E9, 0.0, 2022-06-08 09:51:39.985
102.0, 24166.057904488793, 29859.494252144606, -19544.09713078703, -14385.895655858, 1713.372971221563, 2708.316172160646, 11367.381974146601, -2719.000306010283, 0.056, 0.878, 0.51, 192.0, 0.0, 0.0, 0.0, 0.0, 0.0, 0.0, 0.0, 0.0, 0.0, 1.6546746999853415E9, 0.0, 2022-06-08 09:51:39.985
103.0, 24174.81978831527, 29855.42623465374, -19536.25166848322, -14379.167780776952, 1721.7548753923031, 2719.089712988104, 11375.227436450416, -2729.3938671820006, 0.056, 0.878, 0.51, 192.0, 0.0, 0.0, 0.0, 0.0, 0.0, 0.0, 0.0, 0.0, 0.0, 1.6546746999853463E9, 0.0, 2022-06-08 09:51:39.985
104.0, 24179.53600639534, 29858.108443988378, -19535.24583998273, -14382.587597678614, 1719.8773288580574, 2722.353067678579, 11368.097229969171, -2741.262643487769, 0.056, 0.878, 0.51, 192.0, 0.0, 0.0, 0.0, 0.0, 0.0, 0.0, 0.0, 0.0, 0.0, 1.6546746999853504E9, 0.0, 2022-06-08 09:51:39.985
105.0, 24180.02774477336, 29865.238650469622, -19541.906659830413, -14398.099708330597, 1715.8316631116468, 2710.283125672713, 11360.899968254564, -2767.3024257782017, 0.056, 0.878, 0.51, 192.0, 0.0, 0.0, 0.0, 0.0, 0.0, 0.0, 0.0, 0.0, 0.0, 1.654674699985355E9, 0.0, 2022-06-08 09:51:39.985
106.0, 24168.27072718987, 29870.87129007236, -19545.035904054155, -14401.541876976715, 1709.5731746641607, 2700.4707098568333, 11330.09926439515, -2786.9943126433272, 0.056, 0.884, 0.51, 192.0, 1.0, 192.0, 27.0, 160.0, 15.0, 240.0, 0.0, 0.0, 0.0, 1.6546746999853592E9, 0.0, 2022-06-08 09:51:39.985
107.0, 24173.76925632587, 29888.685630403237, -19545.192366265343, -14385.828600624634, 1704.9016600730015, 2692.9158202309395, 11296.839868645653, -2794.996237158327, 0.056, 0.884, 0.51, 192.0, 0.0, 0.0, 0.0, 0.0, 0.0, 0.0, 0.0, 0.0, 0.0, 1.6546746999853718E9, 0.0, 2022-06-08 09:51:39.985
108.0, 24176.853797060707, 29882.516548933574, -19542.62191565298, -14387.28146401423, 1710.5342996757388, 2696.067416199138, 11324.824252703698, -2800.762987227796, 0.056, 0.884, 0.51, 192.0, 0.0, 0.0, 0.0, 0.0, 0.0, 0.0, 0.0, 0.0, 0.0, 1.6546746999853768E9, 0.0, 2022-06-08 09:51:39.985
109.0, 24176.49616914942, 29873.128816262346, -19526.796880578626, -14378.184304020919, 1723.788884137736, 2716.7204280758415, 11368.499561369368, -2786.0778911206594, 0.056, 0.884, 0.51, 192.0, 0.0, 0.0, 0.0, 0.0, 0.0, 0.0, 0.0, 0.0, 0.0, 1.6546746999853823E9, 0.0, 2022-06-08 09:51:39.985
110.0, 24164.53798586583, 29861.282391701032, -19532.76479634819, -14389.60604543758, 1717.306878245697, 2719.9614310218612, 11364.811523534241, -2761.669786175464, 0.056, 0.884, 0.51, 192.0, 0.0, 0.0, 0.0, 0.0, 0.0, 0.0, 0.0, 0.0, 0.0, 1.6546746999853895E9, 0.0, 2022-06-08 09:51:39.985
111.0, 24147.282439146333, 29844.607990337372, -19541.526680174673, -14401.988911865821, 1708.9249740749567, 2713.926460018928, 11371.092363726184, -2767.414184500478, 0.056, 0.884, 0.51, 192.0, 0.0, 0.0, 0.0, 0.0, 0.0, 0.0, 0.0, 0.0, 0.0, 1.654674699985396E9, 0.0, 2022-06-08 09:51:39.985
112.0, 24157.005447984393, 29845.837336282413, -19540.543203418638, -14375.03270805272, 1708.8132153526803, 2714.842881541596, 11379.138991730093, -2764.284940276735, 0.056, 0.884, 0.51, 192.0, 0.0, 0.0, 0.0, 0.0, 0.0, 0.0, 0.0, 0.0, 0.0, 1.654674699985401E9, 0.0, 2022-06-08 09:51:39.985
113.0, 24169.29890743481, 29861.505909145584, -19529.456738168807, -14358.805341578167, 1725.6664306719817, 2728.6339078705205, 11380.211875463949, -2727.6504311144868, 0.056, 0.884, 0.51, 192.0, 0.0, 0.0, 0.0, 0.0, 0.0, 0.0, 0.0, 0.0, 0.0, 1.6546746999854076E9, 0.0, 2022-06-08 09:51:39.985
114.0, 24164.78385505484, 29865.596278380905, -19524.00291252171, -14353.820902564634, 1733.690706931437, 2736.7922945967075, 11386.850343567176, -2709.389055894501, 0.056, 0.884, 0.51, 192.0, 0.0, 0.0, 0.0, 0.0, 0.0, 0.0, 0.0, 0.0, 0.0, 1.654674699985412E9, 0.0, 2022-06-08 09:51:39.985
115.0, 24163.085122476237, 29859.226031211143, -19530.440214924838, -14363.588614891603, 1722.3583724925963, 2730.3326404491236, 11374.378070161114, -2724.7670560797524, 0.056, 0.884, 0.51, 192.0, 0.0, 0.0, 0.0, 0.0, 0.0, 0.0, 0.0, 0.0, 0.0, 1.6546746999854195E9, 0.0, 2022-06-08 09:51:39.985
116.0, 24159.665305574574, 29860.544784134006, -19541.81725285259, -14375.189170263908, 1713.820006110669, 2722.710695589864, 11349.411171604535, -2790.2576673338017, 0.06, 0.88, 0.516, 192.0, 1.0, 224.0, 27.0, 128.0, 16.0, 32.0, 0.0, 0.0, 0.0, 1.6546746999854264E9, 0.0, 2022-06-08 09:51:39.985
117.0, 24165.253241688402, 29866.870327814857, -19543.605392409016, -14378.519580187749, 1713.9988200663115, 2718.1732914654367, 11346.840720992175, -2792.8504696906175, 0.06, 0.88, 0.516, 192.0, 0.0, 0.0, 0.0, 0.0, 0.0, 0.0, 0.0, 0.0, 0.0, 1.6546746999854302E9, 0.0, 2022-06-08 09:51:39.985
118.0, 24169.455369646, 29864.85867081388, -19540.38674120745, -14371.054097539676, 1718.0668375571775, 2723.291840945702, 11364.6327095786, -2715.53578561971, 0.06, 0.88, 0.516, 192.0, 0.0, 0.0, 0.0, 0.0, 0.0, 0.0, 0.0, 0.0, 0.0, 1.6546746999854343E9, 0.0, 2022-06-08 09:51:39.985
119.0, 24183.335802952744, 29874.984011052136, -19535.558764405105, -14365.957899803865, 1722.0901515591327, 2725.3705531800456, 11369.237168936394, -2718.709733332364, 0.06, 0.88, 0.516, 192.0, 0.0, 0.0, 0.0, 0.0, 0.0, 0.0, 0.0, 0.0, 0.0, 1.6546746999854383E9, 0.0, 2022-06-08 09:51:39.985
120.0, 24185.012183786894, 29860.723598089648, -19540.8114243521, -14374.9433010749, 1716.3234014896634, 2717.838015298607, 11354.328555384704, -2745.062440045171, 0.06, 0.88, 0.516, 192.0, 0.0, 0.0, 0.0, 0.0, 0.0, 0.0, 0.0, 0.0, 0.0, 1.6546746999854424E9, 0.0, 2022-06-08 09:51:39.985
121.0, 24170.72941907995, 29858.890755044315, -19537.30220047262, -14375.792667364201, 1718.8715003575685, 2715.0440472416935, 11360.6317473211, -2750.2480447588023, 0.06, 0.88, 0.516, 192.0, 0.0, 0.0, 0.0, 0.0, 0.0, 0.0, 0.0, 0.0, 0.0, 1.6546746999854474E9, 0.0, 2022-06-08 09:51:39.985
122.0, 24163.12982596515, 29865.19394698071, -19536.028151038667, -14361.152274745975, 1720.9278608474567, 2710.2384221838024, 11356.116694941127, -2764.5308094657435, 0.06, 0.88, 0.516, 192.0, 0.0, 0.0, 0.0, 0.0, 0.0, 0.0, 0.0, 0.0, 0.0, 1.654674700464691E9, 0.0, 2022-06-08 09:51:40.464
123.0, 24170.416494657577, 29867.295010959508, -19527.132156745454, -14352.949184530877, 1731.2320150413532, 2716.608669353565, 11373.975738760917, -2762.183876297936, 0.06, 0.88, 0.516, 192.0, 0.0, 0.0, 0.0, 0.0, 0.0, 0.0, 0.0, 0.0, 0.0, 1.654674700464722E9, 0.0, 2022-06-08 09:51:40.464
124.0, 24172.428151658554, 29879.119083776368, -19524.62876136646, -14357.039553766199, 1739.1892360674426, 2724.7223525908416, 11383.184657476504, -2795.4879755363436, 0.06, 0.88, 0.516, 192.0, 0.0, 0.0, 0.0, 0.0, 0.0, 0.0, 0.0, 0.0, 0.0, 1.6546747004648902E9, 0.0, 2022-06-08 09:51:40.464
125.0, 24167.06373298928, 29860.343618433908, -19533.301238215117, -14374.876245841533, 1726.6499074280152, 2720.7884455667077, 11353.523892584311, -2776.4666410048776, 0.06, 0.88, 0.516, 192.0, 0.0, 0.0, 0.0, 0.0, 0.0, 0.0, 0.0, 0.0, 0.0, 1.6546747004648955E9, 0.0, 2022-06-08 09:51:40.464
126.0, 24172.092875491726, 29856.320304431953, -19535.782281849657, -14376.999661564787, 1714.7364276333367, 2718.866195543551, 11330.658058006533, -2729.3268119486347, 0.06, 0.882, 0.512, 192.0, 1.0, 224.0, 27.0, 144.0, 16.0, 0.0, 0.0, 0.0, 0.0, 1.6546747004648998E9, 0.0, 2022-06-08 09:51:40.464
127.0, 24171.042343502326, 29860.43302541173, -19543.895965086933, -14373.199865007386, 1716.792788123225, 2700.850689512574, 11339.486997066379, -2799.153661627014, 0.06, 0.882, 0.512, 192.0, 0.0, 0.0, 0.0, 0.0, 0.0, 0.0, 0.0, 0.0, 0.0, 1.6546747004649038E9, 0.0, 2022-06-08 09:51:40.464
128.0, 24186.241529731935, 29874.469920929663, -19534.128252759965, -14359.006507278265, 1723.1630352929874, 2713.6805908299198, 11356.049639707762, -2736.2782044742353, 0.06, 0.882, 0.512, 192.0, 0.0, 0.0, 0.0, 0.0, 0.0, 0.0, 0.0, 0.0, 0.0, 1.654674700464915E9, 0.0, 2022-06-08 09:51:40.464
129.0, 24188.11907626618, 29878.202662253698, -19532.094244014534, -14364.505036414272, 1727.1863492949426, 2726.7340095918194, 11361.034078721295, -2667.703052485353, 0.06, 0.882, 0.512, 192.0, 0.0, 0.0, 0.0, 0.0, 0.0, 0.0, 0.0, 0.0, 0.0, 1.654674700464919E9, 0.0, 2022-06-08 09:51:40.464
130.0, 24176.362058682687, 29877.800330853504, -19532.1612992479, -14373.26692024075, 1724.2806225157528, 2711.892451273495, 11367.538436357789, -2719.782617066219, 0.06, 0.882, 0.512, 192.0, 0.0, 0.0, 0.0, 0.0, 0.0, 0.0, 0.0, 0.0, 0.0, 1.654674700464923E9, 0.0, 2022-06-08 09:51:40.464
131.0, 24170.751770824405, 29873.419388940263, -19536.519889416682, -14378.072545298643, 1716.591622423127, 2706.5056808597665, 11370.019479992328, -2761.6250826865535, 0.06, 0.882, 0.512, 192.0, 0.0, 0.0, 0.0, 0.0, 0.0, 0.0, 0.0, 0.0, 0.0, 1.6546747004649267E9, 0.0, 2022-06-08 09:51:40.464
132.0, 24171.377619669154, 29885.019944312568, -19530.596677136025, -14367.634280638014, 1722.693648659426, 2717.4356838984113, 11377.820238807231, -2739.8097800981736, 0.06, 0.882, 0.512, 192.0, 0.0, 0.0, 0.0, 0.0, 0.0, 0.0, 0.0, 0.0, 0.0, 1.6546747004649308E9, 0.0, 2022-06-08 09:51:40.464
133.0, 24190.197788500525, 29882.740066378126, -19520.91837178688, -14361.733420101813, 1727.9239568619678, 2720.743742077797, 11373.86398003864, -2732.2772422167354, 0.06, 0.882, 0.512, 192.0, 0.0, 0.0, 0.0, 0.0, 0.0, 0.0, 0.0, 0.0, 0.0, 1.6546747004649348E9, 0.0, 2022-06-08 09:51:40.464
134.0, 24194.668137391585, 29882.181272766746, -19515.218676950775, -14355.027896765221, 1732.5060644753057, 2727.15869273647, 11367.158456702049, -2753.35493723809, 0.06, 0.882, 0.512, 192.0, 0.0, 0.0, 0.0, 0.0, 0.0, 0.0, 0.0, 0.0, 0.0, 1.6546747004649389E9, 0.0, 2022-06-08 09:51:40.464
135.0, 24174.283346448345, 29868.81492958247, -19518.19145896333, -14359.230024722818, 1729.6673929294818, 2725.325849691135, 11360.452933365457, -2780.065271862182, 0.06, 0.882, 0.512, 192.0, 0.0, 0.0, 0.0, 0.0, 0.0, 0.0, 0.0, 0.0, 0.0, 1.6546747004649427E9, 0.0, 2022-06-08 09:51:40.464
136.0, 24169.29890743481, 29873.19587149571, -19527.601543379016, -14369.198902749886, 1721.2184335253758, 2716.832186798118, 11357.211930419438, -2778.9253328949612, 0.054, 0.884, 0.508, 192.0, 1.0, 176.0, 27.0, 160.0, 15.0, 224.0, 0.0, 0.0, 0.0, 1.6546747004649467E9, 0.0, 2022-06-08 09:51:40.464
137.0, 24171.712895835986, 29879.58847040993, -19538.86682258449, -14379.190132521408, 1718.8044451242024, 2706.1480529484816, 11371.96408175994, -2759.903998363495, 0.054, 0.884, 0.508, 192.0, 0.0, 0.0, 0.0, 0.0, 0.0, 0.0, 0.0, 0.0, 0.0, 1.6546747004649508E9, 0.0, 2022-06-08 09:51:40.464
138.0, 24184.45339017551, 29871.67595287275, -19534.10590101551, -14362.493379413294, 1728.2145295398868, 2714.909936774962, 11386.671529611533, -2732.9924980393052, 0.054, 0.884, 0.508, 192.0, 0.0, 0.0, 0.0, 0.0, 0.0, 0.0, 0.0, 0.0, 0.0, 1.654674700464955E9, 0.0, 2022-06-08 09:51:40.464
139.0, 24196.500980436922, 29878.984973309634, -19524.71816834428, -14360.235853223307, 1737.5575587222052, 2727.0916375031043, 11389.621959879632, -2735.451189929389, 0.054, 0.884, 0.508, 192.0, 0.0, 0.0, 0.0, 0.0, 0.0, 0.0, 0.0, 0.0, 0.0, 1.654674700464959E9, 0.0, 2022-06-08 09:51:40.464
140.0, 24190.667175134084, 29876.749798864104, -19532.496575414727, -14369.780048105724, 1725.755837649803, 2716.2733931867356, 11372.567578860233, -2756.998271584305, 0.054, 0.884, 0.508, 192.0, 0.0, 0.0, 0.0, 0.0, 0.0, 0.0, 0.0, 0.0, 0.0, 1.654674700464963E9, 0.0, 2022-06-08 09:51:40.464
141.0, 24165.677924833053, 29858.890755044315, -19548.142796533444, -14369.80239985018, 1715.1611107779875, 2704.6951895588863, 11361.861093266141, -2767.280074033746, 0.054, 0.884, 0.508, 192.0, 0.0, 0.0, 0.0, 0.0, 0.0, 0.0, 0.0, 0.0, 0.0, 1.654674700464967E9, 0.0, 2022-06-08 09:51:40.464
142.0, 24160.849948030707, 29858.488423644118, -19553.462511713806, -14374.898597585989, 1713.9541165774008, 2709.1878901944033, 11350.238186149381, -2775.505515993299, 0.054, 0.884, 0.508, 192.0, 0.0, 0.0, 0.0, 0.0, 0.0, 0.0, 0.0, 0.0, 0.0, 1.6546747004649713E9, 0.0, 2022-06-08 09:51:40.464
143.0, 24183.626375630665, 29873.62055464036, -19545.125311031978, -14368.774219605235, 1723.8335876266467, 2716.3628001645566, 11360.229415920903, -2764.4861059768327, 0.054, 0.884, 0.508, 192.0, 0.0, 0.0, 0.0, 0.0, 0.0, 0.0, 0.0, 0.0, 0.0, 1.654674700464975E9, 0.0, 2022-06-08 09:51:40.464
144.0, 24186.12977100966, 29887.00924956909, -19540.230278996263, -14367.433114937916, 1725.3311545051522, 2713.7923495521964, 11378.446087651979, -2757.4676582178663, 0.054, 0.884, 0.508, 192.0, 0.0, 0.0, 0.0, 0.0, 0.0, 0.0, 0.0, 0.0, 0.0, 1.654674700464979E9, 0.0, 2022-06-08 09:51:40.464
145.0, 24182.620547130176, 29871.050104028, -19541.81725285259, -14364.169760247441, 1719.3408869911298, 2713.971163507839, 11362.464590366435, -2716.608669353565, 0.054, 0.884, 0.508, 192.0, 0.0, 0.0, 0.0, 0.0, 0.0, 0.0, 0.0, 0.0, 0.0, 1.654674700464983E9, 0.0, 2022-06-08 09:51:40.464
146.0, 24164.202709699002, 29856.923801532248, -19553.77543613618, -14384.442792468404, 1707.203889751898, 2703.15291919147, 11344.560843057734, -2726.7116578473638, 0.062, 0.88, 0.508, 192.0, 1.0, 240.0, 27.0, 128.0, 15.0, 224.0, 0.0, 0.0, 0.0, 1.654674700464987E9, 0.0, 2022-06-08 09:51:40.464
147.0, 24172.383448169643, 29867.853804570892, -19547.069912799587, -14375.144466774997, 1719.0279625687556, 2702.817643024641, 11357.189578674983, -2777.6289317165533, 0.062, 0.88, 0.508, 192.0, 0.0, 0.0, 0.0, 0.0, 0.0, 0.0, 0.0, 0.0, 0.0, 1.654674700464991E9, 0.0, 2022-06-08 09:51:40.464
148.0, 24176.518520893875, 29868.949040049203, -19537.324552217073, -14363.65567012497, 1734.271852287275, 2714.798178052685, 11374.82510505022, -2769.582303712643, 0.062, 0.88, 0.508, 192.0, 0.0, 0.0, 0.0, 0.0, 0.0, 0.0, 0.0, 0.0, 0.0, 1.654674700464995E9, 0.0, 2022-06-08 09:51:40.464
149.0, 24170.863529546685, 29867.38441793733, -19538.084511528556, -14374.809190608168, 1733.0201545977777, 2706.2374599263026, 11372.411116649046, -2772.3762717695563, 0.062, 0.88, 0.508, 192.0, 0.0, 0.0, 0.0, 0.0, 0.0, 0.0, 0.0, 0.0, 0.0, 1.654674700464999E9, 0.0, 2022-06-08 09:51:40.464
150.0, 24170.528253379853, 29862.131757990333, -19540.72201737428, -14377.133772031519, 1724.302974260208, 2697.8555557555624, 11369.751259058865, -2776.8913241495284, 0.062, 0.88, 0.508, 192.0, 0.0, 0.0, 0.0, 0.0, 0.0, 0.0, 0.0, 0.0, 0.0, 1.6546747004650044E9, 0.0, 2022-06-08 09:51:40.465
151.0, 24161.69931432001, 29856.54382187651, -19550.333267490063, -14392.757641405778, 1719.072666057666, 2695.128642932015, 11363.403363633557, -2767.2353705448354, 0.062, 0.88, 0.508, 192.0, 0.0, 0.0, 0.0, 0.0, 0.0, 0.0, 0.0, 0.0, 0.0, 1.6546747004650085E9, 0.0, 2022-06-08 09:51:40.465
152.0, 24157.944221251517, 29854.91214453127, -19556.412941981907, -14398.189115308418, 1718.6479829130153, 2695.039235954194, 11360.341174643181, -2781.249914318313, 0.062, 0.88, 0.508, 192.0, 0.0, 0.0, 0.0, 0.0, 0.0, 0.0, 0.0, 0.0, 0.0, 1.6546747004650123E9, 0.0, 2022-06-08 09:51:40.465
153.0, 24185.839198331738, 29869.731351105136, -19545.68410464336, -14372.596367907092, 1728.147474306521, 2711.7359890623084, 11367.404325891057, -2766.050728088704, 0.062, 0.88, 0.508, 192.0, 0.0, 0.0, 0.0, 0.0, 0.0, 0.0, 0.0, 0.0, 0.0, 1.6546747004650166E9, 0.0, 2022-06-08 09:51:40.465
154.0, 24199.607872916207, 29877.263888986578, -19528.49561315723, -14358.760638089258, 1740.0609541011995, 2717.703904831875, 11383.676395854522, -2735.2723759737464, 0.062, 0.88, 0.508, 192.0, 0.0, 0.0, 0.0, 0.0, 0.0, 0.0, 0.0, 0.0, 0.0, 1.6546747004650204E9, 0.0, 2022-06-08 09:51:40.465
155.0, 24179.133674995148, 29869.172557493755, -19534.10590101551, -14363.141580002497, 1734.3612592650961, 2721.34723917809, 11367.851360780163, -2710.327829161624, 0.062, 0.88, 0.508, 192.0, 0.0, 0.0, 0.0, 0.0, 0.0, 0.0, 0.0, 0.0, 0.0, 1.6546747004650245E9, 0.0, 2022-06-08 09:51:40.465
156.0, 24157.83246252924, 29860.880060300835, -19554.96007859231, -14384.286330257217, 1717.3515817346076, 2701.5659453351436, 11350.685221038488, -2750.605672670087, 0.058, 0.88, 0.512, 192.0, 1.0, 208.0, 27.0, 128.0, 16.0, 0.0, 0.0, 0.0, 0.0, 1.6546747004650283E9, 0.0, 2022-06-08 09:51:40.465
157.0, 24154.5020526054, 29877.19683375321, -19558.759875149713, -14383.146391289996, 1721.7995788812136, 2701.454186612867, 11377.976701018419, -2748.0799255466372, 0.058, 0.88, 0.512, 192.0, 0.0, 0.0, 0.0, 0.0, 0.0, 0.0, 0.0, 0.0, 0.0, 1.6546747004650323E9, 0.0, 2022-06-08 09:51:40.465
158.0, 24180.318317451278, 29877.085075030933, -19546.39936046593, -14376.79849586469, 1731.3437737636298, 2715.4910821308, 11386.626826122621, -2718.4638641433557, 0.058, 0.88, 0.512, 192.0, 0.0, 0.0, 0.0, 0.0, 0.0, 0.0, 0.0, 0.0, 0.0, 1.6546747004650366E9, 0.0, 2022-06-08 09:51:40.465
159.0, 24192.32120422378, 29870.133682505333, -19541.25845924121, -14371.277614984228, 1731.1202563190766, 2718.642678098998, 11366.174979946016, -2721.9283845339282, 0.058, 0.88, 0.512, 192.0, 0.0, 0.0, 0.0, 0.0, 0.0, 0.0, 0.0, 0.0, 0.0, 1.6546747004650407E9, 0.0, 2022-06-08 09:51:40.465
160.0, 24182.955823297005, 29867.362066192876, -19550.892061101444, -14374.049231296687, 1727.72279116187, 2716.9886490093054, 11353.032154206296, -2734.8253410846405, 0.058, 0.88, 0.512, 192.0, 0.0, 0.0, 0.0, 0.0, 0.0, 0.0, 0.0, 0.0, 0.0, 1.6546747004650452E9, 0.0, 2022-06-08 09:51:40.465
161.0, 24169.07538999026, 29870.67012437226, -19564.30310777463, -14392.042385583209, 1720.4361224694399, 2705.075169214627, 11366.15262820156, -2758.0711553181595, 0.058, 0.88, 0.512, 192.0, 0.0, 0.0, 0.0, 0.0, 0.0, 0.0, 0.0, 0.0, 0.0, 1.6546747004650493E9, 0.0, 2022-06-08 09:51:40.465
162.0, 24166.102607977704, 29866.043313270013, -19562.716133918304, -14395.171629806951, 1721.0619713141884, 2709.992552994794, 11373.05931723825, -2761.513323964277, 0.058, 0.88, 0.512, 192.0, 0.0, 0.0, 0.0, 0.0, 0.0, 0.0, 0.0, 0.0, 0.0, 1.654674700465053E9, 0.0, 2022-06-08 09:51:40.465
163.0, 24173.724552836964, 29864.14341499131, -19558.223433282787, -14379.056022054676, 1725.91229986099, 2714.7534745637745, 11369.751259058865, -2762.4968007203106, 0.058, 0.88, 0.512, 192.0, 0.0, 0.0, 0.0, 0.0, 0.0, 0.0, 0.0, 0.0, 0.0, 1.6546747004650571E9, 0.0, 2022-06-08 09:51:40.465
164.0, 24179.804227328805, 29888.260947258586, -19562.9172996184, -14378.340766232106, 1727.6110324395936, 2709.411407638956, 11372.388764904592, -2795.957362169905, 0.058, 0.88, 0.512, 192.0, 0.0, 0.0, 0.0, 0.0, 0.0, 0.0, 0.0, 0.0, 0.0, 1.6546747004650612E9, 0.0, 2022-06-08 09:51:40.465
165.0, 24194.154047269112, 29890.406714726298, -19553.864843114003, -14381.693527900403, 1730.0026690963114, 2721.3025356891794, 11387.073861011728, -2753.3996407270006, 0.058, 0.88, 0.512, 192.0, 0.0, 0.0, 0.0, 0.0, 0.0, 0.0, 0.0, 0.0, 0.0, 1.6546747004650652E9, 0.0, 2022-06-08 09:51:40.465
166.0, 24176.07148600477, 29866.602106881393, -19558.87163387199, -14377.580806920625, 1719.8102736246913, 2715.7593030642633, 11382.804677820764, -2709.7913872946965, 0.056, 0.882, 0.518, 192.0, 1.0, 192.0, 27.0, 144.0, 16.0, 48.0, 0.0, 0.0, 0.0, 1.6546747004650693E9, 0.0, 2022-06-08 09:51:40.465
167.0, 24175.64680286012, 29867.451473170695, -19558.022267582688, -14373.55749291867, 1719.3185352466746, 2718.06153274316, 11376.903817284563, -2730.846730571596, 0.056, 0.882, 0.518, 192.0, 0.0, 0.0, 0.0, 0.0, 0.0, 0.0, 0.0, 0.0, 0.0, 1.654674700465073E9, 0.0, 2022-06-08 09:51:40.465
168.0, 24190.913044323093, 29863.137586490822, -19558.53635770516, -14380.37477497754, 1718.8044451242024, 2713.3676664075456, 11348.204177403948, -2768.867047890073, 0.056, 0.882, 0.518, 192.0, 0.0, 0.0, 0.0, 0.0, 0.0, 0.0, 0.0, 0.0, 0.0, 1.6546747004650772E9, 0.0, 2022-06-08 09:51:40.465
169.0, 24190.913044323093, 29894.742953150628, -19544.074779042578, -14352.099818241575, 1731.8802156305571, 2721.3025356891794, 11349.187654159983, -2752.930254093439, 0.056, 0.882, 0.518, 192.0, 0.0, 0.0, 0.0, 0.0, 0.0, 0.0, 0.0, 0.0, 0.0, 1.6546747004650812E9, 0.0, 2022-06-08 09:51:40.465
170.0, 24177.569052883275, 29884.05881930099, -19551.383799479463, -14369.042440538698, 1722.336020748141, 2705.8798320150177, 11371.20412244846, -2758.4287832294444, 0.056, 0.882, 0.518, 192.0, 0.0, 0.0, 0.0, 0.0, 0.0, 0.0, 0.0, 0.0, 0.0, 1.6546747004650853E9, 0.0, 2022-06-08 09:51:40.465
171.0, 24159.799416041307, 29861.952944034692, -19560.72682866178, -14384.509847701771, 1714.9599450778896, 2701.610648824054, 11385.598645877677, -2727.6280793700316, 0.056, 0.882, 0.518, 192.0, 0.0, 0.0, 0.0, 0.0, 0.0, 0.0, 0.0, 0.0, 0.0, 1.6546747004650908E9, 0.0, 2022-06-08 09:51:40.465
172.0, 24161.989886997926, 29864.411635924775, -19566.091247331053, -14393.584655950626, 1714.8034828667026, 2702.3706081355344, 11372.478171882412, -2736.1664457519587, 0.056, 0.882, 0.518, 192.0, 0.0, 0.0, 0.0, 0.0, 0.0, 0.0, 0.0, 0.0, 0.0, 1.6546747004650948E9, 0.0, 2022-06-08 09:51:40.465
173.0, 24172.472855147465, 29871.38538019483, -19557.754046649225, -14377.223179009341, 1720.6372881695377, 2711.5348233622103, 11375.272139939325, -2742.737858621819, 0.056, 0.882, 0.518, 192.0, 0.0, 0.0, 0.0, 0.0, 0.0, 0.0, 0.0, 0.0, 0.0, 1.6546747004650989E9, 0.0, 2022-06-08 09:51:40.465
174.0, 24194.958710069503, 29882.0024588111, -19539.604430151514, -14361.532254401714, 1734.0259830982666, 2725.8175880691515, 11392.751204103375, -2731.763152094263, 0.056, 0.882, 0.518, 192.0, 0.0, 0.0, 0.0, 0.0, 0.0, 0.0, 0.0, 0.0, 0.0, 1.6546747004651027E9, 0.0, 2022-06-08 09:51:40.465
175.0, 24188.186131499548, 29869.932516805235, -19555.071837314586, -14381.380603478028, 1720.369067236074, 2708.450282627378, 11390.471326168934, -2751.343280237112, 0.056, 0.882, 0.518, 192.0, 0.0, 0.0, 0.0, 0.0, 0.0, 0.0, 0.0, 0.0, 0.0, 1.6546747004651065E9, 0.0, 2022-06-08 09:51:40.465
176.0, 24184.229872730957, 29862.91406904627, -19557.843453627047, -14388.287292514719, 1711.8307008541467, 2691.9099917304507, 11372.925206771519, -2791.93404816795, 0.056, 0.884, 0.524, 192.0, 1.0, 192.0, 27.0, 160.0, 16.0, 96.0, 0.0, 0.0, 0.0, 1.6546747004651113E9, 0.0, 2022-06-08 09:51:40.465
177.0, 24194.399916458122, 29870.91599356127, -19552.859014613514, -14379.860684855066, 1713.238860754831, 2697.29676214418, 11361.81638977723, -2774.186763070436, 0.056, 0.884, 0.524, 192.0, 0.0, 0.0, 0.0, 0.0, 0.0, 0.0, 0.0, 0.0, 0.0, 1.6546747004651153E9, 0.0, 2022-06-08 09:51:40.465
178.0, 24214.56118995681, 29876.1015982749, -19553.127235546977, -14370.182379505919, 1716.4798637008505, 2709.2102419388584, 11361.928148499508, -2724.0741520016377, 0.056, 0.884, 0.524, 192.0, 0.0, 0.0, 0.0, 0.0, 0.0, 0.0, 0.0, 0.0, 0.0, 1.6546747004651191E9, 0.0, 2022-06-08 09:51:40.465
179.0, 24206.3133962528, 29884.48350244564, -19541.459624941304, -14359.654707867468, 1726.404038239007, 2719.8943757884954, 11378.647253352077, -2727.87394855904, 0.056, 0.884, 0.524, 192.0, 0.0, 0.0, 0.0, 0.0, 0.0, 0.0, 0.0, 0.0, 0.0, 1.6546747004651232E9, 0.0, 2022-06-08 09:51:40.465
180.0, 24171.087046991237, 29887.255118758098, -19541.884308085955, -14362.493379413294, 1715.630497411549, 2711.892451273495, 11372.656985838055, -2742.3802307105343, 0.056, 0.884, 0.524, 192.0, 0.0, 0.0, 0.0, 0.0, 0.0, 0.0, 0.0, 0.0, 0.0, 1.6546747004651272E9, 0.0, 2022-06-08 09:51:40.465
181.0, 24160.805244541796, 29874.536976163028, -19551.003819823723, -14373.535141174216, 1708.7238083748591, 2704.9857622368054, 11361.861093266141, -2727.3375066921126, 0.056, 0.884, 0.524, 192.0, 0.0, 0.0, 0.0, 0.0, 0.0, 0.0, 0.0, 0.0, 0.0, 1.6546747004651313E9, 0.0, 2022-06-08 09:51:40.465
182.0, 24170.34943942421, 29869.172557493755, -19560.615069939504, -14391.640054183013, 1702.7335408608367, 2693.9440004758835, 11344.717305268921, -2753.1537715379923, 0.056, 0.884, 0.524, 192.0, 0.0, 0.0, 0.0, 0.0, 0.0, 0.0, 0.0, 0.0, 0.0, 1.654674700465135E9, 0.0, 2022-06-08 09:51:40.465
183.0, 24193.2599774909, 29889.44558971472, -19553.462511713806, -14389.404879737483, 1710.7801688647473, 2702.191794179892, 11355.893177496575, -2785.6308562315535, 0.056, 0.884, 0.524, 192.0, 0.0, 0.0, 0.0, 0.0, 0.0, 0.0, 0.0, 0.0, 0.0, 1.6546747004651392E9, 0.0, 2022-06-08 09:51:40.465
184.0, 24204.391146229646, 29903.77305791057, -19551.04852331263, -14367.32135621564, 1714.7811311222472, 2710.618401839543, 11359.424753120513, -2780.936989895939, 0.056, 0.884, 0.524, 192.0, 0.0, 0.0, 0.0, 0.0, 0.0, 0.0, 0.0, 0.0, 0.0, 1.6546747004651437E9, 0.0, 2022-06-08 09:51:40.465
185.0, 24192.388259457144, 29890.943156593225, -19553.462511713806, -14362.806303835667, 1717.9997823238114, 2710.640753583998, 11367.940767757986, -2753.891379105017, 0.058, 0.888, 0.52, 192.0, 1.0, 208.0, 27.0, 192.0, 16.0, 64.0, 0.0, 0.0, 0.0, 1.6546747004651475E9, 0.0, 2022-06-08 09:51:40.465
186.0, 24191.561244912296, 29883.455322200698, -19564.571328708094, -14385.649786668992, 1709.7519886198031, 2703.577602336121, 11362.308128155248, -2746.6270621570425, 0.058, 0.888, 0.52, 192.0, 0.0, 0.0, 0.0, 0.0, 0.0, 0.0, 0.0, 0.0, 0.0, 1.6546747004651515E9, 0.0, 2022-06-08 09:51:40.465
187.0, 24195.092820536236, 29887.09865654691, -19566.69474443135, -14382.274673256241, 1705.3263432176523, 2702.862346513551, 11348.271232637315, -2743.609576655576, 0.058, 0.888, 0.52, 192.0, 0.0, 0.0, 0.0, 0.0, 0.0, 0.0, 0.0, 0.0, 0.0, 1.6546747004651556E9, 0.0, 2022-06-08 09:51:40.465
188.0, 24193.997585057925, 29884.930537334745, -19559.832758883567, -14363.208635235864, 1710.1319682755434, 2705.5222041037327, 11345.700782024955, -2737.8875300750174, 0.058, 0.888, 0.52, 192.0, 0.0, 0.0, 0.0, 0.0, 0.0, 0.0, 0.0, 0.0, 0.0, 1.6546747004651597E9, 0.0, 2022-06-08 09:51:40.465
189.0, 24204.4134979741, 29887.277470502555, -19551.003819823723, -14373.110458029565, 1715.138759033532, 2701.0295034682163, 11358.77655253131, -2741.0167742987605, 0.058, 0.888, 0.52, 192.0, 0.0, 0.0, 0.0, 0.0, 0.0, 0.0, 0.0, 0.0, 0.0, 1.6546747004651637E9, 0.0, 2022-06-08 09:51:40.465
190.0, 24198.93732058255, 29883.29885998951, -19560.458607728317, -14391.70710941638, 1709.7519886198031, 2682.0528724256606, 11360.251767665359, -2751.343280237112, 0.058, 0.888, 0.52, 192.0, 0.0, 0.0, 0.0, 0.0, 0.0, 0.0, 0.0, 0.0, 0.0, 1.6546747004651675E9, 0.0, 2022-06-08 09:51:40.465
191.0, 24193.639957146643, 29881.77894136655, -19560.48095947277, -14391.975330349844, 1710.1766717644539, 2690.121852174026, 11353.970927473418, -2731.2043584828807, 0.058, 0.888, 0.52, 192.0, 0.0, 0.0, 0.0, 0.0, 0.0, 0.0, 0.0, 0.0, 0.0, 1.654674700465172E9, 0.0, 2022-06-08 09:51:40.465
192.0, 24191.427134445566, 29882.29303148902, -19564.571328708094, -14382.431135467426, 1708.276773485753, 2693.966352220339, 11348.695915781966, -2754.316062249668, 0.058, 0.888, 0.52, 192.0, 0.0, 0.0, 0.0, 0.0, 0.0, 0.0, 0.0, 0.0, 0.0, 1.6546747004651773E9, 0.0, 2022-06-08 09:51:40.465
193.0, 24188.4096489441, 29891.367839737875, -19560.324497261583, -14366.717859115346, 1717.4856922013394, 2701.163613934948, 11359.983546731895, -2780.378196284556, 0.058, 0.888, 0.52, 192.0, 0.0, 0.0, 0.0, 0.0, 0.0, 0.0, 0.0, 0.0, 0.0, 1.6546747004651814E9, 0.0, 2022-06-08 09:51:40.465
194.0, 24198.982024071458, 29887.836264113936, -19550.601488423526, -14367.008431793265, 1727.5886806951382, 2720.833149055618, 11375.897988784074, -2704.9857622368054, 0.058, 0.888, 0.52, 192.0, 0.0, 0.0, 0.0, 0.0, 0.0, 0.0, 0.0, 0.0, 0.0, 1.6546747004651852E9, 0.0, 2022-06-08 09:51:40.465
195.0, 24203.83235261826, 29906.0082323561, -19552.143758790942, -14368.908330071967, 1723.4089044819957, 2712.004209995772, 11383.765802832342, -2706.036294226205, 0.058, 0.882, 0.514, 192.0, 1.0, 208.0, 27.0, 144.0, 16.0, 16.0, 0.0, 0.0, 0.0, 1.6546747004651892E9, 0.0, 2022-06-08 09:51:40.465
196.0, 24198.758506626906, 29882.24832800011, -19566.0688955866, -14395.328092018139, 1711.3836659650406, 2693.362855120046, 11364.230378178403, -2757.892341362517, 0.058, 0.882, 0.514, 192.0, 0.0, 0.0, 0.0, 0.0, 0.0, 0.0, 0.0, 0.0, 0.0, 1.6546747004651933E9, 0.0, 2022-06-08 09:51:40.465
197.0, 24190.577768156265, 29868.01026678208, -19569.53341597717, -14400.267827542762, 1708.6791048859484, 2691.686474285898, 11336.447159820456, -2785.6755597204638, 0.058, 0.882, 0.514, 192.0, 0.0, 0.0, 0.0, 0.0, 0.0, 0.0, 0.0, 0.0, 0.0, 1.654674700465197E9, 0.0, 2022-06-08 09:51:40.465
198.0, 24200.88192235016, 29881.95775532219, -19556.792921637647, -14383.32520524564, 1726.1581690499986, 2703.4881953583, 11354.932052484995, -2765.0448995882157, 0.058, 0.882, 0.514, 192.0, 0.0, 0.0, 0.0, 0.0, 0.0, 0.0, 0.0, 0.0, 0.0, 1.6546747004652011E9, 0.0, 2022-06-08 09:51:40.465
199.0, 24206.849838119728, 29883.2541565006, -19548.299258744628, -14383.66048141247, 1733.176616808965, 2704.806948281163, 11388.392613934591, -2725.549367135688, 0.058, 0.882, 0.514, 192.0, 0.0, 0.0, 0.0, 0.0, 0.0, 0.0, 0.0, 0.0, 0.0, 1.6546747004652052E9, 0.0, 2022-06-08 09:51:40.465
200.0, 24194.3105094803, 29881.488368688628, -19548.67923840037, -14387.728498903334, 1724.1465120490209, 2701.6553523129646, 11378.40138416307, -2713.0770937296265, 0.058, 0.882, 0.514, 192.0, 0.0, 0.0, 0.0, 0.0, 0.0, 0.0, 0.0, 0.0, 0.0, 1.6546747004652092E9, 0.0, 2022-06-08 09:51:40.465
201.0, 24179.804227328805, 29886.09282804642, -19560.950346106332, -14403.508830488781, 1711.1601485204874, 2687.707863772853, 11365.973814245917, -2735.2723759737464, 0.058, 0.882, 0.514, 192.0, 0.0, 0.0, 0.0, 0.0, 0.0, 0.0, 0.0, 0.0, 0.0, 1.6546747004652133E9, 0.0, 2022-06-08 09:51:40.465
202.0, 24189.571939655776, 29883.85765360089, -19555.9659070928, -14403.37472002205, 1713.0823985436439, 2684.131584660004, 11365.705593312454, -2752.8184953711625, 0.058, 0.882, 0.514, 192.0, 0.0, 0.0, 0.0, 0.0, 0.0, 0.0, 0.0, 0.0, 0.0, 1.6546747004652174E9, 0.0, 2022-06-08 09:51:40.465
203.0, 24203.65353866262, 29880.81781635497, -19547.15931977741, -14373.26692024075, 1724.951174849412, 2698.928439489417, 11379.63073010811, -2752.6843849044308, 0.058, 0.882, 0.514, 192.0, 0.0, 0.0, 0.0, 0.0, 0.0, 0.0, 0.0, 0.0, 0.0, 1.6546747004652214E9, 0.0, 2022-06-08 09:51:40.465
204.0, 24200.479590949966, 29886.070476301968, -19546.77934012167, -14372.506960929271, 1726.918128361479, 2703.10821570256, 11385.084555755206, -2732.098428261093, 0.058, 0.882, 0.514, 192.0, 0.0, 0.0, 0.0, 0.0, 0.0, 0.0, 0.0, 0.0, 0.0, 1.6546747004652255E9, 0.0, 2022-06-08 09:51:40.465
205.0, 24185.2580529759, 29870.848938327905, -19559.385723994463, -14386.789725636212, 1714.6023171666047, 2694.703959787364, 11370.846494537174, -2740.4579806873776, 0.054, 0.878, 0.514, 192.0, 1.0, 176.0, 27.0, 112.0, 16.0, 16.0, 0.0, 0.0, 0.0, 1.6546747004652295E9, 0.0, 2022-06-08 09:51:40.465
206.0, 24173.76925632587, 29874.62638314085, -19570.092209588554, -14397.965597863866, 1705.6169158955713, 2683.9527707043617, 11358.553035086756, -2768.799992656707, 0.054, 0.878, 0.514, 192.0, 0.0, 0.0, 0.0, 0.0, 0.0, 0.0, 0.0, 0.0, 0.0, 1.6546747004652336E9, 0.0, 2022-06-08 09:51:40.465
207.0, 24186.330936709757, 29875.140473263324, -19565.286584530662, -14395.573961207148, 1713.9988200663115, 2686.255000383258, 11367.851360780163, -2783.1721643414694, 0.054, 0.878, 0.514, 192.0, 0.0, 0.0, 0.0, 0.0, 0.0, 0.0, 0.0, 0.0, 0.0, 1.6546747004652376E9, 0.0, 2022-06-08 09:51:40.465
208.0, 24195.673965892074, 29875.81102559698, -19561.889119373456, -14392.757641405778, 1722.0901515591327, 2691.395901607979, 11366.979642746406, -2788.0001411438157, 0.054, 0.878, 0.514, 192.0, 0.0, 0.0, 0.0, 0.0, 0.0, 0.0, 0.0, 0.0, 0.0, 1.6546747004652417E9, 0.0, 2022-06-08 09:51:40.465
209.0, 24211.58840794425, 29890.87610135986, -19550.601488423526, -14372.998699307287, 1733.8248173981688, 2699.7107505453528, 11371.897026526574, -2755.232483772336, 0.054, 0.878, 0.514, 192.0, 0.0, 0.0, 0.0, 0.0, 0.0, 0.0, 0.0, 0.0, 0.0, 1.6546747004652455E9, 0.0, 2022-06-08 09:51:40.465
210.0, 24207.475686964477, 29890.2055490262, -19556.18942453735, -14379.458353454871, 1723.498311459817, 2691.127680674515, 11355.289680396281, -2736.8146463411626, 0.054, 0.878, 0.514, 192.0, 0.0, 0.0, 0.0, 0.0, 0.0, 0.0, 0.0, 0.0, 0.0, 1.6546747004652498E9, 0.0, 2022-06-08 09:51:40.465
211.0, 24185.436866931545, 29887.16571178028, -19564.236052541262, -14399.686682186924, 1712.0989217876104, 2678.677759012909, 11356.407267619046, -2736.2335009853246, 0.054, 0.878, 0.514, 192.0, 0.0, 0.0, 0.0, 0.0, 0.0, 0.0, 0.0, 0.0, 0.0, 1.654674700465254E9, 0.0, 2022-06-08 09:51:40.465
212.0, 24175.490340648932, 29867.719694104162, -19573.601433468037, -14417.523374262259, 1709.2602502417865, 2671.167572875926, 11356.429619363502, -2729.907957304473, 0.054, 0.878, 0.514, 192.0, 0.0, 0.0, 0.0, 0.0, 0.0, 0.0, 0.0, 0.0, 0.0, 1.654674700465258E9, 0.0, 2022-06-08 09:51:40.465
213.0, 24186.93443381005, 29870.96069705018, -19559.74335190575, -14388.287292514719, 1724.8617678715907, 2686.9255527169175, 11370.377107903614, -2721.7942740671965, 0.054, 0.878, 0.514, 192.0, 0.0, 0.0, 0.0, 0.0, 0.0, 0.0, 0.0, 0.0, 0.0, 1.654674700465262E9, 0.0, 2022-06-08 09:51:40.465
214.0, 24207.162762542102, 29895.413505484285, -19546.667581399393, -14365.846141081589, 1733.9589278649007, 2700.5601168346548, 11374.445125394479, -2748.0128703132714, 0.054, 0.878, 0.514, 192.0, 0.0, 0.0, 0.0, 0.0, 0.0, 0.0, 0.0, 0.0, 0.0, 1.6546747004652672E9, 0.0, 2022-06-08 09:51:40.465
215.0, 24203.631186918163, 29896.53109270705, -19555.295354759142, -14382.766411634257, 1725.755837649803, 2689.6524655404646, 11359.91649149853, -2782.278094563257, 0.056, 0.878, 0.514, 192.0, 1.0, 192.0, 27.0, 112.0, 16.0, 16.0, 0.0, 0.0, 0.0, 1.6546747004652712E9, 0.0, 2022-06-08 09:51:40.465
216.0, 24195.338689725246, 29873.01705754007, -19564.750142663735, -14385.51567620226, 1714.1329305330432, 2675.4814595558, 11336.067180164717, -2797.2984668372237, 0.056, 0.878, 0.514, 192.0, 0.0, 0.0, 0.0, 0.0, 0.0, 0.0, 0.0, 0.0, 0.0, 1.6546747004652753E9, 0.0, 2022-06-08 09:51:40.465
217.0, 24192.67883213506, 29863.96460103567, -19560.704476917326, -14368.304832971673, 1721.8442823701243, 2685.539744560688, 11360.251767665359, -2787.061367876693, 0.056, 0.878, 0.514, 192.0, 0.0, 0.0, 0.0, 0.0, 0.0, 0.0, 0.0, 0.0, 0.0, 1.654674700465279E9, 0.0, 2022-06-08 09:51:40.465
218.0, 24202.22302701748, 29881.845996599914, -19542.308991230606, -14358.60417587807, 1738.8763116450682, 2704.6504860699756, 11390.20310523547, -2706.5950878375875, 0.056, 0.878, 0.514, 192.0, 0.0, 0.0, 0.0, 0.0, 0.0, 0.0, 0.0, 0.0, 0.0, 1.6546747004652832E9, 0.0, 2022-06-08 09:51:40.465
219.0, 24216.79636440234, 29901.96256660969, -19538.643305139936, -14359.520597400737, 1743.8831024030571, 2708.8973175164842, 11395.098137271183, -2680.8905817139844, 0.056, 0.878, 0.514, 192.0, 0.0, 0.0, 0.0, 0.0, 0.0, 0.0, 0.0, 0.0, 0.0, 1.6546747004652872E9, 0.0, 2022-06-08 09:51:40.465
220.0, 24216.46108823551, 29901.627290442862, -19546.846395355034, -14375.591501664103, 1733.6683551869817, 2692.737006275297, 11378.91547428554, -2736.1887974964143, 0.056, 0.878, 0.514, 192.0, 0.0, 0.0, 0.0, 0.0, 0.0, 0.0, 0.0, 0.0, 0.0, 1.6546747004652915E9, 0.0, 2022-06-08 09:51:40.465
221.0, 24197.126829281668, 29890.272604259564, -19563.498444974237, -14381.984100578322, 1719.3632387355851, 2672.91100894344, 11351.288718138781, -2759.3675564965674, 0.056, 0.878, 0.514, 192.0, 0.0, 0.0, 0.0, 0.0, 0.0, 0.0, 0.0, 0.0, 0.0, 1.6546747004652956E9, 0.0, 2022-06-08 09:51:40.465
222.0, 24204.16762878509, 29892.01604032708, -19564.86190138601, -14380.128905788531, 1715.4740352003616, 2674.140354888482, 11325.807729459731, -2746.671765645953, 0.056, 0.878, 0.514, 192.0, 0.0, 0.0, 0.0, 0.0, 0.0, 0.0, 0.0, 0.0, 0.0, 1.6546747004652996E9, 0.0, 2022-06-08 09:51:40.465
223.0, 24212.348367255734, 29895.659374673294, -19547.38283722196, -14374.004527807776, 1731.4555324859064, 2697.0732446996267, 11360.564692087733, -2717.390980409501, 0.056, 0.878, 0.514, 192.0, 0.0, 0.0, 0.0, 0.0, 0.0, 0.0, 0.0, 0.0, 0.0, 1.654674700465306E9, 0.0, 2022-06-08 09:51:40.465
224.0, 24219.992663859448, 29899.168598552777, -19534.19530799333, -14360.12409450103, 1739.9938988678337, 2707.042122726694, 11392.77355584783, -2709.5678698501433, 0.056, 0.878, 0.514, 192.0, 0.0, 0.0, 0.0, 0.0, 0.0, 0.0, 0.0, 0.0, 0.0, 1.6546747004653103E9, 0.0, 2022-06-08 09:51:40.465
225.0, 24234.767166944406, 29912.356127781408, -19531.222525980775, -14352.770370575236, 1741.7149831908923, 2706.192756437392, 11401.31192222976, -2719.87202404404, 0.062, 0.884, 0.512, 192.0, 1.0, 240.0, 27.0, 160.0, 16.0, 0.0, 0.0, 0.0, 0.0, 1.6546747004653144E9, 0.0, 2022-06-08 09:51:40.465
226.0, 24227.905181396625, 29905.337680022443, -19546.756988377212, -14348.07650423962, 1721.4419509699287, 2692.6028958085653, 11378.088459740695, -2740.5920911541098, 0.062, 0.884, 0.512, 192.0, 0.0, 0.0, 0.0, 0.0, 0.0, 0.0, 0.0, 0.0, 0.0, 1.6546747004653184E9, 0.0, 2022-06-08 09:51:40.465
227.0, 24222.5184109829, 29895.30174676201, -19553.864843114003, -14371.478780684327, 1716.8821951010461, 2684.355102104557, 11361.503465354857, -2752.6843849044308, 0.062, 0.884, 0.512, 192.0, 0.0, 0.0, 0.0, 0.0, 0.0, 0.0, 0.0, 0.0, 0.0, 1.6546747004653225E9, 0.0, 2022-06-08 09:51:40.465
228.0, 24216.639902191153, 29894.005345583602, -19547.29343024414, -14376.08324004212, 1733.7130586758924, 2689.3171893736353, 11377.596721362677, -2744.861274345073, 0.062, 0.884, 0.512, 192.0, 0.0, 0.0, 0.0, 0.0, 0.0, 0.0, 0.0, 0.0, 0.0, 1.6546747004653265E9, 0.0, 2022-06-08 09:51:40.465
229.0, 24219.21035280351, 29905.047107344522, -19543.04659879763, -14357.46423691085, 1738.0492971002218, 2694.703959787364, 11382.737622587398, -2753.265530260269, 0.062, 0.884, 0.512, 192.0, 0.0, 0.0, 0.0, 0.0, 0.0, 0.0, 0.0, 0.0, 0.0, 1.6546747004653308E9, 0.0, 2022-06-08 09:51:40.465
230.0, 24212.683643422562, 29899.839150886437, -19556.122369303986, -14372.46225744036, 1727.5439772062275, 2678.968331690828, 11352.339250128181, -2801.79116747274, 0.062, 0.884, 0.512, 192.0, 0.0, 0.0, 0.0, 0.0, 0.0, 0.0, 0.0, 0.0, 0.0, 1.654674700465335E9, 0.0, 2022-06-08 09:51:40.465
231.0, 24207.408631731112, 29890.697287404215, -19571.768590422704, -14387.37087099205, 1712.3894944655294, 2666.8313344515964, 11317.179956099983, -2795.59973425862, 0.062, 0.884, 0.512, 192.0, 0.0, 0.0, 0.0, 0.0, 0.0, 0.0, 0.0, 0.0, 0.0, 1.6546747004653394E9, 0.0, 2022-06-08 09:51:40.465
232.0, 24223.390129016654, 29891.904281604802, -19571.58977646706, -14385.158048290974, 1709.5284711752502, 2671.6369595094875, 11318.319895067203, -2750.2256930143467, 0.062, 0.884, 0.512, 192.0, 0.0, 0.0, 0.0, 0.0, 0.0, 0.0, 0.0, 0.0, 0.0, 1.6546747004653437E9, 0.0, 2022-06-08 09:51:40.465
233.0, 24225.35708252872, 29913.853694659912, -19559.229261783275, -14373.825713852135, 1727.2757562727638, 2675.6379217669873, 11371.025308492817, -2761.826248386651, 0.062, 0.884, 0.512, 192.0, 0.0, 0.0, 0.0, 0.0, 0.0, 0.0, 0.0, 0.0, 0.0, 1.6546747004653475E9, 0.0, 2022-06-08 09:51:40.465
234.0, 24224.440661006054, 29929.96930241219, -19545.505290687717, -14362.739248602302, 1738.9880703673448, 2689.9877417072944, 11400.864887340653, -2736.5911288966095, 0.062, 0.884, 0.512, 192.0, 0.0, 0.0, 0.0, 0.0, 0.0, 0.0, 0.0, 0.0, 0.0, 1.6546747004653516E9, 0.0, 2022-06-08 09:51:40.465
235.0, 24229.08982385276, 29921.58739824145, -19540.029113296165, -14359.498245656283, 1743.3466605361295, 2705.6563145704645, 11400.30609372927, -2709.67962857242, 0.062, 0.882, 0.514, 192.0, 1.0, 240.0, 27.0, 144.0, 16.0, 16.0, 0.0, 0.0, 0.0, 1.6546747004653573E9, 0.0, 2022-06-08 09:51:40.465
236.0, 24223.166611572102, 29908.06459284599, -19550.601488423526, -14362.247510224284, 1730.6508696855153, 2695.978009221317, 11379.362509174647, -2723.4259514124337, 0.062, 0.882, 0.514, 192.0, 0.0, 0.0, 0.0, 0.0, 0.0, 0.0, 0.0, 0.0, 0.0, 1.6546747004653614E9, 0.0, 2022-06-08 09:51:40.465
237.0, 24232.710806454517, 29920.134534851855, -19555.518872203695, -14357.978327033321, 1727.6333841840487, 2687.5961050505766, 11383.475230154423, -2752.7290883933415, 0.062, 0.882, 0.514, 192.0, 0.0, 0.0, 0.0, 0.0, 0.0, 0.0, 0.0, 0.0, 0.0, 1.6546747004653654E9, 0.0, 2022-06-08 09:51:40.465
238.0, 24250.435739807577, 29950.59996254444, -19546.801691866123, -14354.491454898294, 1736.3729162660738, 2691.395901607979, 11385.06220401075, -2747.185855768425, 0.062, 0.882, 0.514, 192.0, 0.0, 0.0, 0.0, 0.0, 0.0, 0.0, 0.0, 0.0, 0.0, 1.6546747004653692E9, 0.0, 2022-06-08 09:51:40.465
239.0, 24247.3735508172, 29911.864389403392, -19538.799767351124, -14350.311678685151, 1746.6994222044257, 2705.4327971259117, 11397.243904738893, -2745.442419700911, 0.062, 0.882, 0.514, 192.0, 0.0, 0.0, 0.0, 0.0, 0.0, 0.0, 0.0, 0.0, 0.0, 1.6546747004653735E9, 0.0, 2022-06-08 09:51:40.465
240.0, 24231.213239576013, 29890.719639148672, -19549.19332852284, -14363.074524769132, 1736.305861032708, 2700.0460267121825, 11385.464535410945, -2741.0391260432157, 0.062, 0.882, 0.514, 192.0, 0.0, 0.0, 0.0, 0.0, 0.0, 0.0, 0.0, 0.0, 0.0, 1.6546747004653773E9, 0.0, 2022-06-08 09:51:40.465
241.0, 24211.119021310693, 29880.460188443685, -19572.081514845075, -14394.143449562009, 1719.7432183913254, 2671.9945874207724, 11356.228453663403, -2761.35686175309, 0.062, 0.882, 0.514, 192.0, 0.0, 0.0, 0.0, 0.0, 0.0, 0.0, 0.0, 0.0, 0.0, 1.6546747004653816E9, 0.0, 2022-06-08 09:51:40.465
242.0, 24207.27452126438, 29883.924708834256, -19566.359468264516, -14395.685719929425, 1723.3418492486298, 2663.1432966164707, 11358.284814153292, -2782.278094563257, 0.062, 0.882, 0.514, 192.0, 0.0, 0.0, 0.0, 0.0, 0.0, 0.0, 0.0, 0.0, 0.0, 1.6546747009441419E9, 0.0, 2022-06-08 09:51:40.944
243.0, 24216.99753010244, 29904.86829338888, -19546.33230523256, -14377.714917387357, 1736.0376400992443, 2685.807965494152, 11385.956273788963, -2772.2645130472797, 0.062, 0.882, 0.514, 192.0, 0.0, 0.0, 0.0, 0.0, 0.0, 0.0, 0.0, 0.0, 0.0, 1.6546747009442E9, 0.0, 2022-06-08 09:51:40.944
244.0, 24236.577658245285, 29917.83230517296, -19534.664694626892, -14345.84132979409, 1745.4924280038392, 2714.0829222301154, 11394.472288426434, -2731.4055241829783, 0.062, 0.882, 0.514, 192.0, 0.0, 0.0, 0.0, 0.0, 0.0, 0.0, 0.0, 0.0, 0.0, 1.654674700944348E9, 0.0, 2022-06-08 09:51:40.944
245.0, 24239.55044025784, 29920.559217996506, -19536.072854527578, -14348.344725173083, 1742.497294246828, 2709.389055894501, 11380.524799886323, -2663.389165805479, 0.066, 0.878, 0.52, 192.0, 2.0, 16.0, 27.0, 112.0, 16.0, 64.0, 0.0, 0.0, 0.0, 1.6546747009443524E9, 0.0, 2022-06-08 09:51:40.944
246.0, 24221.736099926962, 29900.73322066465, -19549.61801166749, -14374.339803974606, 1728.1921777954315, 2688.9819132068055, 11370.690032325987, -2688.847802740074, 0.066, 0.878, 0.52, 192.0, 0.0, 0.0, 0.0, 0.0, 0.0, 0.0, 0.0, 0.0, 0.0, 1.6546747009443572E9, 0.0, 2022-06-08 09:51:40.944
247.0, 24209.21912303199, 29877.934441320234, -19557.8658053715, -14384.778068635234, 1719.497349202317, 2673.849782210563, 11369.527741614313, -2725.3034979466797, 0.066, 0.878, 0.52, 192.0, 0.0, 0.0, 0.0, 0.0, 0.0, 0.0, 0.0, 0.0, 0.0, 1.6546747009443617E9, 0.0, 2022-06-08 09:51:40.944
248.0, 24221.55728597132, 29891.30078450451, -19551.428502968374, -14368.282481227217, 1729.5332824627499, 2680.063567169138, 11366.95729100195, -2749.801009869696, 0.066, 0.878, 0.52, 192.0, 0.0, 0.0, 0.0, 0.0, 0.0, 0.0, 0.0, 0.0, 0.0, 1.6546747009443657E9, 0.0, 2022-06-08 09:51:40.944
249.0, 24228.218105819, 29914.47954350466, -19548.902755844923, -14366.762562604257, 1735.5906052101382, 2681.717596258831, 11376.032099250806, -2783.3956817860226, 0.066, 0.878, 0.52, 192.0, 0.0, 0.0, 0.0, 0.0, 0.0, 0.0, 0.0, 0.0, 0.0, 1.65467470094437E9, 0.0, 2022-06-08 09:51:40.944
250.0, 24222.07137609379, 29918.4134505288, -19560.97269785079, -14389.002548337288, 1726.6275556835599, 2679.1471456464706, 11374.735698072398, -2775.2596468042907, 0.066, 0.878, 0.52, 192.0, 0.0, 0.0, 0.0, 0.0, 0.0, 0.0, 0.0, 0.0, 0.0, 1.6546747009443743E9, 0.0, 2022-06-08 09:51:40.944
251.0, 24225.692358695553, 29909.316290535487, -19562.313802518107, -14383.861647112566, 1723.498311459817, 2678.9236282019174, 11367.538436357789, -2738.736896364319, 0.066, 0.878, 0.52, 192.0, 0.0, 0.0, 0.0, 0.0, 0.0, 0.0, 0.0, 0.0, 0.0, 1.6546747009443789E9, 0.0, 2022-06-08 09:51:40.944
252.0, 24231.682626209575, 29901.29201427603, -19563.721962418793, -14376.016184808754, 1728.1921777954315, 2676.867267712029, 11371.427639893012, -2739.1168760200594, 0.066, 0.878, 0.52, 192.0, 0.0, 0.0, 0.0, 0.0, 0.0, 0.0, 0.0, 0.0, 0.0, 1.654674700944383E9, 0.0, 2022-06-08 09:51:40.944
253.0, 24238.656370479628, 29898.028659585558, -19558.022267582688, -14378.407821465473, 1741.0667826016884, 2688.490174828789, 11386.20214297797, -2737.999288797294, 0.066, 0.878, 0.52, 192.0, 0.0, 0.0, 0.0, 0.0, 0.0, 0.0, 0.0, 0.0, 0.0, 1.6546747009443872E9, 0.0, 2022-06-08 09:51:40.944
254.0, 24238.857536179727, 29908.846903901926, -19550.400322723428, -14369.355364961073, 1745.4924280038392, 2692.289971386191, 11393.82408783723, -2737.284032974724, 0.066, 0.878, 0.52, 192.0, 0.0, 0.0, 0.0, 0.0, 0.0, 0.0, 0.0, 0.0, 0.0, 1.6546747009443915E9, 0.0, 2022-06-08 09:51:40.944
255.0, 24232.956675643527, 29916.558255739004, -19553.507215202717, -14369.154199260975, 1743.301957047219, 2688.423119595423, 11386.604474378166, -2749.4657337028666, 0.062, 0.882, 0.52, 192.0, 1.0, 240.0, 27.0, 144.0, 16.0, 64.0, 0.0, 0.0, 0.0, 1.654674700944396E9, 0.0, 2022-06-08 09:51:40.944
0.0, 24210.35906199921, 29898.095714818923, -19566.20300605333, -14381.134734289019, 1730.337945263141, 2674.0509479106604, 11356.161398430038, -2787.776623699263, 0.062, 0.882, 0.52, 192.0, 0.0, 0.0, 0.0, 0.0, 0.0, 0.0, 0.0, 0.0, 0.0, 1.6546747009444072E9, 0.0, 2022-06-08 09:51:40.944
1.0, 24209.263826520903, 29882.96358382268, -19574.137875334964, -14395.059871084675, 1722.0901515591327, 2666.5407617736773, 11333.362619085625, -2804.831004718662, 0.062, 0.882, 0.52, 192.0, 0.0, 0.0, 0.0, 0.0, 0.0, 0.0, 0.0, 0.0, 0.0, 1.6546747009444113E9, 0.0, 2022-06-08 09:51:40.944
2.0, 24225.021806361892, 29901.269662531577, -19566.828854898078, -14383.36990873455, 1730.8743871300683, 2679.996511935772, 11350.953441971951, -2744.9730330673497, 0.062, 0.882, 0.52, 192.0, 0.0, 0.0, 0.0, 0.0, 0.0, 0.0, 0.0, 0.0, 0.0, 1.6546747009444153E9, 0.0, 2022-06-08 09:51:40.944
3.0, 24245.160728116123, 29915.887703405348, -19554.33422974756, -14353.262108953251, 1746.5429599932386, 2699.3307708896127, 11389.689015113, -2704.516375603244, 0.062, 0.882, 0.52, 192.0, 0.0, 0.0, 0.0, 0.0, 0.0, 0.0, 0.0, 0.0, 0.0, 1.6546747009444196E9, 0.0, 2022-06-08 09:51:40.944
4.0, 24248.714655484517, 29917.005290628113, -19549.19332852284, -14363.432152680416, 1747.8170094271911, 2703.10821570256, 11395.276951226826, -2715.2452129417916, 0.062, 0.882, 0.52, 192.0, 0.0, 0.0, 0.0, 0.0, 0.0, 0.0, 0.0, 0.0, 0.0, 1.654674700944424E9, 0.0, 2022-06-08 09:51:40.944
5.0, 24230.296818053346, 29901.023793342567, -19565.845378142047, -14388.488458214815, 1733.5789482091604, 2683.1257561595153, 11386.20214297797, -2758.6970041629083, 0.062, 0.882, 0.52, 192.0, 0.0, 0.0, 0.0, 0.0, 0.0, 0.0, 0.0, 0.0, 0.0, 1.6546747009444277E9, 0.0, 2022-06-08 09:51:40.944
6.0, 24207.408631731112, 29891.837226371437, -19581.335137049573, -14392.265903027763, 1727.5886806951382, 2680.57765729161, 11365.504427612357, -2773.4044520145003, 0.062, 0.882, 0.52, 192.0, 0.0, 0.0, 0.0, 0.0, 0.0, 0.0, 0.0, 0.0, 0.0, 1.6546747009444327E9, 0.0, 2022-06-08 09:51:40.944
7.0, 24205.21816077449, 29897.715735163183, -19575.076648602088, -14404.8499351561, 1728.303936517708, 2688.3784161065123, 11363.269253166825, -2746.5823586681317, 0.062, 0.882, 0.52, 192.0, 0.0, 0.0, 0.0, 0.0, 0.0, 0.0, 0.0, 0.0, 0.0, 1.6546747009444373E9, 0.0, 2022-06-08 09:51:40.944
8.0, 24222.27254179389, 29916.848828416925, -19557.39641873794, -14371.299966728684, 1740.6197477125822, 2702.258849413258, 11397.266256483348, -2704.359913392057, 0.062, 0.882, 0.52, 192.0, 0.0, 0.0, 0.0, 0.0, 0.0, 0.0, 0.0, 0.0, 0.0, 1.6546747009444413E9, 0.0, 2022-06-08 09:51:40.944
9.0, 24234.945980900047, 29914.88187490486, -19551.741427390745, -14363.543911402692, 1742.0502593577219, 2693.452262097867, 11403.837669353208, -2718.9779542658275, 0.07, 0.874, 0.52, 192.0, 2.0, 48.0, 27.0, 80.0, 16.0, 64.0, 0.0, 0.0, 0.0, 1.6546747009444454E9, 0.0, 2022-06-08 09:51:40.944
10.0, 24227.055815107324, 29896.084057817945, -19567.007668853723, -14375.010356308265, 1726.9628318503896, 2682.656369525954, 11384.861038310652, -2738.714544619864, 0.07, 0.874, 0.52, 192.0, 0.0, 0.0, 0.0, 0.0, 0.0, 0.0, 0.0, 0.0, 0.0, 1.6546747009444497E9, 0.0, 2022-06-08 09:51:40.944
11.0, 24218.539800469855, 29886.741028635628, -19583.078573117087, -14396.244513540807, 1718.268003257275, 2675.123831644515, 11369.77361080332, -2781.2052108294024, 0.07, 0.874, 0.52, 192.0, 0.0, 0.0, 0.0, 0.0, 0.0, 0.0, 0.0, 0.0, 0.0, 1.6546747009444537E9, 0.0, 2022-06-08 09:51:40.944
12.0, 24222.294893538347, 29895.882892117846, -19579.01055562622, -14389.337824504117, 1725.4205614829734, 2679.7953462356745, 11374.176904461016, -2772.510382236288, 0.07, 0.874, 0.52, 192.0, 0.0, 0.0, 0.0, 0.0, 0.0, 0.0, 0.0, 0.0, 0.0, 1.6546747009444575E9, 0.0, 2022-06-08 09:51:40.944
13.0, 24250.815719463317, 29930.72926172367, -19557.955212349323, -14370.808228350668, 1742.6761082024705, 2697.3638173775457, 11397.221552994437, -2712.518300118244, 0.07, 0.874, 0.52, 192.0, 0.0, 0.0, 0.0, 0.0, 0.0, 0.0, 0.0, 0.0, 0.0, 1.6546747009444616E9, 0.0, 2022-06-08 09:51:40.944
14.0, 24245.004265904936, 29915.97711038317, -19567.521758976192, -14390.589522193613, 1735.6353086990487, 2680.5106020582443, 11392.818259336742, -2698.9507912338727, 0.07, 0.874, 0.52, 192.0, 0.0, 0.0, 0.0, 0.0, 0.0, 0.0, 0.0, 0.0, 0.0, 1.654674700944466E9, 0.0, 2022-06-08 09:51:40.944
15.0, 24212.59423644474, 29892.73129614965, -19589.001785397744, -14406.436909012427, 1716.7033811454037, 2662.3386338160794, 11356.988412974884, -2732.768980594752, 0.07, 0.874, 0.52, 192.0, 0.0, 0.0, 0.0, 0.0, 0.0, 0.0, 0.0, 0.0, 0.0, 1.65467470094447E9, 0.0, 2022-06-08 09:51:40.944
16.0, 24210.716689910496, 29895.81583688448, -19590.454648787338, -14410.974313136854, 1719.698514902415, 2671.9498839318617, 11351.646346050065, -2776.2431235603244, 0.07, 0.874, 0.52, 192.0, 0.0, 0.0, 0.0, 0.0, 0.0, 0.0, 0.0, 0.0, 0.0, 1.654674700944474E9, 0.0, 2022-06-08 09:51:40.944
17.0, 24225.80411741783, 29904.264796288586, -19582.16215159442, -14421.18906035293, 1734.9647563653896, 2676.0179014227274, 11376.926169029019, -2780.7134724513858, 0.07, 0.874, 0.52, 192.0, 0.0, 0.0, 0.0, 0.0, 0.0, 0.0, 0.0, 0.0, 0.0, 1.654674700944478E9, 0.0, 2022-06-08 09:51:40.944
18.0, 24227.525201740886, 29908.28811029054, -19570.82981715558, -14388.42140298145, 1737.7140209333922, 2669.8041164641522, 11376.322671928725, -2783.1498125970143, 0.066, 0.872, 0.522, 192.0, 2.0, 16.0, 27.0, 64.0, 16.0, 80.0, 0.0, 0.0, 0.0, 1.654674700944482E9, 0.0, 2022-06-08 09:51:40.944
19.0, 24219.21035280351, 29903.43778174374, -19577.0212503697, -14383.839295368112, 1727.6780876729595, 2670.877000198007, 11366.934939257497, -2767.5035914782993, 0.066, 0.872, 0.522, 192.0, 0.0, 0.0, 0.0, 0.0, 0.0, 0.0, 0.0, 0.0, 0.0, 1.6546747009444864E9, 0.0, 2022-06-08 09:51:40.944
20.0, 24219.567980714797, 29904.600072455418, -19588.890026675468, -14401.050138598697, 1719.1173695465768, 2669.6923577418756, 11360.944671743473, -2740.8156085986625, 0.066, 0.872, 0.522, 192.0, 0.0, 0.0, 0.0, 0.0, 0.0, 0.0, 0.0, 0.0, 0.0, 1.654674700944491E9, 0.0, 2022-06-08 09:51:40.944
21.0, 24219.61268420371, 29904.44361024423, -19601.384651825985, -14409.052063113699, 1713.7082473883925, 2665.9149129289285, 11347.86890123712, -2729.840902071107, 0.066, 0.872, 0.522, 192.0, 0.0, 0.0, 0.0, 0.0, 0.0, 0.0, 0.0, 0.0, 0.0, 1.6546747009444947E9, 0.0, 2022-06-08 09:51:40.944
22.0, 24218.897428381137, 29882.516548933574, -19602.54694253766, -14409.275580558251, 1715.5187386892724, 2663.746793716764, 11351.847511750164, -2753.265530260269, 0.066, 0.872, 0.522, 192.0, 0.0, 0.0, 0.0, 0.0, 0.0, 0.0, 0.0, 0.0, 0.0, 1.6546747009445007E9, 0.0, 2022-06-08 09:51:40.944
23.0, 24228.329864541276, 29892.954813594202, -19591.706346476836, -14405.051100856197, 1728.885081873546, 2676.3084741006464, 11361.928148499508, -2754.1819517829363, 0.066, 0.872, 0.522, 192.0, 0.0, 0.0, 0.0, 0.0, 0.0, 0.0, 0.0, 0.0, 0.0, 1.6546747009445047E9, 0.0, 2022-06-08 09:51:40.944
24.0, 24225.290027295356, 29896.486389218142, -19589.940558664868, -14402.055967099186, 1734.3836110095515, 2676.844915967574, 11364.275081667314, -2772.1080508360924, 0.066, 0.872, 0.522, 192.0, 0.0, 0.0, 0.0, 0.0, 0.0, 0.0, 0.0, 0.0, 0.0, 1.6546747009445088E9, 0.0, 2022-06-08 09:51:40.944
25.0, 24211.78957364435, 29888.484464703142, -19595.372032567506, -14433.929554692455, 1725.241747527331, 2667.256017596247, 11359.022421720318, -2808.407283831511, 0.066, 0.872, 0.522, 192.0, 0.0, 0.0, 0.0, 0.0, 0.0, 0.0, 0.0, 0.0, 0.0, 1.654674700944513E9, 0.0, 2022-06-08 09:51:40.944
26.0, 24209.420288732086, 29895.704078162205, -19598.34481458006, -14402.793574666211, 1723.498311459817, 2666.2725408402134, 11371.29352942628, -2769.515248479277, 0.066, 0.872, 0.522, 192.0, 0.0, 0.0, 0.0, 0.0, 0.0, 0.0, 0.0, 0.0, 0.0, 1.654674700944517E9, 0.0, 2022-06-08 09:51:40.944
27.0, 24228.307512796822, 29912.087906847944, -19593.427430799893, -14377.424344709438, 1731.2096632968978, 2673.2462851102696, 11378.803715563265, -2719.1120647325597, 0.066, 0.872, 0.522, 192.0, 0.0, 0.0, 0.0, 0.0, 0.0, 0.0, 0.0, 0.0, 0.0, 1.654674700944521E9, 0.0, 2022-06-08 09:51:40.944
28.0, 24236.152975100635, 29910.076249846967, -19588.577102253093, -14389.002548337288, 1733.5789482091604, 2676.800212478663, 11375.339195172692, -2728.3880386815117, 0.064, 0.874, 0.526, 192.0, 2.0, 0.0, 27.0, 80.0, 16.0, 112.0, 0.0, 0.0, 0.0, 1.654674700944525E9, 0.0, 2022-06-08 09:51:40.944
29.0, 24226.69818719604, 29899.883854375348, -19593.315672077617, -14395.573961207148, 1725.7334859053476, 2667.747755974264, 11354.44031410698, -2757.512361706777, 0.064, 0.874, 0.526, 192.0, 0.0, 0.0, 0.0, 0.0, 0.0, 0.0, 0.0, 0.0, 0.0, 1.6546747009445293E9, 0.0, 2022-06-08 09:51:40.944
30.0, 24222.65252144963, 29897.44751422972, -19602.30107334865, -14405.744004934313, 1714.62466891106, 2669.1559158749483, 11312.463738019913, -2797.6784464929638, 0.064, 0.874, 0.526, 192.0, 0.0, 0.0, 0.0, 0.0, 0.0, 0.0, 0.0, 0.0, 0.0, 1.6546747009445333E9, 0.0, 2022-06-08 09:51:40.944
31.0, 24223.054852849826, 29898.766267152583, -19601.742279737267, -14409.521449747259, 1713.4847299438395, 2673.4698025548223, 11304.931200138475, -2821.728923526874, 0.064, 0.874, 0.526, 192.0, 0.0, 0.0, 0.0, 0.0, 0.0, 0.0, 0.0, 0.0, 0.0, 1.6546747009445384E9, 0.0, 2022-06-08 09:51:40.944
32.0, 24227.70401569653, 29905.650604444818, -19587.817142941614, -14402.167725821464, 1728.2145295398868, 2673.581561277099, 11360.050601965262, -2768.867047890073, 0.064, 0.874, 0.526, 192.0, 0.0, 0.0, 0.0, 0.0, 0.0, 0.0, 0.0, 0.0, 0.0, 1.6546747009445431E9, 0.0, 2022-06-08 09:51:40.944
33.0, 24216.282274279867, 29917.139401094842, -19576.01542186921, -14388.779030892734, 1740.8432651571352, 2676.9119712009397, 11405.759919376365, -2729.416218926456, 0.064, 0.874, 0.526, 192.0, 0.0, 0.0, 0.0, 0.0, 0.0, 0.0, 0.0, 0.0, 0.0, 1.6546747009445477E9, 0.0, 2022-06-08 09:51:40.944
34.0, 24221.378472015676, 29913.361956281897, -19576.59656722505, -14401.608932210082, 1737.4905034888393, 2675.2802938557024, 11418.79098639381, -2754.7630971387744, 0.064, 0.874, 0.526, 192.0, 0.0, 0.0, 0.0, 0.0, 0.0, 0.0, 0.0, 0.0, 0.0, 1.6546747009445517E9, 0.0, 2022-06-08 09:51:40.944
35.0, 24231.213239576013, 29915.30655804951, -19581.402192282938, -14414.148260849508, 1732.9083958755014, 2670.899351942462, 11400.820183851742, -2777.316007294179, 0.064, 0.874, 0.526, 192.0, 0.0, 0.0, 0.0, 0.0, 0.0, 0.0, 0.0, 0.0, 0.0, 1.654674700944556E9, 0.0, 2022-06-08 09:51:40.944
36.0, 24231.3697017872, 29905.82941840046, -19589.202951097843, -14401.430118254439, 1723.5430149487277, 2673.223933365814, 11379.742488830387, -2744.1460185225033, 0.064, 0.874, 0.526, 192.0, 0.0, 0.0, 0.0, 0.0, 0.0, 0.0, 0.0, 0.0, 0.0, 1.65467470094456E9, 0.0, 2022-06-08 09:51:40.944
37.0, 24226.22880056248, 29899.34741250842, -19585.805485940637, -14380.151257532985, 1724.4147329824846, 2675.414404322434, 11373.77457306082, -2708.4055791384676, 0.064, 0.874, 0.526, 192.0, 0.0, 0.0, 0.0, 0.0, 0.0, 0.0, 0.0, 0.0, 0.0, 1.6546747009445643E9, 0.0, 2022-06-08 09:51:40.944
38.0, 24236.197678589546, 29912.15496208131, -19575.434276513373, -14380.08420229962, 1734.6741836874705, 2681.8517067255625, 11374.243959694382, -2728.566852637154, 0.064, 0.876, 0.524, 192.0, 2.0, 0.0, 27.0, 96.0, 16.0, 96.0, 0.0, 0.0, 0.0, 1.6546747009445689E9, 0.0, 2022-06-08 09:51:40.944
39.0, 24237.024693134394, 29920.179238340766, -19577.244767814253, -14396.51273447427, 1731.2096632968978, 2675.4814595558, 11370.600625348166, -2781.384024785045, 0.064, 0.876, 0.524, 192.0, 0.0, 0.0, 0.0, 0.0, 0.0, 0.0, 0.0, 0.0, 0.0, 1.654674700944573E9, 0.0, 2022-06-08 09:51:40.944
40.0, 24225.22297206199, 29898.721563663672, -19590.767573209712, -14416.182269594941, 1712.8365293546356, 2652.8838459114845, 11350.618165805123, -2824.0982084391367, 0.064, 0.876, 0.524, 192.0, 0.0, 0.0, 0.0, 0.0, 0.0, 0.0, 0.0, 0.0, 0.0, 1.6546747009445772E9, 0.0, 2022-06-08 09:51:40.944
41.0, 24241.629152492187, 29902.09667707642, -19590.20877959833, -14403.397071766505, 1714.4458549554176, 2663.009186149739, 11349.455875093447, -2766.4977629778105, 0.064, 0.876, 0.524, 192.0, 0.0, 0.0, 0.0, 0.0, 0.0, 0.0, 0.0, 0.0, 0.0, 1.6546747009445815E9, 0.0, 2022-06-08 09:51:40.944
42.0, 24227.256980807422, 29917.877008661868, -19591.16990460991, -14394.501077473293, 1717.306878245697, 2666.965444918328, 11348.964136715429, -2737.664012630464, 0.064, 0.876, 0.524, 192.0, 0.0, 0.0, 0.0, 0.0, 0.0, 0.0, 0.0, 0.0, 0.0, 1.654674700944586E9, 0.0, 2022-06-08 09:51:40.944
43.0, 24228.955713386025, 29931.98095941317, -19572.34973577854, -14384.040461068209, 1735.0094598543, 2688.19960215087, 11382.089421998195, -2720.453169399878, 0.064, 0.876, 0.524, 192.0, 0.0, 0.0, 0.0, 0.0, 0.0, 0.0, 0.0, 0.0, 0.0, 1.654674700944595E9, 0.0, 2022-06-08 09:51:40.944
44.0, 24217.444564991543, 29913.361956281897, -19573.333212534573, -14386.745022147301, 1730.5838144521492, 2674.6320932664985, 11382.000015020372, -2760.6192541860646, 0.064, 0.876, 0.524, 192.0, 0.0, 0.0, 0.0, 0.0, 0.0, 0.0, 0.0, 0.0, 0.0, 1.6546747009445992E9, 0.0, 2022-06-08 09:51:40.944
45.0, 24213.22008528949, 29904.935348622246, -19591.34871856555, -14405.922818889954, 1716.5692706786717, 2648.815828420619, 11358.575386831211, -2827.763894529807, 0.064, 0.876, 0.524, 192.0, 0.0, 0.0, 0.0, 0.0, 0.0, 0.0, 0.0, 0.0, 0.0, 1.6546747009446032E9, 0.0, 2022-06-08 09:51:40.944
46.0, 24230.028597119883, 29937.524192038083, -19594.03092790019, -14413.030673626743, 1720.1902532804315, 2656.1024971130487, 11343.800883746253, -2830.0437724642484, 0.064, 0.876, 0.524, 192.0, 0.0, 0.0, 0.0, 0.0, 0.0, 0.0, 0.0, 0.0, 0.0, 1.6546747009446075E9, 0.0, 2022-06-08 09:51:40.944
47.0, 24240.4221582916, 29939.9158286948, -19580.93280564938, -14386.119173302553, 1734.271852287275, 2676.6213985230206, 11360.341174643181, -2740.346221965101, 0.064, 0.876, 0.524, 192.0, 0.0, 0.0, 0.0, 0.0, 0.0, 0.0, 0.0, 0.0, 0.0, 1.6546747009446113E9, 0.0, 2022-06-08 09:51:40.944
48.0, 24252.33563808628, 29919.68749996275, -19569.98045086628, -14377.200827264885, 1743.2349018138532, 2690.323017874124, 11381.35181443117, -2652.392107533468, 0.064, 0.87, 0.52, 192.0, 2.0, 0.0, 27.0, 48.0, 16.0, 64.0, 0.0, 0.0, 0.0, 1.6546747009446156E9, 0.0, 2022-06-08 09:51:40.944
49.0, 24249.206393862536, 29910.232712058154, -19572.841474156558, -14381.201789522385, 1737.4457999999286, 2675.548514789166, 11383.989320276896, -2721.190776966903, 0.064, 0.87, 0.52, 192.0, 0.0, 0.0, 0.0, 0.0, 0.0, 0.0, 0.0, 0.0, 0.0, 1.65467470094462E9, 0.0, 2022-06-08 09:51:40.944
50.0, 24234.342483799755, 29907.706964934703, -19584.1738085954, -14387.303815758683, 1723.1853870374428, 2660.6175494930208, 11364.319785156225, -2768.30825427869, 0.064, 0.87, 0.52, 192.0, 0.0, 0.0, 0.0, 0.0, 0.0, 0.0, 0.0, 0.0, 0.0, 1.654674700944624E9, 0.0, 2022-06-08 09:51:40.944
51.0, 24233.470765766, 29914.72541269367, -19591.7734017102, -14390.880094871532, 1715.6752009004595, 2661.2657500822247, 11352.026325705807, -2772.9797688698495, 0.064, 0.87, 0.52, 192.0, 0.0, 0.0, 0.0, 0.0, 0.0, 0.0, 0.0, 0.0, 0.0, 1.6546747009446282E9, 0.0, 2022-06-08 09:51:40.944
52.0, 24251.598030519253, 29940.78754672856, -19586.00665164073, -14389.114307059564, 1727.7004394174148, 2671.0558141536494, 11359.402401376057, -2755.478352961344, 0.064, 0.87, 0.52, 192.0, 0.0, 0.0, 0.0, 0.0, 0.0, 0.0, 0.0, 0.0, 0.0, 1.6546747009446323E9, 0.0, 2022-06-08 09:51:40.944
53.0, 24277.86133025424, 29954.93620096877, -19573.512026490214, -14387.393222736506, 1746.3864977820515, 2681.5611340476435, 11378.289625440791, -2743.0284312997383, 0.064, 0.87, 0.52, 192.0, 0.0, 0.0, 0.0, 0.0, 0.0, 0.0, 0.0, 0.0, 0.0, 1.6546747009446363E9, 0.0, 2022-06-08 09:51:40.944
54.0, 24262.863309724726, 29911.797334170027, -19578.272948059195, -14384.621606424047, 1734.8082941542023, 2671.614607765032, 11362.643404322078, -2762.9885390983272, 0.064, 0.87, 0.52, 192.0, 0.0, 0.0, 0.0, 0.0, 0.0, 0.0, 0.0, 0.0, 0.0, 1.6546747009446404E9, 0.0, 2022-06-08 09:51:40.944
55.0, 24246.79240546136, 29909.3609940244, -19585.40315454044, -14393.22702803934, 1723.0065730818003, 2662.137468115982, 11331.440369062468, -2767.1459635670144, 0.064, 0.87, 0.52, 192.0, 0.0, 0.0, 0.0, 0.0, 0.0, 0.0, 0.0, 0.0, 0.0, 1.6546747009446445E9, 0.0, 2022-06-08 09:51:40.944
56.0, 24218.18217255857, 29924.716642465195, -19582.095096361052, -14402.391243266016, 1724.8394161271353, 2655.4766482683003, 11347.913604726029, -2784.8485451756173, 0.064, 0.87, 0.52, 192.0, 0.0, 0.0, 0.0, 0.0, 0.0, 0.0, 0.0, 0.0, 0.0, 1.6546747009446485E9, 0.0, 2022-06-08 09:51:40.944
57.0, 24216.908123124616, 29926.39302329934, -19580.530474249183, -14390.65657742698, 1729.0862475736437, 2653.3979360339567, 11376.121506228626, -2777.316007294179, 0.064, 0.87, 0.52, 192.0, 0.0, 0.0, 0.0, 0.0, 0.0, 0.0, 0.0, 0.0, 0.0, 1.6546747009446528E9, 0.0, 2022-06-08 09:51:40.944
58.0, 24248.915821184615, 29923.68846222025, -19565.755971164224, -14380.017147066254, 1738.786904667247, 2681.0470439251717, 11368.34309915818, -2745.7553441232853, 0.064, 0.872, 0.516, 192.0, 2.0, 0.0, 27.0, 64.0, 16.0, 32.0, 0.0, 0.0, 0.0, 1.6546747009446568E9, 0.0, 2022-06-08 09:51:40.944
59.0, 24237.18115534558, 29916.29003480554, -19575.747200935748, -14390.097783815598, 1730.561462707694, 2675.0120729222385, 11355.379087374102, -2777.450117760911, 0.064, 0.872, 0.516, 192.0, 0.0, 0.0, 0.0, 0.0, 0.0, 0.0, 0.0, 0.0, 0.0, 1.654674700944661E9, 0.0, 2022-06-08 09:51:40.944
60.0, 24221.44552724904, 29908.1092963349, -19588.778267953192, -14393.718766417358, 1721.665468414482, 2666.093726884571, 11373.484000382901, -2811.581231544165, 0.064, 0.872, 0.516, 192.0, 0.0, 0.0, 0.0, 0.0, 0.0, 0.0, 0.0, 0.0, 0.0, 1.654674700944665E9, 0.0, 2022-06-08 09:51:40.944
61.0, 24221.289065037858, 29919.73220345166, -19594.299148833652, -14402.27948454374, 1715.138759033532, 2663.612683250032, 11368.745430558376, -2812.0953216666367, 0.064, 0.872, 0.516, 192.0, 0.0, 0.0, 0.0, 0.0, 0.0, 0.0, 0.0, 0.0, 0.0, 1.6546747009446692E9, 0.0, 2022-06-08 09:51:40.944
62.0, 24229.358044786222, 29922.34735755293, -19587.861846430522, -14400.267827542762, 1720.7043434029035, 2662.9421309163727, 11370.198293947971, -2782.568667241176, 0.064, 0.872, 0.516, 192.0, 0.0, 0.0, 0.0, 0.0, 0.0, 0.0, 0.0, 0.0, 0.0, 1.6546747009446735E9, 0.0, 2022-06-08 09:51:40.944
63.0, 24230.408576775622, 29913.697232448725, -19569.35460202153, -14377.737269131812, 1737.177579066465, 2684.355102104557, 11389.174924990526, -2700.0460267121825, 0.064, 0.872, 0.516, 192.0, 0.0, 0.0, 0.0, 0.0, 0.0, 0.0, 0.0, 0.0, 0.0, 1.6546747009446776E9, 0.0, 2022-06-08 09:51:40.944
64.0, 24231.727329698486, 29906.589377711938, -19575.702497446837, -14389.695452415403, 1733.042506342233, 2678.1413171459817, 11377.39555566258, -2717.1451112204923, 0.064, 0.872, 0.516, 192.0, 0.0, 0.0, 0.0, 0.0, 0.0, 0.0, 0.0, 0.0, 0.0, 1.6546747009446852E9, 0.0, 2022-06-08 09:51:40.944
65.0, 24226.78759417386, 29903.482485232653, -19591.013442398722, -14409.297932302707, 1721.8442823701243, 2669.4241368084117, 11358.06129670874, -2738.6921928754086, 0.064, 0.872, 0.516, 192.0, 0.0, 0.0, 0.0, 0.0, 0.0, 0.0, 0.0, 0.0, 0.0, 1.6546747009446893E9, 0.0, 2022-06-08 09:51:40.944
66.0, 24221.199658060035, 29909.78567716905, -19597.98718666878, -14413.634170727037, 1714.0211718107669, 2664.484401283789, 11351.735753027888, -2753.7572686382855, 0.064, 0.872, 0.516, 192.0, 0.0, 0.0, 0.0, 0.0, 0.0, 0.0, 0.0, 0.0, 0.0, 1.654674700944693E9, 0.0, 2022-06-08 09:51:40.944
67.0, 24231.481460509476, 29911.551464981017, -19590.856980187535, -14392.556475705682, 1723.3642009930852, 2673.849782210563, 11364.118619456127, -2764.9554926103942, 0.064, 0.872, 0.516, 192.0, 0.0, 0.0, 0.0, 0.0, 0.0, 0.0, 0.0, 0.0, 0.0, 1.6546747009446971E9, 0.0, 2022-06-08 09:51:40.944
68.0, 24238.768129201908, 29918.614616228893, -19589.11354412002, -14393.60700769508, 1729.5332824627499, 2675.2132386223366, 11369.974776503417, -2773.672672947964, 0.062, 0.87, 0.514, 192.0, 1.0, 240.0, 27.0, 48.0, 16.0, 16.0, 0.0, 0.0, 0.0, 1.6546747009447014E9, 0.0, 2022-06-08 09:51:40.944
69.0, 24234.85657392223, 29921.67680521927, -19593.561541266627, -14407.062757857175, 1729.980317351856, 2667.8148112076296, 11368.611320091644, -2802.0817401506592, 0.062, 0.87, 0.514, 192.0, 0.0, 0.0, 0.0, 0.0, 0.0, 0.0, 0.0, 0.0, 0.0, 1.6546747009447055E9, 0.0, 2022-06-08 09:51:40.944
70.0, 24220.864381893207, 29912.311424292497, -19606.816125728623, -14419.400920796505, 1719.072666057666, 2659.81288669263, 11366.376145646114, -2814.2634408788017, 0.062, 0.87, 0.514, 192.0, 0.0, 0.0, 0.0, 0.0, 0.0, 0.0, 0.0, 0.0, 0.0, 1.6546747009447095E9, 0.0, 2022-06-08 09:51:40.944
71.0, 24218.83037314777, 29905.20356955571, -19612.001730442254, -14412.740100948824, 1708.7685118637696, 2655.4990000127555, 11356.72019204142, -2821.438350848955, 0.062, 0.87, 0.514, 192.0, 0.0, 0.0, 0.0, 0.0, 0.0, 0.0, 0.0, 0.0, 0.0, 1.654674700944714E9, 0.0, 2022-06-08 09:51:40.944
72.0, 24233.113137854714, 29919.19576158473, -19605.050337916655, -14400.379586265039, 1718.7150381463812, 2665.691395484376, 11360.274119409814, -2775.393757271023, 0.062, 0.87, 0.514, 192.0, 0.0, 0.0, 0.0, 0.0, 0.0, 0.0, 0.0, 0.0, 0.0, 1.654674700944718E9, 0.0, 2022-06-08 09:51:40.944
73.0, 24244.870155438206, 29935.154907125823, -19589.73939296477, -14386.923836102944, 1733.8695208870795, 2680.1753258914146, 11371.807619548754, -2716.25104144228, 0.062, 0.87, 0.514, 192.0, 0.0, 0.0, 0.0, 0.0, 0.0, 0.0, 0.0, 0.0, 0.0, 1.6546747009447224E9, 0.0, 2022-06-08 09:51:40.944
74.0, 24238.298742568346, 29924.895456420836, -19584.129105106487, -14390.9471501049, 1735.5235499767723, 2680.0859189135936, 11364.118619456127, -2731.807855583174, 0.062, 0.87, 0.514, 192.0, 0.0, 0.0, 0.0, 0.0, 0.0, 0.0, 0.0, 0.0, 0.0, 1.6546747009447265E9, 0.0, 2022-06-08 09:51:40.944
75.0, 24221.13260282667, 29911.417354514284, -19602.390480326474, -14409.633208469537, 1723.3865527375403, 2664.640863494976, 11342.146854656561, -2767.0789083336485, 0.062, 0.87, 0.514, 192.0, 0.0, 0.0, 0.0, 0.0, 0.0, 0.0, 0.0, 0.0, 0.0, 1.6546747009447308E9, 0.0, 2022-06-08 09:51:40.944
76.0, 24220.84203014875, 29905.807066656005, -19610.280646119198, -14416.718711461868, 1718.3574102350963, 2660.259921581736, 11364.476247367413, -2746.8505796015957, 0.062, 0.87, 0.514, 192.0, 0.0, 0.0, 0.0, 0.0, 0.0, 0.0, 0.0, 0.0, 0.0, 1.6546747009447348E9, 0.0, 2022-06-08 09:51:40.944
77.0, 24233.023730876892, 29928.82936344497, -19597.584855268582, -14399.306702531185, 1728.3262882621634, 2683.7292532598085, 11390.694843613488, -2729.170349737448, 0.062, 0.87, 0.514, 192.0, 0.0, 0.0, 0.0, 0.0, 0.0, 0.0, 0.0, 0.0, 0.0, 1.6546747009447389E9, 0.0, 2022-06-08 09:51:40.944
78.0, 24240.399806547142, 29929.58932275645, -19589.806448198135, -14392.265903027763, 1733.690706931437, 2687.216125394836, 11389.890180813096, -2755.3889459835227, 0.064, 0.878, 0.51, 192.0, 2.0, 0.0, 27.0, 112.0, 15.0, 240.0, 0.0, 0.0, 0.0, 1.6546747009447434E9, 0.0, 2022-06-08 09:51:40.944
79.0, 24245.116024627212, 29936.764232726604, -19590.946387165357, -14386.789725636212, 1730.3826487520516, 2678.9236282019174, 11376.97087251793, -2756.6853471619306, 0.064, 0.878, 0.51, 192.0, 0.0, 0.0, 0.0, 0.0, 0.0, 0.0, 0.0, 0.0, 0.0, 1.6546747009447477E9, 0.0, 2022-06-08 09:51:40.944
80.0, 24225.78176567337, 29924.314311064998, -19608.26898911822, -14417.121042862063, 1711.5848316651384, 2661.8915989269735, 11360.519988598822, -2768.1070885785925, 0.064, 0.878, 0.51, 192.0, 0.0, 0.0, 0.0, 0.0, 0.0, 0.0, 0.0, 0.0, 0.0, 1.6546747009447515E9, 0.0, 2022-06-08 09:51:40.944
81.0, 24222.27254179389, 29922.570874997484, -19618.036701445188, -14418.99858939631, 1708.0756077856552, 2651.4980377552556, 11357.614261819634, -2794.2362778468464, 0.064, 0.878, 0.51, 192.0, 0.0, 0.0, 0.0, 0.0, 0.0, 0.0, 0.0, 0.0, 0.0, 1.6546747009447556E9, 0.0, 2022-06-08 09:51:40.944
82.0, 24229.022768619394, 29917.228808072665, -19613.34283510957, -14415.198792838908, 1714.1999857664093, 2662.4056890494453, 11368.767782302832, -2782.6580742189976, 0.064, 0.878, 0.51, 192.0, 0.0, 0.0, 0.0, 0.0, 0.0, 0.0, 0.0, 0.0, 0.0, 1.65467470094476E9, 0.0, 2022-06-08 09:51:40.944
83.0, 24234.498946010943, 29909.942139380237, -19604.335082094083, -14417.165746350975, 1720.1679015359762, 2673.805078721652, 11373.528703871812, -2768.934103123439, 0.064, 0.878, 0.51, 192.0, 0.0, 0.0, 0.0, 0.0, 0.0, 0.0, 0.0, 0.0, 0.0, 1.654674700944764E9, 0.0, 2022-06-08 09:51:40.944
84.0, 24225.446489506543, 29905.00240385561, -19598.34481458006, -14395.886885629521, 1719.0950178021214, 2663.2774070832024, 11378.960177774452, -2749.130457536037, 0.064, 0.878, 0.51, 192.0, 0.0, 0.0, 0.0, 0.0, 0.0, 0.0, 0.0, 0.0, 0.0, 1.654674700944768E9, 0.0, 2022-06-08 09:51:40.944
85.0, 24211.83427713326, 29902.34254626543, -19616.896762477965, -14413.321246304662, 1697.8608605695797, 2647.5864824755768, 11357.033116463796, -2764.2625885322796, 0.064, 0.878, 0.51, 192.0, 0.0, 0.0, 0.0, 0.0, 0.0, 0.0, 0.0, 0.0, 0.0, 1.6546747009447725E9, 0.0, 2022-06-08 09:51:40.944
86.0, 24215.097631823737, 29926.281264577065, -19614.303960121153, -14420.607914997092, 1699.201965236898, 2652.7273837002977, 11351.735753027888, -2783.6862544639416, 0.064, 0.878, 0.51, 192.0, 0.0, 0.0, 0.0, 0.0, 0.0, 0.0, 0.0, 0.0, 0.0, 1.6546747009447803E9, 0.0, 2022-06-08 09:51:40.944
87.0, 24216.32697776878, 29922.414412786296, -19607.7772507402, -14422.731330720346, 1706.4215786959624, 2655.387241290479, 11354.77559027381, -2791.2187923453803, 0.064, 0.878, 0.51, 192.0, 0.0, 0.0, 0.0, 0.0, 0.0, 0.0, 0.0, 0.0, 0.0, 1.654674700944795E9, 0.0, 2022-06-08 09:51:40.944
88.0, 24217.84689639174, 29924.82840118747, -19600.22236111431, -14399.351406020094, 1711.428369453951, 2659.9246454149065, 11365.035040978795, -2772.420975258467, 0.06, 0.88, 0.518, 192.0, 1.0, 224.0, 27.0, 128.0, 16.0, 48.0, 0.0, 0.0, 0.0, 1.6546747009447987E9, 0.0, 2022-06-08 09:51:40.944
89.0, 24224.99945461744, 29930.528096023572, -19611.599399042057, -14394.545780962204, 1706.0639507846774, 2656.19190409087, 11354.328555384704, -2773.963245625883, 0.06, 0.88, 0.518, 192.0, 0.0, 0.0, 0.0, 0.0, 0.0, 0.0, 0.0, 0.0, 0.0, 1.6546747009448032E9, 0.0, 2022-06-08 09:51:40.944
90.0, 24230.49798375344, 29913.093735348433, -19617.92494272291, -14413.23183932684, 1697.7043983583926, 2649.754601687742, 11334.01081967483, -2785.899077165017, 0.06, 0.88, 0.518, 192.0, 0.0, 0.0, 0.0, 0.0, 0.0, 0.0, 0.0, 0.0, 0.0, 1.6546747009448073E9, 0.0, 2022-06-08 09:51:40.944
91.0, 24230.207411075524, 29900.844979386926, -19623.758748025746, -14423.066606887176, 1687.3555406755854, 2645.261901052225, 11317.023493888795, -2803.5569552847096, 0.06, 0.88, 0.518, 192.0, 0.0, 0.0, 0.0, 0.0, 0.0, 0.0, 0.0, 0.0, 0.0, 1.6546747009448116E9, 0.0, 2022-06-08 09:51:40.944
92.0, 24239.773957702397, 29921.69915696373, -19614.683939776893, -14405.94517063441, 1705.013418795278, 2654.00143313425, 11329.696932994955, -2781.316969551679, 0.06, 0.88, 0.518, 192.0, 0.0, 0.0, 0.0, 0.0, 0.0, 0.0, 0.0, 0.0, 0.0, 1.654674700944816E9, 0.0, 2022-06-08 09:51:40.944
93.0, 24239.818661191304, 29941.301636851033, -19602.390480326474, -14384.956882590877, 1723.4089044819957, 2668.328901330102, 11353.479189095402, -2754.606634927587, 0.06, 0.88, 0.518, 192.0, 0.0, 0.0, 0.0, 0.0, 0.0, 0.0, 0.0, 0.0, 0.0, 1.6546747009448197E9, 0.0, 2022-06-08 09:51:40.944
94.0, 24231.70497795403, 29930.461040790207, -19611.822916486613, -14394.165801306464, 1713.0600467991885, 2662.092764627071, 11354.507369340345, -2799.444234304933, 0.06, 0.88, 0.518, 192.0, 0.0, 0.0, 0.0, 0.0, 0.0, 0.0, 0.0, 0.0, 0.0, 1.654674700944824E9, 0.0, 2022-06-08 09:51:40.944
95.0, 24240.4221582916, 29923.39788954233, -19620.31657937963, -14401.608932210082, 1710.6684101424707, 2657.577712247099, 11359.067125209229, -2777.1371933385367, 0.06, 0.88, 0.518, 192.0, 0.0, 0.0, 0.0, 0.0, 0.0, 0.0, 0.0, 0.0, 0.0, 1.654674700944832E9, 0.0, 2022-06-08 09:51:40.944
96.0, 24241.98678040347, 29923.77786919807, -19613.253428131753, -14393.897580372999, 1717.1727677789652, 2665.691395484376, 11385.196314477482, -2725.929346791428, 0.06, 0.88, 0.518, 192.0, 0.0, 0.0, 0.0, 0.0, 0.0, 0.0, 0.0, 0.0, 0.0, 1.654674700944836E9, 0.0, 2022-06-08 09:51:40.944
97.0, 24227.27933255188, 29948.320084609997, -19614.77334675471, -14390.880094871532, 1712.3224392321636, 2672.0616426541383, 11362.710459555443, -2719.15676822147, 0.058, 0.884, 0.52, 192.0, 1.0, 208.0, 27.0, 160.0, 16.0, 64.0, 0.0, 0.0, 0.0, 1.6546747009448402E9, 0.0, 2022-06-08 09:51:40.944
98.0, 24243.350236815244, 29967.140253441365, -19587.951253408344, -14359.297079956184, 1733.8024656537136, 2694.5698493206323, 11377.999052762872, -2711.199547195381, 0.058, 0.884, 0.52, 192.0, 0.0, 0.0, 0.0, 0.0, 0.0, 0.0, 0.0, 0.0, 0.0, 1.6546747009448442E9, 0.0, 2022-06-08 09:51:40.944
99.0, 24238.70107396854, 29923.040261631046, -19597.31663433512, -14376.731440631323, 1734.0930383316324, 2674.0285961662053, 11384.078727254717, -2719.2461751992914, 0.058, 0.884, 0.52, 192.0, 0.0, 0.0, 0.0, 0.0, 0.0, 0.0, 0.0, 0.0, 0.0, 1.6546747009448483E9, 0.0, 2022-06-08 09:51:40.944
100.0, 24230.833259920273, 29918.122877850878, -19613.83457348759, -14390.32130126015, 1721.7995788812136, 2668.3065495856467, 11361.928148499508, -2739.4074486979785, 0.058, 0.884, 0.52, 192.0, 0.0, 0.0, 0.0, 0.0, 0.0, 0.0, 0.0, 0.0, 0.0, 1.6546747009448524E9, 0.0, 2022-06-08 09:51:40.944
101.0, 24227.189925574057, 29932.897380935836, -19620.271875890718, -14401.586580465626, 1718.4468172129175, 2672.1063461430485, 11378.960177774452, -2778.746518939319, 0.058, 0.884, 0.52, 192.0, 0.0, 0.0, 0.0, 0.0, 0.0, 0.0, 0.0, 0.0, 0.0, 1.654674700944857E9, 0.0, 2022-06-08 09:51:40.944
102.0, 24233.738986699464, 29930.393985556842, -19616.963817711334, -14400.714862431869, 1719.2961835022193, 2669.67000599742, 11393.913494815051, -2812.6541152780196, 0.058, 0.884, 0.52, 192.0, 0.0, 0.0, 0.0, 0.0, 0.0, 0.0, 0.0, 0.0, 0.0, 1.6546747009448607E9, 0.0, 2022-06-08 09:51:40.944
103.0, 24236.55530650083, 29922.593226741938, -19610.951198452854, -14408.582676480137, 1719.6538114135042, 2668.641825752476, 11391.477154669423, -2802.439368061944, 0.058, 0.884, 0.52, 192.0, 0.0, 0.0, 0.0, 0.0, 0.0, 0.0, 0.0, 0.0, 0.0, 1.6546747009448647E9, 0.0, 2022-06-08 09:51:40.944
104.0, 24235.79534718935, 29926.77300295508, -19601.83168671509, -14401.430118254439, 1728.6839161734483, 2679.772994491219, 11394.338177959702, -2749.8904168475174, 0.058, 0.884, 0.52, 192.0, 0.0, 0.0, 0.0, 0.0, 0.0, 0.0, 0.0, 0.0, 0.0, 1.6546747009448688E9, 0.0, 2022-06-08 09:51:40.944
105.0, 24231.593219231752, 29921.341529052443, -19615.01921594372, -14407.286275301729, 1712.2777357432528, 2664.0820698835937, 11367.225511935416, -2757.288844262224, 0.058, 0.884, 0.52, 192.0, 0.0, 0.0, 0.0, 0.0, 0.0, 0.0, 0.0, 0.0, 0.0, 1.654674700944873E9, 0.0, 2022-06-08 09:51:40.944
106.0, 24229.715672697508, 29910.567988224982, -19625.479832348807, -14416.8528219286, 1702.62178213856, 2658.0247471362054, 11339.710514510933, -2750.7844866257296, 0.058, 0.884, 0.52, 192.0, 0.0, 0.0, 0.0, 0.0, 0.0, 0.0, 0.0, 0.0, 0.0, 1.6546747014246488E9, 0.0, 2022-06-08 09:51:41.424
107.0, 24230.27446630889, 29921.810915686005, -19620.674207290915, -14424.295952832217, 1703.5382036612277, 2668.91004668594, 11341.744523256366, -2742.6931551329085, 0.06, 0.882, 0.52, 192.0, 1.0, 224.0, 27.0, 144.0, 16.0, 64.0, 0.0, 0.0, 0.0, 1.654674701424764E9, 0.0, 2022-06-08 09:51:41.424
108.0, 24232.04025412086, 29938.93235193877, -19610.21359088583, -14396.244513540807, 1712.2553839987975, 2677.448413067867, 11370.287700925792, -2739.519207420255, 0.06, 0.882, 0.52, 192.0, 0.0, 0.0, 0.0, 0.0, 0.0, 0.0, 0.0, 0.0, 0.0, 1.6546747014248793E9, 0.0, 2022-06-08 09:51:41.424
109.0, 24233.068434365803, 29922.794392442036, -19609.006596685245, -14401.273656043251, 1713.4623781993841, 2670.6534827534538, 11370.377107903614, -2771.3033880357016, 0.06, 0.882, 0.52, 192.0, 0.0, 0.0, 0.0, 0.0, 0.0, 0.0, 0.0, 0.0, 0.0, 1.6546747014248836E9, 0.0, 2022-06-08 09:51:41.424
110.0, 24217.80219290283, 29925.186029098753, -19609.878314719, -14408.493269502314, 1706.533337418239, 2665.4678780398226, 11368.566616602733, -2779.975864884361, 0.06, 0.882, 0.52, 192.0, 0.0, 0.0, 0.0, 0.0, 0.0, 0.0, 0.0, 0.0, 0.0, 1.654674701424888E9, 0.0, 2022-06-08 09:51:41.424
111.0, 24212.16955330009, 29923.196723842233, -19621.635332302492, -14416.808118439689, 1697.3020669581972, 2656.616587235521, 11374.646291094577, -2801.925277939472, 0.06, 0.882, 0.52, 192.0, 0.0, 0.0, 0.0, 0.0, 0.0, 0.0, 0.0, 0.0, 0.0, 1.6546747014248924E9, 0.0, 2022-06-08 09:51:41.424
112.0, 24226.072338351292, 29921.185066841255, -19616.919114222423, -14396.959769363377, 1706.399226951507, 2672.128697887504, 11387.766765089842, -2751.7903151262185, 0.06, 0.882, 0.52, 192.0, 0.0, 0.0, 0.0, 0.0, 0.0, 0.0, 0.0, 0.0, 0.0, 1.6546747014248967E9, 0.0, 2022-06-08 09:51:41.424
113.0, 24257.767111988916, 29940.16169788381, -19604.580951283093, -14393.539952461715, 1716.1222357895656, 2685.450337582867, 11382.134125487104, -2733.417181183956, 0.06, 0.882, 0.52, 192.0, 0.0, 0.0, 0.0, 0.0, 0.0, 0.0, 0.0, 0.0, 0.0, 1.6546747014249012E9, 0.0, 2022-06-08 09:51:41.424
114.0, 24261.455149824043, 29937.12186063789, -19615.443899088372, -14406.571019479159, 1705.6392676400267, 2670.38526181999, 11359.67062230952, -2786.3014085652126, 0.06, 0.882, 0.52, 192.0, 0.0, 0.0, 0.0, 0.0, 0.0, 0.0, 0.0, 0.0, 0.0, 1.6546747014249055E9, 0.0, 2022-06-08 09:51:41.424
115.0, 24238.18698384607, 29919.44163077374, -19619.713082279337, -14397.898542630499, 1705.1922327509205, 2666.2501890957583, 11359.67062230952, -2770.2975595352127, 0.06, 0.882, 0.52, 192.0, 0.0, 0.0, 0.0, 0.0, 0.0, 0.0, 0.0, 0.0, 0.0, 1.65467470142491E9, 0.0, 2022-06-08 09:51:41.424
116.0, 24213.734175411962, 29906.522322478573, -19619.26604739023, -14406.258095056784, 1710.109616531088, 2670.877000198007, 11373.528703871812, -2734.5347684067215, 0.06, 0.882, 0.52, 192.0, 0.0, 0.0, 0.0, 0.0, 0.0, 0.0, 0.0, 0.0, 0.0, 1.6546747014249141E9, 0.0, 2022-06-08 09:51:41.424
117.0, 24209.196771287534, 29910.478581247164, -19617.612018300537, -14412.494231759816, 1714.4905584443281, 2679.9518084468614, 11377.462610895946, -2749.7563063807856, 0.06, 0.88, 0.522, 192.0, 1.0, 224.0, 27.0, 128.0, 16.0, 80.0, 0.0, 0.0, 0.0, 1.6546747014249184E9, 0.0, 2022-06-08 09:51:41.424
118.0, 24216.349329513232, 29914.54659873803, -19614.12514616551, -14402.36889152156, 1718.402113724007, 2682.2763898702133, 11375.54036087279, -2768.867047890073, 0.06, 0.88, 0.522, 192.0, 0.0, 0.0, 0.0, 0.0, 0.0, 0.0, 0.0, 0.0, 0.0, 1.6546747014249227E9, 0.0, 2022-06-08 09:51:41.424
119.0, 24213.622416689686, 29909.629214957862, -19610.45946007484, -14387.46027796987, 1719.2961835022193, 2675.5261630447108, 11371.740564315387, -2765.156658310492, 0.06, 0.88, 0.522, 192.0, 0.0, 0.0, 0.0, 0.0, 0.0, 0.0, 0.0, 0.0, 0.0, 1.6546747014249272E9, 0.0, 2022-06-08 09:51:41.424
120.0, 24201.820695617283, 29890.58552868194, -19628.005579472254, -14408.895600902511, 1703.560555405683, 2659.2987965701577, 11358.128351942105, -2746.2023790123917, 0.06, 0.88, 0.522, 192.0, 0.0, 0.0, 0.0, 0.0, 0.0, 0.0, 0.0, 0.0, 0.0, 1.6546747014249315E9, 0.0, 2022-06-08 09:51:41.424
121.0, 24191.963576312493, 29882.114217533377, -19640.790777300692, -14433.549575036715, 1693.3905116785184, 2645.3513080300463, 11338.794092988264, -2766.7212804223636, 0.06, 0.88, 0.522, 192.0, 0.0, 0.0, 0.0, 0.0, 0.0, 0.0, 0.0, 0.0, 0.0, 1.654674701424936E9, 0.0, 2022-06-08 09:51:41.424
122.0, 24216.483439979966, 29896.240520029132, -19622.484698591794, -14424.519470276771, 1708.276773485753, 2655.588406990577, 11354.14974142906, -2788.0224928882712, 0.06, 0.88, 0.522, 192.0, 0.0, 0.0, 0.0, 0.0, 0.0, 0.0, 0.0, 0.0, 0.0, 1.6546747014249403E9, 0.0, 2022-06-08 09:51:41.424
123.0, 24223.837163905762, 29909.025717857567, -19623.959913725845, -14402.391243266016, 1710.0425612977222, 2662.0257093937053, 11352.249843150359, -2779.0147398727822, 0.06, 0.88, 0.522, 192.0, 0.0, 0.0, 0.0, 0.0, 0.0, 0.0, 0.0, 0.0, 0.0, 1.6546747014249449E9, 0.0, 2022-06-08 09:51:41.424
124.0, 24235.147146600146, 29913.42901151526, -19622.64116080298, -14405.22991481184, 1708.5896979081272, 2660.2822733261914, 11329.272249850304, -2792.0458068902262, 0.06, 0.88, 0.522, 192.0, 0.0, 0.0, 0.0, 0.0, 0.0, 0.0, 0.0, 0.0, 0.0, 1.6546747014249492E9, 0.0, 2022-06-08 09:51:41.424
125.0, 24221.825506904785, 29914.43484001575, -19623.803451514657, -14425.100615632608, 1704.3428664616188, 2652.101534855549, 11345.276098880304, -2778.746518939319, 0.06, 0.88, 0.522, 192.0, 0.0, 0.0, 0.0, 0.0, 0.0, 0.0, 0.0, 0.0, 0.0, 1.6546747014249535E9, 0.0, 2022-06-08 09:51:41.424
126.0, 24203.541779940344, 29910.2103603137, -19631.805376029657, -14430.71090349089, 1700.7218838598592, 2645.9548051303395, 11362.241072921881, -2760.9768820973495, 0.06, 0.88, 0.522, 192.0, 0.0, 0.0, 0.0, 0.0, 0.0, 0.0, 0.0, 0.0, 0.0, 1.6546747014249575E9, 0.0, 2022-06-08 09:51:41.424
127.0, 24220.774974915385, 29926.39302329934, -19628.8325940171, -14415.243496327817, 1704.3652182060741, 2652.8838459114845, 11363.805695033752, -2773.7173764368745, 0.058, 0.876, 0.524, 192.0, 1.0, 208.0, 27.0, 96.0, 16.0, 96.0, 0.0, 0.0, 0.0, 1.654674701424962E9, 0.0, 2022-06-08 09:51:41.424
128.0, 24235.348312300244, 29924.58253199846, -19608.514858307226, -14406.593371223615, 1724.9064713605014, 2660.818715193119, 11385.039852266294, -2804.5180802962877, 0.058, 0.876, 0.524, 192.0, 0.0, 0.0, 0.0, 0.0, 0.0, 0.0, 0.0, 0.0, 0.0, 1.65467470142497E9, 0.0, 2022-06-08 09:51:41.424
129.0, 24220.953788871026, 29906.164694567287, -19613.141669409477, -14403.08414734413, 1715.5857939226382, 2650.00047087675, 11377.708480084953, -2815.671600779486, 0.058, 0.876, 0.524, 192.0, 0.0, 0.0, 0.0, 0.0, 0.0, 0.0, 0.0, 0.0, 0.0, 1.6546747014249744E9, 0.0, 2022-06-08 09:51:41.424
130.0, 24226.40761451812, 29904.287148033043, -19620.60715205755, -14409.543801491714, 1709.886099086535, 2653.4649912673226, 11370.265349181336, -2750.695079647908, 0.058, 0.876, 0.524, 192.0, 0.0, 0.0, 0.0, 0.0, 0.0, 0.0, 0.0, 0.0, 0.0, 1.6546747014249787E9, 0.0, 2022-06-08 09:51:41.424
131.0, 24212.326015511277, 29904.980052111157, -19623.26700964773, -14412.829507926645, 1711.6742386429596, 2653.4426395228675, 11366.264386923836, -2722.129550234026, 0.058, 0.876, 0.524, 192.0, 0.0, 0.0, 0.0, 0.0, 0.0, 0.0, 0.0, 0.0, 0.0, 1.6546747014249828E9, 0.0, 2022-06-08 09:51:41.424
132.0, 24205.531085196864, 29925.074270376477, -19611.018253686223, -14400.08901358712, 1719.6761631579595, 2669.357081575046, 11362.755163044354, -2714.9769920083277, 0.058, 0.876, 0.524, 192.0, 0.0, 0.0, 0.0, 0.0, 0.0, 0.0, 0.0, 0.0, 0.0, 1.6546747014249873E9, 0.0, 2022-06-08 09:51:41.424
133.0, 24216.84106789125, 29936.048976904032, -19602.368128582017, -14390.477763471337, 1725.0629335716885, 2679.996511935772, 11351.95927047244, -2724.2082624683694, 0.058, 0.876, 0.524, 192.0, 0.0, 0.0, 0.0, 0.0, 0.0, 0.0, 0.0, 0.0, 0.0, 1.6546747014249916E9, 0.0, 2022-06-08 09:51:41.424
134.0, 24210.15789629911, 29916.893531905836, -19616.852058989058, -14411.75662419279, 1713.5070816882946, 2660.2152180928256, 11349.075895437705, -2762.6532629314975, 0.058, 0.876, 0.524, 192.0, 0.0, 0.0, 0.0, 0.0, 0.0, 0.0, 0.0, 0.0, 0.0, 1.654674701424996E9, 0.0, 2022-06-08 09:51:41.424
135.0, 24205.732250896963, 29900.576758453462, -19633.30294290816, -14441.126816407064, 1708.209718252387, 2641.3726975170016, 11348.561805315234, -2809.5248710542764, 0.058, 0.876, 0.524, 192.0, 0.0, 0.0, 0.0, 0.0, 0.0, 0.0, 0.0, 0.0, 0.0, 1.6546747014250002E9, 0.0, 2022-06-08 09:51:41.425
136.0, 24216.639902191153, 29911.417354514284, -19629.100814950565, -14422.105481875597, 1713.2165090103758, 2633.0131450907165, 11377.77553531832, -2842.5607493592206, 0.058, 0.876, 0.524, 192.0, 0.0, 0.0, 0.0, 0.0, 0.0, 0.0, 0.0, 0.0, 0.0, 1.6546747014250045E9, 0.0, 2022-06-08 09:51:41.425
137.0, 24233.515469254908, 29920.134534851855, -19624.049320703667, -14410.61668522557, 1722.0007445813114, 2654.627281978999, 11393.220590736937, -2781.093452107126, 0.058, 0.876, 0.524, 192.0, 1.0, 208.0, 27.0, 96.0, 16.0, 96.0, 0.0, 0.0, 0.0, 1.6546747014250088E9, 0.0, 2022-06-08 09:51:41.425
138.0, 24248.871117695704, 29928.427032044776, -19611.1300124085, -14402.771222921756, 1732.4613609863952, 2675.324997344613, 11393.444108181491, -2720.810797311163, 0.058, 0.876, 0.524, 192.0, 0.0, 0.0, 0.0, 0.0, 0.0, 0.0, 0.0, 0.0, 0.0, 1.6546747014250133E9, 0.0, 2022-06-08 09:51:41.425
139.0, 24230.3191697978, 29920.62627322987, -19618.282570634197, -14396.17745830744, 1728.013363839789, 2669.8935234419732, 11379.854247552663, -2745.129495278537, 0.058, 0.876, 0.524, 192.0, 0.0, 0.0, 0.0, 0.0, 0.0, 0.0, 0.0, 0.0, 0.0, 1.6546747014250176E9, 0.0, 2022-06-08 09:51:41.425
140.0, 24209.017957331893, 29919.978072640668, -19629.525498095216, -14407.241571812818, 1716.2116427673868, 2660.550494259655, 11380.390689419592, -2748.2810912467353, 0.058, 0.876, 0.524, 192.0, 0.0, 0.0, 0.0, 0.0, 0.0, 0.0, 0.0, 0.0, 0.0, 1.654674701425022E9, 0.0, 2022-06-08 09:51:41.425
141.0, 24209.822620132283, 29901.96256660969, -19633.347646397073, -14407.42038576846, 1712.0095148097892, 2662.3386338160794, 11380.591855119688, -2748.124629035548, 0.058, 0.876, 0.524, 192.0, 0.0, 0.0, 0.0, 0.0, 0.0, 0.0, 0.0, 0.0, 0.0, 1.654674701425026E9, 0.0, 2022-06-08 09:51:41.425
142.0, 24223.94892262804, 29912.311424292497, -19634.822861531124, -14410.19200208092, 1715.921070089468, 2667.971273418817, 11375.897988784074, -2770.4316700019444, 0.058, 0.876, 0.524, 192.0, 0.0, 0.0, 0.0, 0.0, 0.0, 0.0, 0.0, 0.0, 0.0, 1.6546747014250305E9, 0.0, 2022-06-08 09:51:41.425
143.0, 24232.956675643527, 29920.738031952147, -19628.653780061457, -14411.533106748237, 1722.0901515591327, 2665.736098973286, 11374.15455271656, -2783.127460852559, 0.058, 0.876, 0.524, 192.0, 0.0, 0.0, 0.0, 0.0, 0.0, 0.0, 0.0, 0.0, 0.0, 1.6546747014250348E9, 0.0, 2022-06-08 09:51:41.425
144.0, 24217.77984115837, 29921.29682556353, -19631.85007951857, -14408.716786946869, 1713.1941572659205, 2659.4329070368894, 11360.788209532288, -2795.353865069612, 0.058, 0.876, 0.524, 192.0, 0.0, 0.0, 0.0, 0.0, 0.0, 0.0, 0.0, 0.0, 0.0, 1.6546747014250393E9, 0.0, 2022-06-08 09:51:41.425
145.0, 24215.79053590185, 29916.893531905836, -19640.902536022968, -14414.237667827329, 1703.0688170276662, 2656.0801453685935, 11348.897081482064, -2790.3023708227124, 0.058, 0.876, 0.524, 192.0, 0.0, 0.0, 0.0, 0.0, 0.0, 0.0, 0.0, 0.0, 0.0, 1.6546747014250433E9, 0.0, 2022-06-08 09:51:41.425
146.0, 24211.320187010788, 29904.242444544132, -19649.887937294, -14425.748816221812, 1696.1844797354318, 2653.8449709230626, 11354.417962362524, -2747.185855768425, 0.058, 0.876, 0.524, 192.0, 0.0, 0.0, 0.0, 0.0, 0.0, 0.0, 0.0, 0.0, 0.0, 1.6546747014250476E9, 0.0, 2022-06-08 09:51:41.425
147.0, 24223.233666805467, 29920.134534851855, -19635.336951653597, -14421.166708608474, 1706.3545234625965, 2668.1724391189146, 11364.252729922859, -2714.418198396945, 0.06, 0.878, 0.522, 192.0, 1.0, 224.0, 27.0, 112.0, 16.0, 80.0, 0.0, 0.0, 0.0, 1.654674701425052E9, 0.0, 2022-06-08 09:51:41.425
148.0, 24241.539745514365, 29935.087851892455, -19622.618809058527, -14408.13564159103, 1716.8374916121354, 2674.140354888482, 11365.549131101267, -2740.3685737095566, 0.06, 0.878, 0.522, 192.0, 0.0, 0.0, 0.0, 0.0, 0.0, 0.0, 0.0, 0.0, 0.0, 1.6546747014250565E9, 0.0, 2022-06-08 09:51:41.425
149.0, 24228.978065130483, 29924.180200598264, -19633.235887674797, -14409.208525324884, 1708.656753141493, 2661.6233779935096, 11358.77655253131, -2800.181841871958, 0.06, 0.878, 0.522, 192.0, 0.0, 0.0, 0.0, 0.0, 0.0, 0.0, 0.0, 0.0, 0.0, 1.6546747014250607E9, 0.0, 2022-06-08 09:51:41.425
150.0, 24222.093727838248, 29931.48922103515, -19626.575067827114, -14391.818868138656, 1710.62370665356, 2664.618511750521, 11354.77559027381, -2775.1702398264697, 0.06, 0.878, 0.522, 192.0, 0.0, 0.0, 0.0, 0.0, 0.0, 0.0, 0.0, 0.0, 0.0, 1.6546747014250665E9, 0.0, 2022-06-08 09:51:41.425
151.0, 24215.14233531265, 29937.099508893432, -19633.369998141527, -14405.296970045207, 1701.2136222378758, 2660.483439026289, 11328.28877309427, -2766.5648182111763, 0.06, 0.878, 0.522, 192.0, 0.0, 0.0, 0.0, 0.0, 0.0, 0.0, 0.0, 0.0, 0.0, 1.6546747014250708E9, 0.0, 2022-06-08 09:51:41.425
152.0, 24251.106292141234, 29938.73118623867, -19626.284495149197, -14409.65556021399, 1707.6062211520937, 2661.3328053155906, 11346.125465169605, -2786.2343533318467, 0.06, 0.878, 0.522, 192.0, 0.0, 0.0, 0.0, 0.0, 0.0, 0.0, 0.0, 0.0, 0.0, 1.654674701425075E9, 0.0, 2022-06-08 09:51:41.425
153.0, 24240.489213524965, 29942.30746535152, -19610.772384497213, -14399.351406020094, 1717.753913134803, 2670.0499856531605, 11378.177866718515, -2781.2052108294024, 0.06, 0.878, 0.522, 192.0, 0.0, 0.0, 0.0, 0.0, 0.0, 0.0, 0.0, 0.0, 0.0, 1.6546747014250793E9, 0.0, 2022-06-08 09:51:41.425
154.0, 24220.17147781509, 29927.555314011017, -19604.78211698319, -14377.022013309243, 1725.8675963720796, 2681.1811543919034, 11398.137974517105, -2752.7961436267074, 0.06, 0.878, 0.522, 192.0, 0.0, 0.0, 0.0, 0.0, 0.0, 0.0, 0.0, 0.0, 0.0, 1.6546747014250836E9, 0.0, 2022-06-08 09:51:41.425
