%OpenBCI Raw EEG Data
%Number of channels = 8
%Sample Rate = 250 Hz
%Board = OpenBCI_GUI$BoardCytonSerial
Sample Index, EXG Channel 0, EXG Channel 1, EXG Channel 2, EXG Channel 3, EXG Channel 4, EXG Channel 5, EXG Channel 6, EXG Channel 7, Accel Channel 0, Accel Channel 1, Accel Channel 2, Other, Other, Other, Other, Other, Other, Other, Analog Channel 0, Analog Channel 1, Analog Channel 2, Timestamp, Other, Timestamp (Formatted)
0.0, 0.0, 0.0, 0.0, 0.0, 0.0, 0.0, 0.0, 0.0, -0.226, 0.978, 0.194, 192.0, 248.0, 240.0, 30.0, 144.0, 6.0, 16.0, 0.0, 0.0, 0.0, 1.6521761214754918E9, 0.0, 2022-05-10 11:48:41.475
1.0, -4975.431260517987, 4637.96462273176, -53152.31420425346, -39062.60151417274, -29225.755241603285, -19708.673025211458, -28845.529716674057, -23926.93894230592, -0.226, 0.978, 0.194, 192.0, 0.0, 0.0, 0.0, 0.0, 0.0, 0.0, 0.0, 0.0, 0.0, 1.652176121963076E9, 0.0, 2022-05-10 11:48:41.963
2.0, -4966.825838902693, 4647.039430980615, -53148.67086990725, -39060.83572636077, -29226.224628236847, -19705.700243198902, -28844.054501540006, -23909.72809907533, -0.226, 0.978, 0.194, 192.0, 0.0, 0.0, 0.0, 0.0, 0.0, 0.0, 0.0, 0.0, 0.0, 1.652176121963103E9, 0.0, 2022-05-10 11:48:41.963
3.0, -4977.062937863224, 4641.809122778073, -53155.62226243285, -39068.368264242206, -29232.237247495326, -19718.172516604962, -28847.496670186123, -23917.68532010142, -0.226, 0.978, 0.194, 192.0, 0.0, 0.0, 0.0, 0.0, 0.0, 0.0, 0.0, 0.0, 0.0, 1.6521761219632187E9, 0.0, 2022-05-10 11:48:41.963
4.0, -4987.612961246128, 4632.086113940014, -53153.252977520584, -39071.49750846595, -29230.426756194447, -19722.66521724048, -28847.29550448603, -23928.145936506506, -0.226, 0.978, 0.194, 192.0, 0.0, 0.0, 0.0, 0.0, 0.0, 0.0, 0.0, 0.0, 0.0, 1.6521761219634492E9, 0.0, 2022-05-10 11:48:41.963
5.0, -4981.019196631813, 4637.3387738870115, -53140.333669225416, -39064.5684676848, -29216.43456416542, -19713.121022358064, -28832.923332801263, -23922.4462416704, -0.226, 0.978, 0.194, 192.0, 0.0, 0.0, 0.0, 0.0, 0.0, 0.0, 0.0, 0.0, 0.0, 1.6521761219634542E9, 0.0, 2022-05-10 11:48:41.963
6.0, -4982.114432110123, 4641.943233244805, -53139.640765147306, -39065.48488920747, -29212.79122981921, -19711.914028157476, -28835.56083864699, -23926.35779695008, -0.226, 0.978, 0.194, 192.0, 0.0, 0.0, 0.0, 0.0, 0.0, 0.0, 0.0, 0.0, 0.0, 1.6521761219634588E9, 0.0, 2022-05-10 11:48:41.963
7.0, -4993.759690971338, 4626.72169527074, -53157.41040198928, -39084.72974118349, -29226.269331725758, -19728.342560332127, -28852.391702221837, -23945.490890203822, -0.226, 0.978, 0.194, 192.0, 0.0, 0.0, 0.0, 0.0, 0.0, 0.0, 0.0, 0.0, 0.0, 1.6521761219634635E9, 0.0, 2022-05-10 11:48:41.963
8.0, -4998.207688117944, 4614.361180586956, -53166.060527093476, -39093.33516279879, -29235.902933585996, -19738.08792091464, -28860.147757547827, -23946.89905010451, -0.20800000000000002, 0.99, 0.146, 192.0, 249.0, 128.0, 30.0, 240.0, 4.0, 144.0, 0.0, 0.0, 0.0, 1.6521761219634683E9, 0.0, 2022-05-10 11:48:41.963
9.0, -4992.195068859466, 4616.529299799121, -53153.32003275395, -39080.035874847876, -29225.598779392098, -19721.56998176217, -28851.095301043428, -23939.321808734156, -0.20800000000000002, 0.99, 0.146, 192.0, 0.0, 0.0, 0.0, 0.0, 0.0, 0.0, 0.0, 0.0, 0.0, 1.652176121963473E9, 0.0, 2022-05-10 11:48:41.963
10.0, -4985.400138545053, 4623.43598883581, -53143.77583787154, -39067.36243574172, -29215.227569964838, -19709.18711533393, -28840.925257316263, -23928.816488840162, -0.20800000000000002, 0.99, 0.146, 192.0, 0.0, 0.0, 0.0, 0.0, 0.0, 0.0, 0.0, 0.0, 0.0, 1.6521761219634776E9, 0.0, 2022-05-10 11:48:41.963
11.0, -4973.576065728195, 4642.814951278562, -53137.673811635235, -39060.92513333859, -29207.516218127756, -19701.34165303012, -28834.175030490762, -23913.863171799563, -0.20800000000000002, 0.99, 0.146, 192.0, 0.0, 0.0, 0.0, 0.0, 0.0, 0.0, 0.0, 0.0, 0.0, 1.6521761219634824E9, 0.0, 2022-05-10 11:48:41.963
12.0, -4970.491524993364, 4646.324175158045, -53143.485265193616, -39067.83182237528, -29213.260616452768, -19706.303740299194, -28841.014664294085, -23919.093480002106, -0.20800000000000002, 0.99, 0.146, 192.0, 0.0, 0.0, 0.0, 0.0, 0.0, 0.0, 0.0, 0.0, 0.0, 1.6521761219634888E9, 0.0, 2022-05-10 11:48:41.963
13.0, -4963.5848359566735, 4652.82853279454, -53131.34826795439, -39056.85711584772, -29203.649366336987, -19697.60891170608, -28834.599713635413, -23910.711575831363, -0.20800000000000002, 0.99, 0.146, 192.0, 0.0, 0.0, 0.0, 0.0, 0.0, 0.0, 0.0, 0.0, 0.0, 1.6521761219634967E9, 0.0, 2022-05-10 11:48:41.963
14.0, -4955.69467016395, 4646.659451324875, -53118.451311403674, -39046.77647909838, -29205.459857637867, -19689.94226335791, -28828.98942577713, -23906.040061240205, -0.20800000000000002, 0.99, 0.146, 192.0, 0.0, 0.0, 0.0, 0.0, 0.0, 0.0, 0.0, 0.0, 0.0, 1.652176121963508E9, 0.0, 2022-05-10 11:48:41.963
15.0, -4960.74616441085, 4643.641965823408, -53120.53002363801, -39046.84353433175, -29206.063354738162, -19689.98696684682, -28830.03995776653, -23907.40351765198, -0.20800000000000002, 0.99, 0.146, 192.0, 0.0, 0.0, 0.0, 0.0, 0.0, 0.0, 0.0, 0.0, 0.0, 1.6521761219635148E9, 0.0, 2022-05-10 11:48:41.963
16.0, -4965.305920279732, 4650.213378693268, -53127.32495395243, -39049.123412266184, -29209.751392573286, -19695.977234360842, -28834.823231079965, -23915.338386933614, -0.20800000000000002, 0.99, 0.146, 192.0, 0.0, 0.0, 0.0, 0.0, 0.0, 0.0, 0.0, 0.0, 0.0, 1.6521761219635246E9, 0.0, 2022-05-10 11:48:41.963
17.0, -4970.111545337623, 4649.006384492682, -53132.08587552141, -39054.10785127972, -29216.16634323196, -19706.214333321375, -28840.768795105076, -23928.816488840162, -0.20800000000000002, 0.99, 0.146, 192.0, 0.0, 0.0, 0.0, 0.0, 0.0, 0.0, 0.0, 0.0, 0.0, 1.6521761219635327E9, 0.0, 2022-05-10 11:48:41.963
18.0, -4968.971606370403, 4648.224073436746, -53124.687448106706, -39051.00095880043, -29209.170247217447, -19704.493248998315, -28838.198344492717, -23926.804831839185, -0.2, 1.004, 0.124, 192.0, 249.0, 192.0, 31.0, 96.0, 3.0, 224.0, 0.0, 0.0, 0.0, 1.6521761219635406E9, 0.0, 2022-05-10 11:48:41.963
19.0, -4961.483771977874, 4653.163808961369, -53114.405645657265, -39040.42858367307, -29199.067258723648, -19695.463144238372, -28827.871838554365, -23912.36560492106, -0.2, 1.004, 0.124, 192.0, 0.0, 0.0, 0.0, 0.0, 0.0, 0.0, 0.0, 0.0, 0.0, 1.6521761219635477E9, 0.0, 2022-05-10 11:48:41.963
20.0, -4944.630556658573, 4663.445611410811, -53109.912945021744, -39036.137048737655, -29194.239281921302, -19691.75275465879, -28820.093431483918, -23909.795154308697, -0.2, 1.004, 0.124, 192.0, 0.0, 0.0, 0.0, 0.0, 0.0, 0.0, 0.0, 0.0, 0.0, 1.6521761219635549E9, 0.0, 2022-05-10 11:48:41.963
21.0, -4947.603338671129, 4661.992748021215, -53117.289020692, -39041.34500519574, -29201.324784913635, -19695.440792493915, -28823.401489663305, -23906.263578684757, -0.2, 1.004, 0.124, 192.0, 0.0, 0.0, 0.0, 0.0, 0.0, 0.0, 0.0, 0.0, 0.0, 1.6521761219635608E9, 0.0, 2022-05-10 11:48:41.963
22.0, -4950.576120683685, 4670.687576614329, -53117.75840732556, -39040.316824950794, -29201.749468058286, -19694.211446548874, -28824.51907688607, -23897.233473924814, -0.2, 1.004, 0.124, 192.0, 0.0, 0.0, 0.0, 0.0, 0.0, 0.0, 0.0, 0.0, 0.0, 1.6521761219635875E9, 0.0, 2022-05-10 11:48:41.963
23.0, -4957.50516146483, 4670.709928358785, -53125.26859346254, -39046.754127353925, -29206.97977626083, -19702.079260597144, -28839.494745671123, -23928.861192329074, -0.2, 1.004, 0.124, 192.0, 0.0, 0.0, 0.0, 0.0, 0.0, 0.0, 0.0, 0.0, 0.0, 1.6521761219635942E9, 0.0, 2022-05-10 11:48:41.963
24.0, -4946.642213659551, 4667.983015535237, -53118.585421870404, -39044.60835988622, -29201.63770933601, -19697.56420821717, -28830.688158355733, -23921.753337592287, -0.2, 1.004, 0.124, 192.0, 0.0, 0.0, 0.0, 0.0, 0.0, 0.0, 0.0, 0.0, 0.0, 1.652176121963601E9, 0.0, 2022-05-10 11:48:41.963
25.0, -4951.7831148842715, 4662.618596865964, -53119.3900846708, -39046.95529305402, -29202.48707562531, -19693.876170382046, -28821.41218440678, -23898.418116380944, -0.2, 1.004, 0.124, 192.0, 0.0, 0.0, 0.0, 0.0, 0.0, 0.0, 0.0, 0.0, 0.0, 1.6521761219636104E9, 0.0, 2022-05-10 11:48:41.963
26.0, -4961.729641166883, 4663.4009079218995, -53131.90706156577, -39053.951389068534, -29211.36071817407, -19704.56030423168, -28835.35967294689, -23905.905950773475, -0.2, 1.004, 0.124, 192.0, 0.0, 0.0, 0.0, 0.0, 0.0, 0.0, 0.0, 0.0, 0.0, 1.6521761219636157E9, 0.0, 2022-05-10 11:48:41.963
27.0, -4956.07464981969, 4670.598169636509, -53130.56595689845, -39050.665682633604, -29206.39863090499, -19703.934455386934, -28820.249893695105, -23882.883653984507, -0.19, 1.01, 0.116, 192.0, 250.0, 16.0, 31.0, 144.0, 3.0, 160.0, 0.0, 0.0, 0.0, 1.6521761219636204E9, 0.0, 2022-05-10 11:48:41.963
28.0, -4961.439068488964, 4665.054937011592, -53137.78557035751, -39055.82893560278, -29216.389860676514, -19709.634150223035, -28829.74938508861, -23905.21304669536, -0.19, 1.01, 0.116, 192.0, 0.0, 0.0, 0.0, 0.0, 0.0, 0.0, 0.0, 0.0, 0.0, 1.6521761219636247E9, 0.0, 2022-05-10 11:48:41.963
29.0, -4960.500295221841, 4659.1764282198465, -53132.19763424369, -39051.939732067556, -29212.3441949301, -19703.062737353175, -28826.195457720216, -23908.275235685735, -0.19, 1.01, 0.116, 192.0, 0.0, 0.0, 0.0, 0.0, 0.0, 0.0, 0.0, 0.0, 0.0, 1.6521761219636292E9, 0.0, 2022-05-10 11:48:41.963
30.0, -4952.990109084858, 4662.708003843785, -53125.55916614046, -39044.943636053045, -29204.834008793117, -19694.412612248972, -28815.84660003741, -23903.044927483195, -0.19, 1.01, 0.116, 192.0, 0.0, 0.0, 0.0, 0.0, 0.0, 0.0, 0.0, 0.0, 0.0, 1.6521761219636345E9, 0.0, 2022-05-10 11:48:41.963
31.0, -4946.329289237176, 4670.955797547794, -53125.26859346254, -39041.59087438475, -29198.664927323454, -19694.502019226795, -28819.13230647234, -23897.702860558376, -0.19, 1.01, 0.116, 192.0, 0.0, 0.0, 0.0, 0.0, 0.0, 0.0, 0.0, 0.0, 0.0, 1.6521761219636388E9, 0.0, 2022-05-10 11:48:41.963
32.0, -4956.991071342358, 4669.793506836118, -53136.15389301228, -39049.972778555486, -29204.319918670648, -19706.46020251038, -28835.94081830273, -23914.556075877677, -0.19, 1.01, 0.116, 192.0, 0.0, 0.0, 0.0, 0.0, 0.0, 0.0, 0.0, 0.0, 0.0, 1.6521761219636433E9, 0.0, 2022-05-10 11:48:41.963
33.0, -4961.841399889159, 4662.7527073326955, -53140.55718666997, -39055.068976291295, -29213.081802497127, -19711.444641523914, -28843.629818395355, -23928.190639995413, -0.19, 1.01, 0.116, 192.0, 0.0, 0.0, 0.0, 0.0, 0.0, 0.0, 0.0, 0.0, 0.0, 1.6521761219636495E9, 0.0, 2022-05-10 11:48:41.963
34.0, -4949.950271838936, 4666.440745167822, -53133.42698018873, -39049.52574366638, -29209.21495070636, -19707.622493222058, -28838.265399726082, -23928.011826039772, -0.19, 1.01, 0.116, 192.0, 0.0, 0.0, 0.0, 0.0, 0.0, 0.0, 0.0, 0.0, 0.0, 1.652176121963654E9, 0.0, 2022-05-10 11:48:41.963
35.0, -4950.352603239132, 4660.49518114271, -53128.50959640856, -39044.67541511958, -29206.622148349543, -19707.018996121766, -28837.28192297005, -23929.26352372927, -0.19, 1.01, 0.116, 192.0, 0.0, 0.0, 0.0, 0.0, 0.0, 0.0, 0.0, 0.0, 0.0, 1.6521761219636583E9, 0.0, 2022-05-10 11:48:41.963
36.0, -4950.2184927724, 4663.378556177444, -53125.91679405174, -39042.59670288524, -29199.670755823943, -19705.43202226544, -28836.14198400283, -23929.799965596198, -0.19, 1.01, 0.116, 192.0, 0.0, 0.0, 0.0, 0.0, 0.0, 0.0, 0.0, 0.0, 0.0, 1.652176121963663E9, 0.0, 2022-05-10 11:48:41.963
37.0, -4955.314690508209, 4667.6253876239525, -53131.884709821315, -39047.53643840986, -29203.24703493679, -19711.154068845997, -28843.719225373177, -23938.427738955947, -0.19, 1.006, 0.10400000000000001, 192.0, 250.0, 16.0, 31.0, 112.0, 3.0, 64.0, 0.0, 0.0, 0.0, 1.6521761219636676E9, 0.0, 2022-05-10 11:48:41.963
38.0, -4956.5440364532515, 4667.893608557416, -53132.33174471042, -39047.245865731944, -29211.74069782981, -19712.67398746896, -28846.624952152368, -23942.49575644681, -0.19, 1.006, 0.10400000000000001, 192.0, 0.0, 0.0, 0.0, 0.0, 0.0, 0.0, 0.0, 0.0, 0.0, 1.652176121963672E9, 0.0, 2022-05-10 11:48:41.963
39.0, -4949.056202060724, 4668.139477746425, -53124.821558573436, -39041.59087438475, -29210.06431699566, -19709.857667667588, -28842.355768961403, -23940.752320379295, -0.19, 1.006, 0.10400000000000001, 192.0, 0.0, 0.0, 0.0, 0.0, 0.0, 0.0, 0.0, 0.0, 0.0, 1.6521761219636767E9, 0.0, 2022-05-10 11:48:41.963
40.0, -4958.309824265221, 4663.6914805998185, -53124.32982019542, -39044.58600814176, -29208.00795650577, -19710.841144423623, -28844.501536429114, -23941.288762246226, -0.19, 1.006, 0.10400000000000001, 192.0, 0.0, 0.0, 0.0, 0.0, 0.0, 0.0, 0.0, 0.0, 0.0, 1.6521761219636812E9, 0.0, 2022-05-10 11:48:41.963
41.0, -4959.270949276799, 4671.603998136998, -53123.88278530631, -39043.15549649662, -29204.655194837476, -19709.410632778483, -28843.85333583991, -23934.605590654086, -0.19, 1.006, 0.10400000000000001, 192.0, 0.0, 0.0, 0.0, 0.0, 0.0, 0.0, 0.0, 0.0, 0.0, 1.6521761219636855E9, 0.0, 2022-05-10 11:48:41.963
42.0, -4951.827818373182, 4675.694367372318, -53122.07229400543, -39041.05443251782, -29205.7951338047, -19708.650673467004, -28844.836812595942, -23929.576448151645, -0.19, 1.006, 0.10400000000000001, 192.0, 0.0, 0.0, 0.0, 0.0, 0.0, 0.0, 0.0, 0.0, 0.0, 1.6521761219636903E9, 0.0, 2022-05-10 11:48:41.963
43.0, -4954.085344563168, 4669.2123614802795, -53127.99550628609, -39047.514086665404, -29214.15468623098, -19712.830449680147, -28852.503460944114, -23931.02931154124, -0.19, 1.006, 0.10400000000000001, 192.0, 0.0, 0.0, 0.0, 0.0, 0.0, 0.0, 0.0, 0.0, 0.0, 1.6521761219636972E9, 0.0, 2022-05-10 11:48:41.963
44.0, -4958.93567310997, 4664.518495144665, -53128.576651641924, -39048.58697039926, -29216.389860676514, -19710.639978723524, -28853.531641189056, -23933.957390064883, -0.19, 1.006, 0.10400000000000001, 192.0, 0.0, 0.0, 0.0, 0.0, 0.0, 0.0, 0.0, 0.0, 0.0, 1.6521761219637017E9, 0.0, 2022-05-10 11:48:41.963
45.0, -4954.040641074257, 4666.5078004011875, -53118.60777361486, -39038.34987143873, -29204.20815994837, -19700.648748952004, -28843.406300950803, -23928.749433606798, -0.19, 1.006, 0.10400000000000001, 192.0, 0.0, 0.0, 0.0, 0.0, 0.0, 0.0, 0.0, 0.0, 0.0, 1.6521761219637065E9, 0.0, 2022-05-10 11:48:41.963
46.0, -4954.621786430095, 4665.613730622975, -53126.87791906332, -39043.24490347444, -29208.857322795073, -19705.40967052098, -28846.915524830285, -23921.84274457011, -0.19, 1.006, 0.10400000000000001, 192.0, 0.0, 0.0, 0.0, 0.0, 0.0, 0.0, 0.0, 0.0, 0.0, 1.6521761219637125E9, 0.0, 2022-05-10 11:48:41.963
47.0, -4956.432277730975, 4667.78184983514, -53135.25982323406, -39049.65985413311, -29213.126505986038, -19710.863496168076, -28854.537469689545, -23933.867983087064, -0.2, 1.008, 0.098, 192.0, 249.0, 192.0, 31.0, 128.0, 3.0, 16.0, 0.0, 0.0, 0.0, 1.6521761219637167E9, 0.0, 2022-05-10 11:48:41.963
48.0, -4959.986205099369, 4663.646777110908, -53134.589270900404, -39052.81145010131, -29213.752354830787, -19716.71965321537, -28855.498594701126, -23931.431642941436, -0.2, 1.008, 0.098, 192.0, 0.0, 0.0, 0.0, 0.0, 0.0, 0.0, 0.0, 0.0, 0.0, 1.6521761219637213E9, 0.0, 2022-05-10 11:48:41.963
49.0, -4957.415754487009, 4661.836285810028, -53127.72728535262, -39047.20116224303, -29212.25478795228, -19716.18321134844, -28851.028245810063, -23914.556075877677, -0.2, 1.008, 0.098, 192.0, 0.0, 0.0, 0.0, 0.0, 0.0, 0.0, 0.0, 0.0, 0.0, 1.6521761219637256E9, 0.0, 2022-05-10 11:48:41.963
50.0, -4949.458533460919, 4668.810030080084, -53116.66317184725, -39037.388746427154, -29198.664927323454, -19706.974292632854, -28841.439347438736, -23910.01867175325, -0.2, 1.008, 0.098, 192.0, 0.0, 0.0, 0.0, 0.0, 0.0, 0.0, 0.0, 0.0, 0.0, 1.65217612196373E9, 0.0, 2022-05-10 11:48:41.963
51.0, -4952.654832918029, 4667.4465736683105, -53122.027590516525, -39040.29447320634, -29204.72225007084, -19708.985949633832, -28848.10016728642, -23911.06920374265, -0.2, 1.008, 0.098, 192.0, 0.0, 0.0, 0.0, 0.0, 0.0, 0.0, 0.0, 0.0, 0.0, 1.6521761219637346E9, 0.0, 2022-05-10 11:48:41.963
52.0, -4949.167960783, 4677.415451695377, -53123.43575041721, -39040.36152843971, -29209.46081989537, -19711.355234546096, -28843.629818395355, -23910.376299664535, -0.2, 1.008, 0.098, 192.0, 0.0, 0.0, 0.0, 0.0, 0.0, 0.0, 0.0, 0.0, 0.0, 1.6521761219637392E9, 0.0, 2022-05-10 11:48:41.963
53.0, -4948.765629382805, 4673.012158037682, -53127.77198884154, -39047.69290062105, -29214.10998274207, -19715.95969390389, -28845.86499284089, -23897.144066946992, -0.2, 1.008, 0.098, 192.0, 0.0, 0.0, 0.0, 0.0, 0.0, 0.0, 0.0, 0.0, 0.0, 1.6521761219637437E9, 0.0, 2022-05-10 11:48:41.963
54.0, -4948.609167171618, 4667.938312046327, -53127.548471396985, -39045.18950524205, -29214.557017631178, -19714.864458425578, -28845.79793760752, -23877.00514519276, -0.2, 1.008, 0.098, 192.0, 0.0, 0.0, 0.0, 0.0, 0.0, 0.0, 0.0, 0.0, 0.0, 1.6521761219637485E9, 0.0, 2022-05-10 11:48:41.963
55.0, -4939.668469389495, 4673.2580272266905, -53116.81963405843, -39034.4159644146, -29203.805828548175, -19711.265827568273, -28835.113803757886, -23875.172302147424, -0.2, 1.008, 0.098, 192.0, 0.0, 0.0, 0.0, 0.0, 0.0, 0.0, 0.0, 0.0, 0.0, 1.652176121963753E9, 0.0, 2022-05-10 11:48:41.963
56.0, -4938.707344377916, 4676.767251106173, -53116.66317184725, -39033.611301614204, -29202.82235179214, -19709.656501967493, -28831.917504300774, -23878.05567718216, -0.2, 1.008, 0.098, 192.0, 0.0, 0.0, 0.0, 0.0, 0.0, 0.0, 0.0, 0.0, 0.0, 1.6521761219637582E9, 0.0, 2022-05-10 11:48:41.963
57.0, -4952.7218881513945, 4669.122954502458, -53130.36479119835, -39046.53060990937, -29211.96421527436, -19722.28523758474, -28844.903867829307, -23897.63580532501, -0.212, 1.016, 0.092, 192.0, 249.0, 96.0, 31.0, 192.0, 2.0, 224.0, 0.0, 0.0, 0.0, 1.6521761219637632E9, 0.0, 2022-05-10 11:48:41.963
58.0, -4953.683013162972, 4663.490314899721, -53130.36479119835, -39047.15645875412, -29211.517180385257, -19724.654522497003, -28848.010760308596, -23895.11005820156, -0.212, 1.016, 0.092, 192.0, 0.0, 0.0, 0.0, 0.0, 0.0, 0.0, 0.0, 0.0, 0.0, 1.6521761219637685E9, 0.0, 2022-05-10 11:48:41.963
59.0, -4934.684030375962, 4677.571913906564, -53110.87407003332, -39027.37516491117, -29197.435581378413, -19705.744946687813, -28828.8553153104, -23875.261709125247, -0.212, 1.016, 0.092, 192.0, 0.0, 0.0, 0.0, 0.0, 0.0, 0.0, 0.0, 0.0, 0.0, 1.6521761219637744E9, 0.0, 2022-05-10 11:48:41.963
60.0, -4927.442065172442, 4684.366844220977, -53104.99556124158, -39018.34506015123, -29190.238319663804, -19698.502981484293, -28817.053594237997, -23869.919642200428, -0.212, 1.016, 0.092, 192.0, 0.0, 0.0, 0.0, 0.0, 0.0, 0.0, 0.0, 0.0, 0.0, 1.6521761219637794E9, 0.0, 2022-05-10 11:48:41.963
61.0, -4927.68793436145, 4682.154021519902, -53116.149081724776, -39027.39751665563, -29195.133351699515, -19703.84504840911, -28825.74842283111, -23878.39095334899, -0.212, 1.016, 0.092, 192.0, 0.0, 0.0, 0.0, 0.0, 0.0, 0.0, 0.0, 0.0, 0.0, 1.6521761219637842E9, 0.0, 2022-05-10 11:48:41.963
62.0, -4933.901719320026, 4676.2531609837015, -53129.89540456479, -39041.27794996237, -29203.44820063689, -19710.438813023426, -28834.912638057787, -23888.136313931504, -0.212, 1.016, 0.092, 192.0, 0.0, 0.0, 0.0, 0.0, 0.0, 0.0, 0.0, 0.0, 0.0, 1.6521761219637892E9, 0.0, 2022-05-10 11:48:41.963
63.0, -4942.060106046213, 4667.82655332405, -53142.47943669313, -39052.78909835686, -29214.042927508704, -19723.447528296416, -28842.266361983584, -23893.992470978796, -0.212, 1.016, 0.092, 192.0, 0.0, 0.0, 0.0, 0.0, 0.0, 0.0, 0.0, 0.0, 0.0, 1.6521761219637945E9, 0.0, 2022-05-10 11:48:41.963
64.0, -4943.69178339145, 4662.216265465769, -53139.149026769286, -39049.63750238866, -29211.226607707336, -19718.530144516248, -28838.66773112628, -23887.44340985339, -0.212, 1.016, 0.092, 192.0, 0.0, 0.0, 0.0, 0.0, 0.0, 0.0, 0.0, 0.0, 0.0, 1.6521761219638016E9, 0.0, 2022-05-10 11:48:41.963
65.0, -4932.895890819537, 4668.474753913254, -53124.30746845096, -39034.77359232588, -29197.323822656137, -19705.99081587682, -28825.52490538656, -23873.09358991308, -0.212, 1.016, 0.092, 192.0, 0.0, 0.0, 0.0, 0.0, 0.0, 0.0, 0.0, 0.0, 0.0, 1.6521761219638064E9, 0.0, 2022-05-10 11:48:41.963
66.0, -4928.7161146063945, 4670.776983592151, -53123.39104692829, -39032.65017660263, -29196.385049389013, -19703.934455386934, -28826.351919931403, -23871.707781756853, -0.212, 1.016, 0.092, 192.0, 0.0, 0.0, 0.0, 0.0, 0.0, 0.0, 0.0, 0.0, 0.0, 1.6521761219638119E9, 0.0, 2022-05-10 11:48:41.963
67.0, -4939.6908211339505, 4670.575817892053, -53131.99646854359, -39043.64723487464, -29204.141104715003, -19709.500039756305, -28835.225562480162, -23881.140217916993, -0.20600000000000002, 1.018, 0.108, 192.0, 249.0, 144.0, 31.0, 208.0, 3.0, 96.0, 0.0, 0.0, 0.0, 1.652176121963817E9, 0.0, 2022-05-10 11:48:41.963
68.0, -4941.50131243483, 4662.328024188045, -53136.690334879204, -39049.21281924401, -29203.403497147978, -19714.015092136277, -28839.04771078202, -23886.348174375078, -0.20600000000000002, 1.018, 0.108, 192.0, 0.0, 0.0, 0.0, 0.0, 0.0, 0.0, 0.0, 0.0, 0.0, 1.6521761219638216E9, 0.0, 2022-05-10 11:48:41.963
69.0, -4929.923108806981, 4662.395079421411, -53125.648573118284, -39043.0660895188, -29187.779627773718, -19706.1025745991, -28830.777565333556, -23877.988621948796, -0.20600000000000002, 1.018, 0.108, 192.0, 0.0, 0.0, 0.0, 0.0, 0.0, 0.0, 0.0, 0.0, 0.0, 1.652176121963827E9, 0.0, 2022-05-10 11:48:41.963
70.0, -4930.750123351828, 4663.087983499526, -53121.82642481643, -39043.0660895188, -29186.416171361947, -19702.70510944189, -28825.10022224191, -23874.47939806931, -0.20600000000000002, 1.018, 0.108, 192.0, 0.0, 0.0, 0.0, 0.0, 0.0, 0.0, 0.0, 0.0, 0.0, 1.652176121963832E9, 0.0, 2022-05-10 11:48:41.963
71.0, -4932.717076863894, 4663.870294555461, -53129.40366618677, -39049.03400528837, -29192.16056968696, -19708.248342066807, -28830.397585677816, -23883.062467940148, -0.20600000000000002, 1.018, 0.108, 192.0, 0.0, 0.0, 0.0, 0.0, 0.0, 0.0, 0.0, 0.0, 0.0, 1.6521761219638364E9, 0.0, 2022-05-10 11:48:41.963
72.0, -4938.662640889006, 4663.06563175507, -53143.686430893715, -39064.54611594035, -29204.521084370743, -19719.62537999456, -28844.456832940203, -23899.513351859256, -0.20600000000000002, 1.018, 0.108, 192.0, 0.0, 0.0, 0.0, 0.0, 0.0, 0.0, 0.0, 0.0, 0.0, 1.6521761219638412E9, 0.0, 2022-05-10 11:48:41.963
73.0, -4937.343887966143, 4662.596245121508, -53140.534834925515, -39063.607342673226, -29201.81652329165, -19717.837240438133, -28841.12642301636, -23899.64746232599, -0.20600000000000002, 1.018, 0.108, 192.0, 0.0, 0.0, 0.0, 0.0, 0.0, 0.0, 0.0, 0.0, 0.0, 1.652176121963846E9, 0.0, 2022-05-10 11:48:41.963
74.0, -4940.562539167708, 4647.218244936257, -53137.51734942405, -39061.75214788344, -29200.363659902057, -19717.81488869368, -28838.198344492717, -23896.831142524617, -0.20600000000000002, 1.018, 0.108, 192.0, 0.0, 0.0, 0.0, 0.0, 0.0, 0.0, 0.0, 0.0, 0.0, 1.6521761219638505E9, 0.0, 2022-05-10 11:48:41.963
75.0, -4923.038771514746, 4659.735221831229, -53124.48628240661, -39052.47617393448, -29188.62899406302, -19705.767298432267, -28824.407318163794, -23885.901139485974, -0.20600000000000002, 1.018, 0.108, 192.0, 0.0, 0.0, 0.0, 0.0, 0.0, 0.0, 0.0, 0.0, 0.0, 1.652176121963855E9, 0.0, 2022-05-10 11:48:41.963
76.0, -4919.194271468434, 4671.425184181355, -53120.28415444901, -39047.87171457669, -29177.386066602, -19700.000548362797, -28815.824248292956, -23883.710668529355, -0.20600000000000002, 1.018, 0.108, 192.0, 0.0, 0.0, 0.0, 0.0, 0.0, 0.0, 0.0, 0.0, 0.0, 1.6521761219638596E9, 0.0, 2022-05-10 11:48:41.963
77.0, -4925.8997948050255, 4667.714794601774, -53128.82252083094, -39058.68995889306, -29179.06244743615, -19709.969426389867, -28822.060384995984, -23893.925415745427, -0.20600000000000002, 0.988, 0.10200000000000001, 192.0, 249.0, 144.0, 30.0, 224.0, 3.0, 48.0, 0.0, 0.0, 0.0, 1.6521761219638653E9, 0.0, 2022-05-10 11:48:41.963
78.0, -4928.626707628573, 4667.938312046327, -53128.62135513084, -39061.081595549775, -29181.364677115045, -19710.774089190258, -28825.591960619924, -23899.267482670246, -0.20600000000000002, 0.988, 0.10200000000000001, 192.0, 0.0, 0.0, 0.0, 0.0, 0.0, 0.0, 0.0, 0.0, 0.0, 1.65217612196387E9, 0.0, 2022-05-10 11:48:41.963
79.0, -4933.857015831115, 4658.01413750817, -53130.677715620724, -39063.942618840054, -29192.96523248735, -19715.937342159432, -28832.61040837889, -23909.72809907533, -0.20600000000000002, 0.988, 0.10200000000000001, 192.0, 0.0, 0.0, 0.0, 0.0, 0.0, 0.0, 0.0, 0.0, 0.0, 1.6521761219638762E9, 0.0, 2022-05-10 11:48:41.963
80.0, -4926.816216327693, 4656.11423922947, -53123.36869518384, -39055.94069432506, -29179.576537558623, -19709.81296417868, -28818.729975072143, -23899.088668714605, -0.20600000000000002, 0.988, 0.10200000000000001, 192.0, 0.0, 0.0, 0.0, 0.0, 0.0, 0.0, 0.0, 0.0, 0.0, 1.652176121963881E9, 0.0, 2022-05-10 11:48:41.963
81.0, -4918.143739479035, 4664.1608672333805, -53119.8371195599, -39050.37510995568, -29178.101322424573, -19704.448545509404, -28816.315986670972, -23881.944880717383, -0.20600000000000002, 0.988, 0.10200000000000001, 192.0, 0.0, 0.0, 0.0, 0.0, 0.0, 0.0, 0.0, 0.0, 0.0, 1.652176121963904E9, 0.0, 2022-05-10 11:48:41.963
82.0, -4919.931879035459, 4668.832381824539, -53123.03341901701, -39056.56654316981, -29185.365639372547, -19708.002472877797, -28823.334434429937, -23892.718421544843, -0.20600000000000002, 0.988, 0.10200000000000001, 192.0, 0.0, 0.0, 0.0, 0.0, 0.0, 0.0, 0.0, 0.0, 0.0, 1.6521761219639106E9, 0.0, 2022-05-10 11:48:41.963
83.0, -4936.248652487833, 4663.333852688534, -53127.01202953006, -39065.127261296184, -29190.17126443044, -19712.316359557673, -28829.86114381089, -23886.839912753097, -0.20600000000000002, 0.988, 0.10200000000000001, 192.0, 0.0, 0.0, 0.0, 0.0, 0.0, 0.0, 0.0, 0.0, 0.0, 1.6521761219639163E9, 0.0, 2022-05-10 11:48:41.963
84.0, -4939.221434500389, 4654.3037479285895, -53129.60483188687, -39066.53542119687, -29193.546377843188, -19714.149202603006, -28832.94568454572, -23886.705802286364, -0.20600000000000002, 0.988, 0.10200000000000001, 192.0, 0.0, 0.0, 0.0, 0.0, 0.0, 0.0, 0.0, 0.0, 0.0, 1.6521761219639215E9, 0.0, 2022-05-10 11:48:41.963
85.0, -4925.296297704733, 4659.1764282198465, -53121.111168993855, -39057.70648213702, -29186.72909578432, -19706.437850765928, -28826.866010053876, -23884.604738307567, -0.20600000000000002, 0.988, 0.10200000000000001, 192.0, 0.0, 0.0, 0.0, 0.0, 0.0, 0.0, 0.0, 0.0, 0.0, 1.6521761219639404E9, 0.0, 2022-05-10 11:48:41.963
86.0, -4929.49842566233, 4665.613730622975, -53120.64178236029, -39056.92417108109, -29188.338421385102, -19704.493248998315, -28826.866010053876, -23883.263633640247, -0.20600000000000002, 0.988, 0.10200000000000001, 192.0, 0.0, 0.0, 0.0, 0.0, 0.0, 0.0, 0.0, 0.0, 0.0, 1.652176121963948E9, 0.0, 2022-05-10 11:48:41.963
87.0, -4936.919204821492, 4668.519457402165, -53127.883747563814, -39064.724929895994, -29195.6921453109, -19710.528220001248, -28834.487954913136, -23887.801037764675, -0.21, 0.992, 0.098, 192.0, 249.0, 112.0, 31.0, 0.0, 3.0, 16.0, 0.0, 0.0, 0.0, 1.6521761219639525E9, 0.0, 2022-05-10 11:48:41.963
88.0, -4948.698574149439, 4654.169637461858, -53142.635898904315, -39082.606325460234, -29208.63380535052, -19728.27550509876, -28849.553030676012, -23903.15668620547, -0.21, 0.992, 0.098, 192.0, 0.0, 0.0, 0.0, 0.0, 0.0, 0.0, 0.0, 0.0, 0.0, 1.6521761219639573E9, 0.0, 2022-05-10 11:48:41.963
89.0, -4932.605318141618, 4663.244445710712, -53128.040209775, -39070.223459032, -29198.10613371207, -19715.66912122597, -28836.030225280552, -23889.455066854367, -0.21, 0.992, 0.098, 192.0, 0.0, 0.0, 0.0, 0.0, 0.0, 0.0, 0.0, 0.0, 0.0, 1.6521761219639623E9, 0.0, 2022-05-10 11:48:41.963
90.0, -4932.828835586171, 4661.501009643199, -53122.295811449985, -39065.73075839648, -29194.194578432394, -19713.61276073608, -28831.917504300774, -23890.416191865945, -0.21, 0.992, 0.098, 192.0, 0.0, 0.0, 0.0, 0.0, 0.0, 0.0, 0.0, 0.0, 0.0, 1.652176121963968E9, 0.0, 2022-05-10 11:48:41.963
91.0, -4927.240899472345, 4670.978149292248, -53117.37842766982, -39060.99218857195, -29186.371467873036, -19711.869324668565, -28827.76007983209, -23893.947767489884, -0.21, 0.992, 0.098, 192.0, 0.0, 0.0, 0.0, 0.0, 0.0, 0.0, 0.0, 0.0, 0.0, 1.652176121963974E9, 0.0, 2022-05-10 11:48:41.963
92.0, -4929.923108806981, 4667.804201579595, -53124.91096555126, -39070.33521775428, -29192.83112202062, -19719.75949046129, -28840.299408471517, -23897.613453580554, -0.21, 0.992, 0.098, 192.0, 0.0, 0.0, 0.0, 0.0, 0.0, 0.0, 0.0, 0.0, 0.0, 1.6521761219639788E9, 0.0, 2022-05-10 11:48:41.963
93.0, -4936.360411210109, 4654.929596773338, -53132.42115168824, -39078.426549247095, -29197.77085754524, -19725.95092367541, -28840.27705672706, -23891.35496513307, -0.21, 0.992, 0.098, 192.0, 0.0, 0.0, 0.0, 0.0, 0.0, 0.0, 0.0, 0.0, 0.0, 1.6521761219639845E9, 0.0, 2022-05-10 11:48:41.963
94.0, -4934.572271653685, 4647.732335058729, -53134.49986392258, -39080.169985314606, -29198.73198255682, -19728.67783649896, -28833.169201990273, -23888.695107542888, -0.21, 0.992, 0.098, 192.0, 0.0, 0.0, 0.0, 0.0, 0.0, 0.0, 0.0, 0.0, 0.0, 1.6521761219639895E9, 0.0, 2022-05-10 11:48:41.963
95.0, -4937.254480988322, 4643.977241990237, -53136.958555812664, -39083.12041558271, -29203.962290759362, -19733.23759236784, -28840.09824277142, -23891.35496513307, -0.21, 0.992, 0.098, 192.0, 0.0, 0.0, 0.0, 0.0, 0.0, 0.0, 0.0, 0.0, 0.0, 1.6521761219639957E9, 0.0, 2022-05-10 11:48:41.963
96.0, -4922.167053480989, 4660.986919520727, -53125.35800044036, -39071.54221195486, -29192.58525283161, -19723.38047306305, -28833.32566420146, -23886.661098797453, -0.21, 0.992, 0.098, 192.0, 0.0, 0.0, 0.0, 0.0, 0.0, 0.0, 0.0, 0.0, 0.0, 1.6521761219640012E9, 0.0, 2022-05-10 11:48:41.964
97.0, -4924.178710481967, 4668.854733568995, -53129.5377766535, -39075.699636423546, -29195.11099995506, -19731.248287111317, -28836.18668749174, -23899.803924537173, -0.216, 0.986, 0.088, 192.0, 249.0, 64.0, 30.0, 208.0, 2.0, 192.0, 0.0, 0.0, 0.0, 1.6521761219640064E9, 0.0, 2022-05-10 11:48:41.964
98.0, -4938.729696122372, 4653.543788617109, -53141.20538725918, -39090.675305208606, -29208.41028790597, -19747.118025674587, -28852.704626644212, -23922.736814348318, -0.216, 0.986, 0.088, 192.0, 0.0, 0.0, 0.0, 0.0, 0.0, 0.0, 0.0, 0.0, 0.0, 1.6521761219640124E9, 0.0, 2022-05-10 11:48:41.964
99.0, -4931.465379174398, 4648.961681003771, -53135.505692423074, -39089.334200541285, -29203.761125059264, -19743.497043072824, -28848.882478342355, -23913.72906133283, -0.216, 0.986, 0.088, 192.0, 0.0, 0.0, 0.0, 0.0, 0.0, 0.0, 0.0, 0.0, 0.0, 1.6521761219640179E9, 0.0, 2022-05-10 11:48:41.964
100.0, -4921.563556380696, 4657.701213085797, -53124.41922717324, -39079.49943298095, -29193.25580516527, -19731.13652838904, -28833.593885134924, -23882.995412706783, -0.216, 0.986, 0.088, 192.0, 0.0, 0.0, 0.0, 0.0, 0.0, 0.0, 0.0, 0.0, 0.0, 1.6521761219640229E9, 0.0, 2022-05-10 11:48:41.964
101.0, -4914.522756877274, 4674.353262705, -53113.9362590237, -39068.92705785359, -29177.00608694626, -19719.446566038914, -28815.8018965485, -23867.505653799257, -0.216, 0.986, 0.088, 192.0, 0.0, 0.0, 0.0, 0.0, 0.0, 0.0, 0.0, 0.0, 0.0, 1.6521761219640286E9, 0.0, 2022-05-10 11:48:41.964
102.0, -4924.536338393252, 4668.251236468701, -53127.548471396985, -39081.3769795152, -29194.753372043775, -19736.344484847126, -28838.555972404003, -23889.320956387637, -0.216, 0.986, 0.088, 192.0, 0.0, 0.0, 0.0, 0.0, 0.0, 0.0, 0.0, 0.0, 0.0, 1.652176121964034E9, 0.0, 2022-05-10 11:48:41.964
103.0, -4928.2467279728335, 4658.148247974903, -53134.879843578325, -39089.64712496366, -29204.364622159555, -19750.359028620605, -28847.69783588622, -23901.994395493795, -0.216, 0.986, 0.088, 192.0, 0.0, 0.0, 0.0, 0.0, 0.0, 0.0, 0.0, 0.0, 0.0, 1.6521761219640393E9, 0.0, 2022-05-10 11:48:41.964
104.0, -4927.263251216799, 4650.213378693268, -53132.287041221505, -39087.97074412951, -29198.15083720098, -19748.123854175075, -28837.080757269952, -23907.62703509653, -0.216, 0.986, 0.088, 192.0, 0.0, 0.0, 0.0, 0.0, 0.0, 0.0, 0.0, 0.0, 0.0, 1.652176121964046E9, 0.0, 2022-05-10 11:48:41.964
105.0, -4915.953268522414, 4656.225997951746, -53125.20153822918, -39081.51108998193, -29186.147950428483, -19742.111234916596, -28830.08466125544, -23906.57650310713, -0.216, 0.986, 0.088, 192.0, 0.0, 0.0, 0.0, 0.0, 0.0, 0.0, 0.0, 0.0, 0.0, 1.6521761219640565E9, 0.0, 2022-05-10 11:48:41.964
106.0, -4916.132082478057, 4663.289149199623, -53131.01299178755, -39083.053360349346, -29197.055601722674, -19745.7098657739, -28835.35967294689, -23900.318014659646, -0.214, 0.98, 0.078, 192.0, 249.0, 80.0, 30.0, 160.0, 2.0, 112.0, 0.0, 0.0, 0.0, 1.6521761219640682E9, 0.0, 2022-05-10 11:48:41.964
107.0, -4929.3643151955985, 4655.711907829274, -53148.82733211844, -39099.951279157554, -29211.405421662977, -19767.793389295744, -28853.531641189056, -23924.167325993458, -0.214, 0.98, 0.078, 192.0, 0.0, 0.0, 0.0, 0.0, 0.0, 0.0, 0.0, 0.0, 0.0, 1.6521761219640918E9, 0.0, 2022-05-10 11:48:41.964
108.0, -4935.868672832093, 4652.917939772361, -53149.31907049645, -39103.63931699268, -29213.193561219403, -19775.10240973263, -28857.264382513094, -23932.482174930832, -0.214, 0.98, 0.078, 192.0, 0.0, 0.0, 0.0, 0.0, 0.0, 0.0, 0.0, 0.0, 0.0, 1.6521761219641058E9, 0.0, 2022-05-10 11:48:41.964
109.0, -4922.234108714355, 4657.768268319162, -53128.040209775, -39086.65199120665, -29194.596909832588, -19760.260851414307, -28839.584152648946, -23918.601741624087, -0.214, 0.98, 0.078, 192.0, 0.0, 0.0, 0.0, 0.0, 0.0, 0.0, 0.0, 0.0, 0.0, 1.6521761219641345E9, 0.0, 2022-05-10 11:48:41.964
110.0, -4913.583983610151, 4658.908207286383, -53117.959573025655, -39078.001866102444, -29184.248052149782, -19751.610726310104, -28832.163373489784, -23906.59885485159, -0.214, 0.98, 0.078, 192.0, 0.0, 0.0, 0.0, 0.0, 0.0, 0.0, 0.0, 0.0, 0.0, 1.6521761219641645E9, 0.0, 2022-05-10 11:48:41.964
111.0, -4916.422655155976, 4664.294977700112, -53122.1393492388, -39080.795834159355, -29187.712572540353, -19753.465921099894, -28837.304274714505, -23914.15374447748, -0.214, 0.98, 0.078, 192.0, 0.0, 0.0, 0.0, 0.0, 0.0, 0.0, 0.0, 0.0, 0.0, 1.6521761219642036E9, 0.0, 2022-05-10 11:48:41.964
112.0, -4912.198175453923, 4671.82751558155, -53126.833215574414, -39083.63450570518, -29192.071162709137, -19759.545595591735, -28841.796975350022, -23924.033215526728, -0.214, 0.98, 0.078, 192.0, 0.0, 0.0, 0.0, 0.0, 0.0, 0.0, 0.0, 0.0, 0.0, 1.652176121964256E9, 0.0, 2022-05-10 11:48:41.964
113.0, -4915.930916777958, 4663.020928266159, -53134.43280868922, -39090.00475287494, -29199.96132850186, -19768.441589884947, -28850.715321387688, -23932.50452667529, -0.214, 0.98, 0.078, 192.0, 0.0, 0.0, 0.0, 0.0, 0.0, 0.0, 0.0, 0.0, 0.0, 1.6521761219642928E9, 0.0, 2022-05-10 11:48:41.964
114.0, -4922.949364536925, 4646.838265280517, -53134.90219532278, -39092.061113364834, -29203.627014592534, -19769.469770129894, -28852.23524001065, -23933.26448598677, -0.214, 0.98, 0.078, 192.0, 0.0, 0.0, 0.0, 0.0, 0.0, 0.0, 0.0, 0.0, 0.0, 1.6521761219643416E9, 0.0, 2022-05-10 11:48:41.964
115.0, -4908.554841107708, 4659.198779964302, -53120.08298874891, -39077.867755635714, -29190.461837108356, -19756.0140199678, -28836.8572398254, -23919.205238724382, -0.214, 0.98, 0.078, 192.0, 0.0, 0.0, 0.0, 0.0, 0.0, 0.0, 0.0, 0.0, 0.0, 1.6521761219643726E9, 0.0, 2022-05-10 11:48:41.964
116.0, -4889.041768198224, 4680.298826730112, -53108.30361942096, -39063.78615662887, -29176.49199682379, -19742.491214572336, -28824.541428630524, -23906.800020551687, -0.22, 0.974, 0.064, 192.0, 249.0, 32.0, 30.0, 112.0, 2.0, 0.0, 0.0, 0.0, 0.0, 1.6521761219644113E9, 0.0, 2022-05-10 11:48:41.964
117.0, -4895.4343671124425, 4673.660358626886, -53118.40660791476, -39073.88914512267, -29184.11394168305, -19753.555328077713, -28836.343149702927, -23917.08182300113, -0.22, 0.974, 0.064, 192.0, 0.0, 0.0, 0.0, 0.0, 0.0, 0.0, 0.0, 0.0, 0.0, 1.652176121964446E9, 0.0, 2022-05-10 11:48:41.964
118.0, -4920.691838346939, 4656.11423922947, -53131.97411679913, -39087.9260406406, -29205.862189038064, -19771.43672364196, -28855.923277845777, -23932.772747608753, -0.22, 0.974, 0.064, 192.0, 0.0, 0.0, 0.0, 0.0, 0.0, 0.0, 0.0, 0.0, 0.0, 1.6521761219644878E9, 0.0, 2022-05-10 11:48:41.964
119.0, -4909.247745185822, 4659.645814853408, -53117.55724162546, -39077.06309283532, -29198.888444768007, -19761.937232248456, -28846.826117852466, -23923.183849237426, -0.22, 0.974, 0.064, 192.0, 0.0, 0.0, 0.0, 0.0, 0.0, 0.0, 0.0, 0.0, 0.0, 1.652176121964518E9, 0.0, 2022-05-10 11:48:41.964
120.0, -4895.322608390165, 4670.1511347474025, -53102.31335190694, -39064.523764195896, -29183.82336900513, -19750.739008276345, -28831.001082778108, -23907.336462418614, -0.22, 0.974, 0.064, 192.0, 0.0, 0.0, 0.0, 0.0, 0.0, 0.0, 0.0, 0.0, 0.0, 1.6521761219645517E9, 0.0, 2022-05-10 11:48:41.964
121.0, -4891.29929438821, 4681.394062208422, -53099.36292163884, -39059.136993782166, -29181.074104437128, -19748.8614617421, -28823.557951874493, -23897.747564047288, -0.22, 0.974, 0.064, 192.0, 0.0, 0.0, 0.0, 0.0, 0.0, 0.0, 0.0, 0.0, 0.0, 1.6521761224019132E9, 0.0, 2022-05-10 11:48:42.401
122.0, -4902.6539805715065, 4676.409623194888, -53113.89155553479, -39070.64814217665, -29194.038116221207, -19760.216147925395, -28831.09048975593, -23906.867075785052, -0.22, 0.974, 0.064, 192.0, 0.0, 0.0, 0.0, 0.0, 0.0, 0.0, 0.0, 0.0, 0.0, 1.6521761224020972E9, 0.0, 2022-05-10 11:48:42.402
123.0, -4911.549974864719, 4665.613730622975, -53125.20153822918, -39081.46638649302, -29207.851494294584, -19772.308441675716, -28850.536507432047, -23917.68532010142, -0.22, 0.974, 0.064, 192.0, 0.0, 0.0, 0.0, 0.0, 0.0, 0.0, 0.0, 0.0, 0.0, 1.6521761224021025E9, 0.0, 2022-05-10 11:48:42.402
124.0, -4908.532489363252, 4663.333852688534, -53121.35703818286, -39079.29826728085, -29206.77861056073, -19779.796276068246, -28852.838737110942, -23931.476346430343, -0.22, 0.974, 0.064, 192.0, 0.0, 0.0, 0.0, 0.0, 0.0, 0.0, 0.0, 0.0, 0.0, 1.6521761224021091E9, 0.0, 2022-05-10 11:48:42.402
125.0, -4905.9396870064365, 4663.937349788827, -53116.12672998032, -39077.64423819116, -29204.5434361152, -19780.422124912995, -28844.590943406936, -23919.92049454695, -0.22, 0.974, 0.064, 192.0, 0.0, 0.0, 0.0, 0.0, 0.0, 0.0, 0.0, 0.0, 0.0, 1.6521761224021146E9, 0.0, 2022-05-10 11:48:42.402
126.0, -4903.190422438433, 4669.078251013548, -53114.89738403528, -39077.91245912462, -29204.431677392924, -19781.137380735563, -28843.00396955061, -23913.30437818818, -0.226, 0.996, 0.054, 192.0, 248.0, 240.0, 31.0, 32.0, 1.0, 176.0, 0.0, 0.0, 0.0, 1.6521761224021194E9, 0.0, 2022-05-10 11:48:42.402
127.0, -4914.500405132819, 4656.87419854095, -53134.49986392258, -39096.30794481134, -29221.754279345787, -19800.069308289207, -28863.746388405132, -23931.051663285692, -0.226, 0.996, 0.054, 192.0, 0.0, 0.0, 0.0, 0.0, 0.0, 0.0, 0.0, 0.0, 0.0, 1.6521761224021242E9, 0.0, 2022-05-10 11:48:42.402
128.0, -4914.902736533015, 4653.610843850475, -53137.62910814633, -39094.45275002155, -29225.777593347742, -19802.706814134934, -28866.7638739066, -23931.766919108264, -0.226, 0.996, 0.054, 192.0, 0.0, 0.0, 0.0, 0.0, 0.0, 0.0, 0.0, 0.0, 0.0, 1.652176122402146E9, 0.0, 2022-05-10 11:48:42.402
129.0, -4919.060161001702, 4648.067611225559, -53134.27634647803, -39090.60824997524, -29219.653215366987, -19802.215075756918, -28861.734731404154, -23939.411215711978, -0.226, 0.996, 0.054, 192.0, 0.0, 0.0, 0.0, 0.0, 0.0, 0.0, 0.0, 0.0, 0.0, 1.652176122402151E9, 0.0, 2022-05-10 11:48:42.402
130.0, -4914.209832454901, 4648.559349603575, -53127.950802797175, -39084.95325862805, -29216.83689556562, -19795.53190416478, -28868.395551251837, -23945.513241948276, -0.226, 0.996, 0.054, 192.0, 0.0, 0.0, 0.0, 0.0, 0.0, 0.0, 0.0, 0.0, 0.0, 1.6521761224021552E9, 0.0, 2022-05-10 11:48:42.402
131.0, -4911.862899287093, 4655.3989834069, -53126.073256262935, -39078.20303180254, -29212.187732718914, -19785.898302304544, -28860.952420348218, -23905.257750184268, -0.226, 0.996, 0.054, 192.0, 0.0, 0.0, 0.0, 0.0, 0.0, 0.0, 0.0, 0.0, 0.0, 1.65217612240216E9, 0.0, 2022-05-10 11:48:42.402
132.0, -4907.325495162666, 4666.328986445545, -53127.90609930827, -39074.224421289495, -29200.073087224137, -19784.82541857069, -28840.52292591607, -23891.690241299897, -0.226, 0.996, 0.054, 192.0, 0.0, 0.0, 0.0, 0.0, 0.0, 0.0, 0.0, 0.0, 0.0, 1.6521761224021645E9, 0.0, 2022-05-10 11:48:42.402
133.0, -4909.158338208001, 4663.11033524398, -53141.22773900363, -39084.19329931656, -29212.88063679703, -19796.984767554375, -28842.93691431724, -23914.287854944214, -0.226, 0.996, 0.054, 192.0, 0.0, 0.0, 0.0, 0.0, 0.0, 0.0, 0.0, 0.0, 0.0, 1.6521761224021688E9, 0.0, 2022-05-10 11:48:42.402
134.0, -4909.963001008392, 4660.49518114271, -53147.866207106854, -39086.92021214011, -29220.681395611933, -19803.10914553513, -28854.51511794509, -23936.706654632886, -0.226, 0.996, 0.054, 192.0, 0.0, 0.0, 0.0, 0.0, 0.0, 0.0, 0.0, 0.0, 0.0, 1.6521761224021735E9, 0.0, 2022-05-10 11:48:42.402
135.0, -4907.727826562861, 4664.451439911299, -53139.03726804701, -39078.73947366947, -29205.5939681046, -19796.023642542797, -28844.680350384755, -23918.06529975716, -0.226, 0.996, 0.054, 192.0, 0.0, 0.0, 0.0, 0.0, 0.0, 0.0, 0.0, 0.0, 0.0, 1.6521761224021783E9, 0.0, 2022-05-10 11:48:42.402
136.0, -4912.041713242736, 4658.036489252626, -53143.14998902679, -39083.053360349346, -29211.11484898506, -19799.19759025545, -28849.28480974255, -23915.517200889255, -0.20600000000000002, 1.002, 0.052000000000000005, 192.0, 249.0, 144.0, 31.0, 80.0, 1.0, 160.0, 0.0, 0.0, 0.0, 1.6521761224021823E9, 0.0, 2022-05-10 11:48:42.402
137.0, -4908.4654341298865, 4661.92569278785, -53146.5921576729, -39085.40029351715, -29211.606587363076, -19802.773869368302, -28852.61521966639, -23920.255770713782, -0.20600000000000002, 1.002, 0.052000000000000005, 192.0, 0.0, 0.0, 0.0, 0.0, 0.0, 0.0, 0.0, 0.0, 0.0, 1.652176122402187E9, 0.0, 2022-05-10 11:48:42.402
138.0, -4915.64034410004, 4655.153114217891, -53159.57852120144, -39097.06790412282, -29227.856305582085, -19817.168392797517, -28869.110807074405, -23937.734834877832, -0.20600000000000002, 1.002, 0.052000000000000005, 192.0, 0.0, 0.0, 0.0, 0.0, 0.0, 0.0, 0.0, 0.0, 0.0, 1.6521761224021912E9, 0.0, 2022-05-10 11:48:42.402
139.0, -4910.767663808783, 4659.310538686578, -53151.6436519198, -39088.37307552971, -29224.570599147155, -19812.563933439724, -28865.19925179473, -23937.01957905526, -0.20600000000000002, 1.002, 0.052000000000000005, 192.0, 0.0, 0.0, 0.0, 0.0, 0.0, 0.0, 0.0, 0.0, 0.0, 1.6521761224021957E9, 0.0, 2022-05-10 11:48:42.402
140.0, -4908.890117274537, 4658.796448564106, -53139.976041314134, -39077.39836900215, -29208.902026283984, -19804.673767647, -28850.692969643234, -23925.50843066078, -0.20600000000000002, 1.002, 0.052000000000000005, 192.0, 0.0, 0.0, 0.0, 0.0, 0.0, 0.0, 0.0, 0.0, 0.0, 1.6521761224021997E9, 0.0, 2022-05-10 11:48:42.402
141.0, -4911.058236486702, 4652.090925227514, -53145.54162568351, -39080.371151014704, -29213.528837386235, -19813.5250584513, -28854.403359222815, -23931.543401663712, -0.20600000000000002, 1.002, 0.052000000000000005, 192.0, 0.0, 0.0, 0.0, 0.0, 0.0, 0.0, 0.0, 0.0, 0.0, 1.652176122402204E9, 0.0, 2022-05-10 11:48:42.402
142.0, -4916.668524344984, 4649.788695548617, -53156.78455314453, -39088.66364820763, -29225.151744502993, -19824.54446846777, -28868.149682062827, -23947.3013815047, -0.20600000000000002, 1.002, 0.052000000000000005, 192.0, 0.0, 0.0, 0.0, 0.0, 0.0, 0.0, 0.0, 0.0, 0.0, 1.6521761224022083E9, 0.0, 2022-05-10 11:48:42.402
143.0, -4927.978507039369, 4647.933500758827, -53160.78551540202, -39094.229232576996, -29230.06912828316, -19831.317047037726, -28874.586984465957, -23955.906803119997, -0.20600000000000002, 1.002, 0.052000000000000005, 192.0, 0.0, 0.0, 0.0, 0.0, 0.0, 0.0, 0.0, 0.0, 0.0, 1.6521761224022126E9, 0.0, 2022-05-10 11:48:42.402
144.0, -4914.7462743218275, 4650.816875793562, -53145.295756494495, -39078.65006669165, -29214.847590309095, -19817.928352109, -28855.18567027875, -23941.10994829058, -0.20600000000000002, 1.002, 0.052000000000000005, 192.0, 0.0, 0.0, 0.0, 0.0, 0.0, 0.0, 0.0, 0.0, 0.0, 1.652176122402217E9, 0.0, 2022-05-10 11:48:42.402
145.0, -4904.509175361297, 4649.788695548617, -53139.32784072493, -39074.29147652286, -29208.365584417057, -19813.16743054002, -28851.38587372135, -23934.471480187356, -0.20600000000000002, 1.002, 0.052000000000000005, 192.0, 0.0, 0.0, 0.0, 0.0, 0.0, 0.0, 0.0, 0.0, 0.0, 1.6521761224022217E9, 0.0, 2022-05-10 11:48:42.402
146.0, -4909.024227741269, 4654.5943206065085, -53140.199558758686, -39075.073787578796, -29208.097363483594, -19818.285980020282, -28856.012684823596, -23939.522974434254, -0.202, 1.014, 0.05, 192.0, 249.0, 176.0, 31.0, 176.0, 1.0, 144.0, 0.0, 0.0, 0.0, 1.652176122402226E9, 0.0, 2022-05-10 11:48:42.402
147.0, -4914.232184199355, 4654.72843107324, -53148.2461867626, -39080.72877892599, -29214.35585193108, -19831.093529593174, -28864.95338260572, -23950.58708793963, -0.202, 1.014, 0.05, 192.0, 0.0, 0.0, 0.0, 0.0, 0.0, 0.0, 0.0, 0.0, 0.0, 1.6521761224022524E9, 0.0, 2022-05-10 11:48:42.402
148.0, -4914.5674603661855, 4654.370803161955, -53150.9954513306, -39082.51691848242, -29220.949616545397, -19834.714512194936, -28864.61810643889, -23948.910707105486, -0.202, 1.014, 0.05, 192.0, 0.0, 0.0, 0.0, 0.0, 0.0, 0.0, 0.0, 0.0, 0.0, 1.6521761224022565E9, 0.0, 2022-05-10 11:48:42.402
149.0, -4914.053370243713, 4653.879064783939, -53149.98962283011, -39084.7744446724, -29223.20714273538, -19836.41324477354, -28861.48886221515, -23950.654143172997, -0.202, 1.014, 0.05, 192.0, 0.0, 0.0, 0.0, 0.0, 0.0, 0.0, 0.0, 0.0, 0.0, 1.6521761224022605E9, 0.0, 2022-05-10 11:48:42.402
150.0, -4909.046579485725, 4658.505875886188, -53139.79722735849, -39076.50429922394, -29213.372375175048, -19826.86904989112, -28859.097225558427, -23950.631791428543, -0.202, 1.014, 0.05, 192.0, 0.0, 0.0, 0.0, 0.0, 0.0, 0.0, 0.0, 0.0, 0.0, 1.6521761224022677E9, 0.0, 2022-05-10 11:48:42.402
151.0, -4906.520832362275, 4661.612768365475, -53134.812788344956, -39070.938714854565, -29201.414191891457, -19821.035244588285, -28858.471376713682, -23961.02535260026, -0.202, 1.014, 0.05, 192.0, 0.0, 0.0, 0.0, 0.0, 0.0, 0.0, 0.0, 0.0, 0.0, 1.652176122402272E9, 0.0, 2022-05-10 11:48:42.402
152.0, -4919.2613267018, 4652.87323628345, -53147.91091059577, -39083.455691749536, -29215.004052520282, -19829.55125922576, -28870.027228597075, -23958.96899211037, -0.202, 1.014, 0.05, 192.0, 0.0, 0.0, 0.0, 0.0, 0.0, 0.0, 0.0, 0.0, 0.0, 1.6521761224022763E9, 0.0, 2022-05-10 11:48:42.402
153.0, -4935.064010031701, 4642.278509411634, -53160.71846016866, -39097.49258726747, -29233.31013122918, -19837.195555829472, -28885.5169875046, -23959.84071014413, -0.202, 1.014, 0.05, 192.0, 0.0, 0.0, 0.0, 0.0, 0.0, 0.0, 0.0, 0.0, 0.0, 1.6521761224022803E9, 0.0, 2022-05-10 11:48:42.402
154.0, -4927.933803550459, 4638.29989889859, -53156.00224208859, -39094.83272967729, -29229.577389905142, -19834.267477305828, -28881.717190947198, -23960.82418690016, -0.202, 1.014, 0.05, 192.0, 0.0, 0.0, 0.0, 0.0, 0.0, 0.0, 0.0, 0.0, 0.0, 1.6521761224022844E9, 0.0, 2022-05-10 11:48:42.402
155.0, -4925.4304081714645, 4637.6293465649305, -53152.73888739811, -39092.57520348731, -29225.375261947545, -19830.042997603774, -28870.541318719545, -23953.06813157417, -0.202, 1.014, 0.05, 192.0, 0.0, 0.0, 0.0, 0.0, 0.0, 0.0, 0.0, 0.0, 0.0, 1.6521761224022887E9, 0.0, 2022-05-10 11:48:42.402
156.0, -4918.009629012302, 4651.934463016327, -53142.85941634887, -39083.23217430498, -29213.014747263762, -19813.882686362587, -28860.348923247926, -23948.910707105486, -0.216, 1.02, 0.056, 192.0, 249.0, 64.0, 31.0, 224.0, 1.0, 192.0, 0.0, 0.0, 0.0, 1.6521761224022927E9, 0.0, 2022-05-10 11:48:42.402
157.0, -4925.408056427009, 4644.334869901522, -53147.732096640124, -39088.48483425198, -29213.014747263762, -19812.988616584375, -28863.746388405132, -23943.83686111413, -0.216, 1.02, 0.056, 192.0, 0.0, 0.0, 0.0, 0.0, 0.0, 0.0, 0.0, 0.0, 0.0, 1.6521761224022968E9, 0.0, 2022-05-10 11:48:42.402
158.0, -4931.107751263113, 4636.53411108662, -53146.1451227838, -39092.21757557602, -29207.918549527953, -19806.59601767016, -28859.94659184773, -23938.114814533572, -0.216, 1.02, 0.056, 192.0, 0.0, 0.0, 0.0, 0.0, 0.0, 0.0, 0.0, 0.0, 0.0, 1.6521761224023013E9, 0.0, 2022-05-10 11:48:42.402
159.0, -4925.676277360472, 4634.231881407724, -53139.70782038067, -39091.32350579781, -29210.91368328496, -19796.470677431906, -28859.298391258526, -23942.652218657997, -0.216, 1.02, 0.056, 192.0, 0.0, 0.0, 0.0, 0.0, 0.0, 0.0, 0.0, 0.0, 0.0, 1.6521761224023051E9, 0.0, 2022-05-10 11:48:42.402
160.0, -4932.895890819537, 4630.476788339232, -53141.96534657066, -39096.50911051144, -29211.53953212971, -19800.62810190059, -28858.650190669323, -23956.644410687022, -0.216, 1.02, 0.056, 192.0, 0.0, 0.0, 0.0, 0.0, 0.0, 0.0, 0.0, 0.0, 0.0, 1.6521761224023092E9, 0.0, 2022-05-10 11:48:42.402
161.0, -4932.761780352805, 4637.070552953548, -53139.41724770275, -39094.89978491065, -29208.49969488379, -19799.510514677826, -28857.08556855745, -23958.879585132552, -0.216, 1.02, 0.056, 192.0, 0.0, 0.0, 0.0, 0.0, 0.0, 0.0, 0.0, 0.0, 0.0, 1.6521761224023137E9, 0.0, 2022-05-10 11:48:42.402
162.0, -4937.5227019217855, 4641.473846611243, -53149.02849781853, -39101.560604758335, -29215.428735664933, -19807.64654965956, -28870.787187908554, -23959.08075083265, -0.216, 1.02, 0.056, 192.0, 0.0, 0.0, 0.0, 0.0, 0.0, 0.0, 0.0, 0.0, 0.0, 1.6521761224023175E9, 0.0, 2022-05-10 11:48:42.402
163.0, -4919.551899379719, 4652.202683949791, -53134.23164298912, -39086.8755086512, -29194.48515111031, -19788.982843039375, -28855.453891212215, -23930.045834785204, -0.216, 1.02, 0.056, 192.0, 0.0, 0.0, 0.0, 0.0, 0.0, 0.0, 0.0, 0.0, 0.0, 1.6521761224023218E9, 0.0, 2022-05-10 11:48:42.402
164.0, -4917.473187145375, 4639.708058799274, -53133.628145888826, -39088.574241229806, -29196.183883688915, -19789.318119206207, -28857.107920301907, -23929.73291036283, -0.216, 1.02, 0.056, 192.0, 0.0, 0.0, 0.0, 0.0, 0.0, 0.0, 0.0, 0.0, 0.0, 1.6521761224023263E9, 0.0, 2022-05-10 11:48:42.402
165.0, -4912.958134765403, 4645.944195502305, -53127.392009185794, -39082.002828359946, -29198.508465112267, -19782.567892380703, -28854.448062711726, -23930.984608052328, -0.216, 1.02, 0.056, 192.0, 0.0, 0.0, 0.0, 0.0, 0.0, 0.0, 0.0, 0.0, 0.0, 1.6521761224023304E9, 0.0, 2022-05-10 11:48:42.402
166.0, -4904.106843961102, 4654.996652006705, -53123.12282599483, -39076.41489224612, -29194.82042727714, -19778.321060934195, -28852.03407431055, -23935.276142987746, -0.218, 1.008, 0.066, 192.0, 249.0, 48.0, 31.0, 128.0, 2.0, 16.0, 0.0, 0.0, 0.0, 1.6521761224023347E9, 0.0, 2022-05-10 11:48:42.402
167.0, -4912.108768476101, 4653.074401983547, -53133.42698018873, -39084.05918884983, -29208.320880928146, -19790.279244217785, -28866.495652973135, -23958.566660710178, -0.218, 1.008, 0.066, 192.0, 0.0, 0.0, 0.0, 0.0, 0.0, 0.0, 0.0, 0.0, 0.0, 1.6521761224023387E9, 0.0, 2022-05-10 11:48:42.402
168.0, -4921.205928469411, 4644.848960023995, -53145.295756494495, -39095.0785988663, -29222.648349124, -19799.8234391002, -28876.576289722478, -23955.280954275247, -0.218, 1.008, 0.066, 192.0, 0.0, 0.0, 0.0, 0.0, 0.0, 0.0, 0.0, 0.0, 0.0, 1.6521761224023433E9, 0.0, 2022-05-10 11:48:42.402
169.0, -4917.517890634285, 4640.736239044219, -53141.160683770264, -39092.53049999839, -29216.054584509682, -19799.801087355743, -28875.637516455357, -23954.766864152774, -0.218, 1.008, 0.066, 192.0, 0.0, 0.0, 0.0, 0.0, 0.0, 0.0, 0.0, 0.0, 0.0, 1.652176122402347E9, 0.0, 2022-05-10 11:48:42.402
170.0, -4912.73461732085, 4647.888797269917, -53127.816692330445, -39080.393502759165, -29202.218854691848, -19791.91092156302, -28863.880498871866, -23947.07786406015, -0.218, 1.008, 0.066, 192.0, 0.0, 0.0, 0.0, 0.0, 0.0, 0.0, 0.0, 0.0, 0.0, 1.6521761224023516E9, 0.0, 2022-05-10 11:48:42.402
171.0, -4909.046579485725, 4662.2833206991345, -53117.4901863921, -39074.00090384494, -29190.640651063997, -19782.52318889179, -28851.698798143723, -23936.572544166156, -0.218, 1.008, 0.066, 192.0, 0.0, 0.0, 0.0, 0.0, 0.0, 0.0, 0.0, 0.0, 0.0, 1.652176122402361E9, 0.0, 2022-05-10 11:48:42.402
172.0, -4904.486823616841, 4671.983977792737, -53118.56307012595, -39074.80556664534, -29190.618299319543, -19781.785581324766, -28853.28577200005, -23949.201279783403, -0.218, 1.008, 0.066, 192.0, 0.0, 0.0, 0.0, 0.0, 0.0, 0.0, 0.0, 0.0, 0.0, 1.6521761224023647E9, 0.0, 2022-05-10 11:48:42.402
173.0, -4914.54510862173, 4655.264872940168, -53130.45419817617, -39085.84732840626, -29199.35783140157, -19792.40265994104, -28860.505385459113, -23942.562811680178, -0.218, 1.008, 0.066, 192.0, 0.0, 0.0, 0.0, 0.0, 0.0, 0.0, 0.0, 0.0, 0.0, 1.6521761224023693E9, 0.0, 2022-05-10 11:48:42.402
174.0, -4918.076684245669, 4644.513683857165, -53130.49890166509, -39086.62963946219, -29199.40253489048, -19794.459020430928, -28857.398492979824, -23941.13230003504, -0.218, 1.008, 0.066, 192.0, 0.0, 0.0, 0.0, 0.0, 0.0, 0.0, 0.0, 0.0, 0.0, 1.6521761224023738E9, 0.0, 2022-05-10 11:48:42.402
175.0, -4891.701625788406, 4661.545713132109, -53111.522270622525, -39067.34008399726, -29176.3355346126, -19775.683555088468, -28838.980655548654, -23931.25282898579, -0.218, 1.008, 0.066, 192.0, 0.0, 0.0, 0.0, 0.0, 0.0, 0.0, 0.0, 0.0, 0.0, 1.652176122402378E9, 0.0, 2022-05-10 11:48:42.402
176.0, -4877.48591631483, 4678.242466240224, -53104.682636819205, -39058.04175830386, -29166.4337118189, -19764.753552049824, -28827.84948680991, -23911.270369442747, -0.224, 0.994, 0.066, 192.0, 249.0, 0.0, 31.0, 16.0, 2.0, 16.0, 0.0, 0.0, 0.0, 1.6521761224023843E9, 0.0, 2022-05-10 11:48:42.402
177.0, -4889.153526920501, 4678.644797640419, -53115.92556428022, -39065.216668274006, -29176.11201716805, -19774.029525998776, -28836.79018459203, -23926.73777660582, -0.224, 0.994, 0.066, 192.0, 0.0, 0.0, 0.0, 0.0, 0.0, 0.0, 0.0, 0.0, 0.0, 1.6521761224023886E9, 0.0, 2022-05-10 11:48:42.402
178.0, -4910.499442875319, 4662.260968954679, -53136.779741857026, -39087.45665400704, -29194.82042727714, -19796.805953598734, -28857.063216812996, -23946.049683815203, -0.224, 0.994, 0.066, 192.0, 0.0, 0.0, 0.0, 0.0, 0.0, 0.0, 0.0, 0.0, 0.0, 1.652176122402393E9, 0.0, 2022-05-10 11:48:42.402
179.0, -4922.345867436632, 4646.838265280517, -53138.67964013573, -39096.039723877875, -29201.145970957994, -19802.528000179293, -28864.863975627897, -23949.268335016768, -0.224, 0.994, 0.066, 192.0, 0.0, 0.0, 0.0, 0.0, 0.0, 0.0, 0.0, 0.0, 0.0, 1.6521761224023979E9, 0.0, 2022-05-10 11:48:42.402
180.0, -4900.329399148154, 4660.942216031815, -53114.62916310182, -39074.649104434146, -29180.783531759207, -19784.11016274812, -28846.379082963358, -23943.88156460304, -0.224, 0.994, 0.066, 192.0, 0.0, 0.0, 0.0, 0.0, 0.0, 0.0, 0.0, 0.0, 0.0, 1.6521761224024026E9, 0.0, 2022-05-10 11:48:42.402
181.0, -4909.024227741269, 4653.92376827285, -53125.67092486274, -39083.58980221627, -29189.076028952128, -19791.620348885102, -28853.889269100342, -23941.087596546127, -0.224, 0.994, 0.066, 192.0, 0.0, 0.0, 0.0, 0.0, 0.0, 0.0, 0.0, 0.0, 0.0, 1.6521761224024076E9, 0.0, 2022-05-10 11:48:42.402
182.0, -4920.200099968923, 4652.605015349986, -53142.09945703739, -39095.346819799764, -29206.063354738162, -19806.10427929214, -28882.43244676977, -23951.88348911804, -0.224, 0.994, 0.066, 192.0, 0.0, 0.0, 0.0, 0.0, 0.0, 0.0, 0.0, 0.0, 0.0, 1.6521761224024131E9, 0.0, 2022-05-10 11:48:42.402
183.0, -4923.284640703755, 4653.990823506216, -53141.875939592835, -39095.413875033126, -29203.78347680372, -19810.753442138845, -28878.878519401376, -23962.83584390114, -0.224, 0.994, 0.066, 192.0, 0.0, 0.0, 0.0, 0.0, 0.0, 0.0, 0.0, 0.0, 0.0, 1.6521761224024184E9, 0.0, 2022-05-10 11:48:42.402
184.0, -4928.537300650752, 4643.418448378855, -53139.66311689176, -39095.79385468887, -29208.946729772895, -19811.759270639333, -28863.500519216126, -23954.230422285847, -0.224, 0.994, 0.066, 192.0, 0.0, 0.0, 0.0, 0.0, 0.0, 0.0, 0.0, 0.0, 0.0, 1.652176122402423E9, 0.0, 2022-05-10 11:48:42.402
185.0, -4911.125291720068, 4653.141457216913, -53125.91679405174, -39081.086406837276, -29195.803904033175, -19796.62713964309, -28850.5588591765, -23943.83686111413, -0.224, 0.994, 0.066, 192.0, 0.0, 0.0, 0.0, 0.0, 0.0, 0.0, 0.0, 0.0, 0.0, 1.6521761224024274E9, 0.0, 2022-05-10 11:48:42.402
186.0, -4908.286620174244, 4653.432029894832, -53131.50473016557, -39083.85802314973, -29195.91566275545, -19797.811782099223, -28855.69976040122, -23948.97776233885, -0.232, 0.99, 0.076, 192.0, 248.0, 192.0, 30.0, 240.0, 2.0, 96.0, 0.0, 0.0, 0.0, 1.6521761224024324E9, 0.0, 2022-05-10 11:48:42.402
187.0, -4918.143739479035, 4649.878102526439, -53141.49595993709, -39091.725837198, -29200.58717734661, -19803.69029089097, -28863.56757444949, -23954.520994963765, -0.232, 0.99, 0.076, 192.0, 0.0, 0.0, 0.0, 0.0, 0.0, 0.0, 0.0, 0.0, 0.0, 1.6521761224024367E9, 0.0, 2022-05-10 11:48:42.402
188.0, -4924.625745371073, 4641.116218699958, -53150.30254725248, -39099.59365124627, -29213.35002343059, -19812.943913095467, -28873.782321665567, -23963.72991367935, -0.232, 0.99, 0.076, 192.0, 0.0, 0.0, 0.0, 0.0, 0.0, 0.0, 0.0, 0.0, 0.0, 1.6521761224024413E9, 0.0, 2022-05-10 11:48:42.402
189.0, -4921.07181800268, 4646.838265280517, -53142.23356750412, -39091.18939533107, -29210.176075717936, -19805.25491300284, -28867.076798328973, -23957.56083220969, -0.232, 0.99, 0.076, 192.0, 0.0, 0.0, 0.0, 0.0, 0.0, 0.0, 0.0, 0.0, 0.0, 1.6521761224024467E9, 0.0, 2022-05-10 11:48:42.402
190.0, -4918.747236579327, 4651.375669404944, -53135.304526722975, -39082.896898138155, -29203.202331447883, -19798.750555366347, -28862.070007570986, -23952.531689707244, -0.232, 0.99, 0.076, 192.0, 0.0, 0.0, 0.0, 0.0, 0.0, 0.0, 0.0, 0.0, 0.0, 1.652176122402452E9, 0.0, 2022-05-10 11:48:42.402
191.0, -4905.44794862842, 4660.53988463162, -53126.006201029566, -39071.095177065756, -29192.495845853788, -19789.362822695115, -28853.553992933514, -23945.44618671491, -0.232, 0.99, 0.076, 192.0, 0.0, 0.0, 0.0, 0.0, 0.0, 0.0, 0.0, 0.0, 0.0, 1.6521761224024563E9, 0.0, 2022-05-10 11:48:42.402
192.0, -4925.877443060571, 4644.603090834987, -53146.70391639518, -39089.66947670811, -29213.037099008216, -19808.674729904502, -28873.20117630973, -23961.83001540065, -0.232, 0.99, 0.076, 192.0, 0.0, 0.0, 0.0, 0.0, 0.0, 0.0, 0.0, 0.0, 0.0, 1.6521761224024637E9, 0.0, 2022-05-10 11:48:42.402
193.0, -4945.234053758866, 4629.135683671914, -53167.82631490545, -39110.61306126274, -29231.65610213949, -19828.612485958634, -28895.418810298303, -23979.55494875371, -0.232, 0.99, 0.076, 192.0, 0.0, 0.0, 0.0, 0.0, 0.0, 0.0, 0.0, 0.0, 0.0, 1.652176122402468E9, 0.0, 2022-05-10 11:48:42.402
194.0, -4931.800655341227, 4637.562291331565, -53156.18105604423, -39096.822034933815, -29219.45204966689, -19816.92252360851, -28882.544205492046, -23967.5073584923, -0.232, 0.99, 0.076, 192.0, 0.0, 0.0, 0.0, 0.0, 0.0, 0.0, 0.0, 0.0, 0.0, 1.6521761224024725E9, 0.0, 2022-05-10 11:48:42.402
195.0, -4919.663658101995, 4639.193968676802, -53145.38516347232, -39084.573278972304, -29205.52691287123, -19806.5736659257, -28857.823176124475, -23950.810605384184, -0.232, 0.988, 0.082, 192.0, 248.0, 192.0, 30.0, 224.0, 2.0, 144.0, 0.0, 0.0, 0.0, 1.6521761224024768E9, 0.0, 2022-05-10 11:48:42.402
196.0, -4935.779265854271, 4635.170654674846, -53158.863265378866, -39096.531462255894, -29216.50161939879, -19820.051767832254, -28870.206042552716, -23962.27705028976, -0.232, 0.988, 0.082, 192.0, 0.0, 0.0, 0.0, 0.0, 0.0, 0.0, 0.0, 0.0, 0.0, 1.6521761224024813E9, 0.0, 2022-05-10 11:48:42.402
197.0, -4935.086361776157, 4646.771210047151, -53160.85257063539, -39094.855081421745, -29214.53466588672, -19821.63874168858, -28873.357638520916, -23963.17112006797, -0.232, 0.988, 0.082, 192.0, 0.0, 0.0, 0.0, 0.0, 0.0, 0.0, 0.0, 0.0, 0.0, 1.6521761224024854E9, 0.0, 2022-05-10 11:48:42.402
198.0, -4935.376934454076, 4642.367916389456, -53171.916684140764, -39103.97459315951, -29223.743584602307, -19833.954552883453, -28889.20502533973, -23976.425704529967, -0.232, 0.988, 0.082, 192.0, 0.0, 0.0, 0.0, 0.0, 0.0, 0.0, 0.0, 0.0, 0.0, 1.6521761224024897E9, 0.0, 2022-05-10 11:48:42.402
199.0, -4927.576175639174, 4644.87131176845, -53164.80882940398, -39096.26324132243, -29222.15661074598, -19827.53960222478, -28888.556824750525, -23970.614250971586, -0.232, 0.988, 0.082, 192.0, 0.0, 0.0, 0.0, 0.0, 0.0, 0.0, 0.0, 0.0, 0.0, 1.6521761224024937E9, 0.0, 2022-05-10 11:48:42.402
200.0, -4924.35752443761, 4641.876178011439, -53158.34917525639, -39089.37890403019, -29218.803849077685, -19821.906962622044, -28862.33822850445, -23956.823224642663, -0.232, 0.988, 0.082, 192.0, 0.0, 0.0, 0.0, 0.0, 0.0, 0.0, 0.0, 0.0, 0.0, 1.6521761224024985E9, 0.0, 2022-05-10 11:48:42.402
201.0, -4924.40222792652, 4649.453419381788, -53152.40361123128, -39083.656857449634, -29215.607549620578, -19813.63681717358, -28858.38196973586, -23950.385922239533, -0.232, 0.988, 0.082, 192.0, 0.0, 0.0, 0.0, 0.0, 0.0, 0.0, 0.0, 0.0, 0.0, 1.6521761224025068E9, 0.0, 2022-05-10 11:48:42.402
202.0, -4916.646172600529, 4663.467963155265, -53145.87690185034, -39076.34783701275, -29211.6959943409, -19812.74274739537, -28854.403359222815, -23952.442282729422, -0.232, 0.988, 0.082, 192.0, 0.0, 0.0, 0.0, 0.0, 0.0, 0.0, 0.0, 0.0, 0.0, 1.6521761224025114E9, 0.0, 2022-05-10 11:48:42.402
203.0, -4918.099035990123, 4667.804201579595, -53143.32880298243, -39074.76086315642, -29208.052659994682, -19813.860334618133, -28852.928144088764, -23945.960276837384, -0.232, 0.988, 0.082, 192.0, 0.0, 0.0, 0.0, 0.0, 0.0, 0.0, 0.0, 0.0, 0.0, 1.652176122402516E9, 0.0, 2022-05-10 11:48:42.402
204.0, -4926.592698883141, 4651.241558938213, -53149.67669840774, -39084.506223738936, -29221.30724445668, -19825.907924879542, -28862.695856415732, -23952.866965874073, -0.232, 0.988, 0.082, 192.0, 0.0, 0.0, 0.0, 0.0, 0.0, 0.0, 0.0, 0.0, 0.0, 1.6521761224025202E9, 0.0, 2022-05-10 11:48:42.402
205.0, -4915.416826655487, 4648.022907736648, -53144.93812858321, -39080.43820624807, -29221.933093301428, -19821.057596332743, -28871.971830364684, -23951.16823329547, -0.228, 0.996, 0.078, 192.0, 248.0, 224.0, 31.0, 32.0, 2.0, 112.0, 0.0, 0.0, 0.0, 1.652176122402526E9, 0.0, 2022-05-10 11:48:42.402
206.0, -4907.63841958504, 4660.852809053995, -53137.047962790486, -39075.23024978999, -29212.947692030397, -19816.319026508216, -28866.518004717593, -23948.7542448943, -0.228, 0.996, 0.078, 192.0, 0.0, 0.0, 0.0, 0.0, 0.0, 0.0, 0.0, 0.0, 0.0, 1.6521761224025316E9, 0.0, 2022-05-10 11:48:42.402
207.0, -4906.900812018015, 4667.804201579595, -53141.63007040383, -39082.002828359946, -29218.06624151066, -19824.276247534304, -28863.969905849684, -23957.426721742955, -0.228, 0.996, 0.078, 192.0, 0.0, 0.0, 0.0, 0.0, 0.0, 0.0, 0.0, 0.0, 0.0, 1.652176122402537E9, 0.0, 2022-05-10 11:48:42.402
208.0, -4917.316724934188, 4662.193913721313, -53145.89925359479, -39087.47900575149, -29217.552151388187, -19828.41132025854, -28867.590888451447, -23963.12641657906, -0.228, 0.996, 0.078, 192.0, 0.0, 0.0, 0.0, 0.0, 0.0, 0.0, 0.0, 0.0, 0.0, 1.6521761224025419E9, 0.0, 2022-05-10 11:48:42.402
209.0, -4930.660716374006, 4649.96750950426, -53144.535797183016, -39084.34976152775, -29220.524933400746, -19827.31608478023, -28879.236147312662, -23962.209995056393, -0.228, 0.996, 0.078, 192.0, 0.0, 0.0, 0.0, 0.0, 0.0, 0.0, 0.0, 0.0, 0.0, 1.652176122402552E9, 0.0, 2022-05-10 11:48:42.402
210.0, -4914.902736533015, 4658.818800308562, -53132.644669132795, -39066.98245608598, -29214.042927508704, -19814.463831718425, -28864.506347716615, -23951.324695506657, -0.228, 0.996, 0.078, 192.0, 0.0, 0.0, 0.0, 0.0, 0.0, 0.0, 0.0, 0.0, 0.0, 1.6521761224025586E9, 0.0, 2022-05-10 11:48:42.402
211.0, -4908.107806218602, 4664.831419567039, -53127.72728535262, -39062.64621766165, -29200.318956413146, -19798.080003032686, -28847.429614952758, -23943.45688145839, -0.228, 0.996, 0.078, 192.0, 0.0, 0.0, 0.0, 0.0, 0.0, 0.0, 0.0, 0.0, 0.0, 1.6521761224025638E9, 0.0, 2022-05-10 11:48:42.402
212.0, -4915.5732888666735, 4662.2833206991345, -53141.20538725918, -39074.33618001177, -29211.07014549615, -19809.144116538064, -28861.600620937425, -23954.677457174952, -0.228, 0.996, 0.078, 192.0, 0.0, 0.0, 0.0, 0.0, 0.0, 0.0, 0.0, 0.0, 0.0, 1.6521761224025688E9, 0.0, 2022-05-10 11:48:42.402
213.0, -4920.378913924565, 4650.571006604553, -53155.73402115513, -39084.79679641686, -29226.73871835932, -19825.282076034793, -28882.745371192144, -23969.720181193374, -0.228, 0.996, 0.078, 192.0, 0.0, 0.0, 0.0, 0.0, 0.0, 0.0, 0.0, 0.0, 0.0, 1.652176122402573E9, 0.0, 2022-05-10 11:48:42.402
214.0, -4929.274908217777, 4637.271718653646, -53157.47745722264, -39088.46248250753, -29228.862134082574, -19829.84183190368, -28879.504368246126, -23972.290631805736, -0.228, 0.996, 0.078, 192.0, 0.0, 0.0, 0.0, 0.0, 0.0, 0.0, 0.0, 0.0, 0.0, 1.65217612240258E9, 0.0, 2022-05-10 11:48:42.402
215.0, -4927.866748317093, 4635.215358163758, -53150.03432631902, -39086.42847376209, -29223.430660179933, -19824.410358001038, -28870.787187908554, -23971.843596916628, -0.228, 0.996, 0.07200000000000001, 192.0, 248.0, 224.0, 31.0, 32.0, 2.0, 64.0, 0.0, 0.0, 0.0, 1.6521761224025848E9, 0.0, 2022-05-10 11:48:42.402
216.0, -4913.852204543616, 4649.408715892878, -53134.27634647803, -39072.39157824416, -29209.282005939724, -19805.67959614749, -28861.04182732604, -23956.867928131574, -0.228, 0.996, 0.07200000000000001, 192.0, 0.0, 0.0, 0.0, 0.0, 0.0, 0.0, 0.0, 0.0, 0.0, 1.6521761224025888E9, 0.0, 2022-05-10 11:48:42.402
217.0, -4915.752102822316, 4649.364012403967, -53141.49595993709, -39079.901764381146, -29218.178000232936, -19814.173259040508, -28872.262403042605, -23955.571526953165, -0.228, 0.996, 0.07200000000000001, 192.0, 0.0, 0.0, 0.0, 0.0, 0.0, 0.0, 0.0, 0.0, 0.0, 1.6521761224025948E9, 0.0, 2022-05-10 11:48:42.402
218.0, -4918.54607087923, 4650.213378693268, -53147.77680012904, -39087.21078481803, -29228.191581748913, -19825.527945223803, -28884.354696792925, -23961.65120144501, -0.228, 0.996, 0.07200000000000001, 192.0, 0.0, 0.0, 0.0, 0.0, 0.0, 0.0, 0.0, 0.0, 0.0, 1.652176122402599E9, 0.0, 2022-05-10 11:48:42.402
219.0, -4920.781245324761, 4646.704154813785, -53145.98866057261, -39086.24965980645, -29229.085651527126, -19833.06048310524, -28885.405228782325, -23976.626870230066, -0.228, 0.996, 0.07200000000000001, 192.0, 0.0, 0.0, 0.0, 0.0, 0.0, 0.0, 0.0, 0.0, 0.0, 1.6521761224026043E9, 0.0, 2022-05-10 11:48:42.402
220.0, -4916.40030341152, 4646.055954224581, -53141.98769831511, -39080.92994462609, -29217.038061265717, -19834.178070328006, -28872.70943793171, -23985.634623245554, -0.228, 0.996, 0.07200000000000001, 192.0, 0.0, 0.0, 0.0, 0.0, 0.0, 0.0, 0.0, 0.0, 0.0, 1.6521761224026108E9, 0.0, 2022-05-10 11:48:42.402
221.0, -4907.437253884942, 4655.555445618087, -53134.388105200305, -39070.44697647655, -29208.92437802844, -19827.897230136066, -28861.064179070498, -23979.331431309158, -0.228, 0.996, 0.07200000000000001, 192.0, 0.0, 0.0, 0.0, 0.0, 0.0, 0.0, 0.0, 0.0, 0.0, 1.6521761224026165E9, 0.0, 2022-05-10 11:48:42.402
222.0, -4911.393512653532, 4652.046221738604, -53147.463875706664, -39083.053360349346, -29223.810639835676, -19839.386026786095, -28876.598641466935, -23970.278974804758, -0.228, 0.996, 0.07200000000000001, 192.0, 0.0, 0.0, 0.0, 0.0, 0.0, 0.0, 0.0, 0.0, 0.0, 1.6521761224026232E9, 0.0, 2022-05-10 11:48:42.402
223.0, -4925.676277360472, 4640.713887299763, -53160.51729446856, -39100.75594195795, -29238.40632896499, -19857.5356432838, -28897.7210399772, -23975.621041729577, -0.228, 0.996, 0.07200000000000001, 192.0, 0.0, 0.0, 0.0, 0.0, 0.0, 0.0, 0.0, 0.0, 0.0, 1.652176122402628E9, 0.0, 2022-05-10 11:48:42.402
224.0, -4922.949364536925, 4641.831474522528, -53145.54162568351, -39084.34976152775, -29237.422852208958, -19832.278172049308, -28887.305127061027, -23952.17406179596, -0.228, 0.996, 0.07200000000000001, 192.0, 0.0, 0.0, 0.0, 0.0, 0.0, 0.0, 0.0, 0.0, 0.0, 1.6521761224026322E9, 0.0, 2022-05-10 11:48:42.402
225.0, -4909.001875996813, 4643.105523956481, -53137.18207325722, -39069.1729270426, -29226.582256148133, -19814.128555551597, -28867.90381287382, -23926.380148694534, -0.222, 0.986, 0.066, 192.0, 249.0, 16.0, 30.0, 208.0, 2.0, 16.0, 0.0, 0.0, 0.0, 1.6521761224026363E9, 0.0, 2022-05-10 11:48:42.402
226.0, -4903.682160816451, 4647.709983314274, -53140.75835237007, -39071.94454335506, -29213.908817041975, -19825.147965568063, -28867.4120744958, -23942.36164598008, -0.222, 0.986, 0.066, 192.0, 0.0, 0.0, 0.0, 0.0, 0.0, 0.0, 0.0, 0.0, 0.0, 1.6521761224026408E9, 0.0, 2022-05-10 11:48:42.402
227.0, -4910.54414636423, 4664.004405022193, -53139.484302936115, -39071.16223229912, -29216.389860676514, -19829.439500503482, -28865.780397150567, -23951.659971673485, -0.222, 0.986, 0.066, 192.0, 0.0, 0.0, 0.0, 0.0, 0.0, 0.0, 0.0, 0.0, 0.0, 1.6521761228674169E9, 0.0, 2022-05-10 11:48:42.867
228.0, -4918.434312156954, 4657.4106404078775, -53150.77193388605, -39078.80652890284, -29232.349006217602, -19844.012837888342, -28878.297374045538, -23965.56275672469, -0.222, 0.986, 0.066, 192.0, 0.0, 0.0, 0.0, 0.0, 0.0, 0.0, 0.0, 0.0, 0.0, 1.652176122867648E9, 0.0, 2022-05-10 11:48:42.867
229.0, -4926.97267853888, 4631.750837773185, -53166.93224512723, -39091.54702324236, -29237.02052080876, -19858.31795433974, -28889.406191039827, -23982.103047621615, -0.222, 0.986, 0.066, 192.0, 0.0, 0.0, 0.0, 0.0, 0.0, 0.0, 0.0, 0.0, 0.0, 1.6521761228676553E9, 0.0, 2022-05-10 11:48:42.867
230.0, -4918.367256923587, 4633.24840465169, -53162.75246891409, -39086.316715039815, -29230.20323874989, -19853.31116358175, -28882.544205492046, -23981.23132958786, -0.222, 0.986, 0.066, 192.0, 0.0, 0.0, 0.0, 0.0, 0.0, 0.0, 0.0, 0.0, 0.0, 1.652176122867663E9, 0.0, 2022-05-10 11:48:42.867
231.0, -4931.264213474299, 4635.371820374945, -53160.80786714648, -39082.06988359331, -29226.11286951457, -19851.008933902853, -28874.117597832395, -23977.543291752732, -0.222, 0.986, 0.066, 192.0, 0.0, 0.0, 0.0, 0.0, 0.0, 0.0, 0.0, 0.0, 0.0, 1.6521761228676696E9, 0.0, 2022-05-10 11:48:42.867
232.0, -4944.697611891939, 4628.286317382613, -53170.30735853998, -39088.1272063407, -29231.27612248375, -19856.59687001668, -28881.404266524827, -23983.399448800024, -0.222, 0.986, 0.066, 192.0, 0.0, 0.0, 0.0, 0.0, 0.0, 0.0, 0.0, 0.0, 0.0, 1.6521761228676755E9, 0.0, 2022-05-10 11:48:42.867
233.0, -4939.109675778112, 4630.230919150224, -53173.99539637511, -39090.04945636386, -29234.271256240758, -19859.92727994052, -28882.343039791947, -23984.405277300513, -0.222, 0.986, 0.066, 192.0, 0.0, 0.0, 0.0, 0.0, 0.0, 0.0, 0.0, 0.0, 0.0, 1.652176122867682E9, 0.0, 2022-05-10 11:48:42.867
234.0, -4917.07085574518, 4636.757628531173, -53161.76899215806, -39080.3264475258, -29218.960311288873, -19851.701837980967, -28874.028190854573, -23975.41987602948, -0.222, 0.986, 0.066, 192.0, 0.0, 0.0, 0.0, 0.0, 0.0, 0.0, 0.0, 0.0, 0.0, 1.6521761228676867E9, 0.0, 2022-05-10 11:48:42.867
235.0, -4909.918297519481, 4634.924785485839, -53157.9468438562, -39076.481947479486, -29224.83882008062, -19850.673657736024, -28878.27502230108, -23972.335335294647, -0.2, 0.97, 0.078, 192.0, 249.0, 192.0, 30.0, 80.0, 2.0, 112.0, 0.0, 0.0, 0.0, 1.652176122867712E9, 0.0, 2022-05-10 11:48:42.867
236.0, -4914.969791766381, 4642.524378600643, -53152.917701353756, -39070.0222933319, -29224.525895658244, -19845.64451523358, -28864.99808609463, -23957.56083220969, -0.2, 0.97, 0.078, 192.0, 0.0, 0.0, 0.0, 0.0, 0.0, 0.0, 0.0, 0.0, 0.0, 1.6521761228677175E9, 0.0, 2022-05-10 11:48:42.867
237.0, -4921.11652149159, 4642.747896045196, -53161.00903284658, -39077.26425853542, -29224.145916002504, -19851.858300192154, -28866.361542506405, -23961.427684000457, -0.2, 0.97, 0.078, 192.0, 0.0, 0.0, 0.0, 0.0, 0.0, 0.0, 0.0, 0.0, 0.0, 1.6521761228677227E9, 0.0, 2022-05-10 11:48:42.867
238.0, -4908.241916685333, 4645.340698402011, -53162.1489718138, -39079.49943298095, -29215.83106706513, -19851.34421006968, -28870.38485650836, -23953.559869952187, -0.2, 0.97, 0.078, 192.0, 0.0, 0.0, 0.0, 0.0, 0.0, 0.0, 0.0, 0.0, 0.0, 1.6521761228677285E9, 0.0, 2022-05-10 11:48:42.867
239.0, -4916.646172600529, 4644.82660827954, -53155.44344847721, -39073.665627678114, -29218.155648488482, -19853.02059090383, -28867.590888451447, -23945.848518115108, -0.2, 0.97, 0.078, 192.0, 0.0, 0.0, 0.0, 0.0, 0.0, 0.0, 0.0, 0.0, 0.0, 1.6521761228677332E9, 0.0, 2022-05-10 11:48:42.867
240.0, -4917.093207489635, 4651.889759527417, -53141.92064308174, -39059.271104248895, -29209.282005939724, -19848.662000735047, -28853.9116208448, -23933.242134242315, -0.2, 0.97, 0.078, 192.0, 0.0, 0.0, 0.0, 0.0, 0.0, 0.0, 0.0, 0.0, 0.0, 1.6521761228677387E9, 0.0, 2022-05-10 11:48:42.867
241.0, -4909.203041696911, 4660.472829398254, -53139.350192469385, -39054.57723791328, -29209.30435768418, -19839.810709930745, -28855.18567027875, -23929.665855129464, -0.2, 0.97, 0.078, 192.0, 0.0, 0.0, 0.0, 0.0, 0.0, 0.0, 0.0, 0.0, 0.0, 1.6521761228677435E9, 0.0, 2022-05-10 11:48:42.867
242.0, -4920.222451713378, 4655.77896306264, -53146.212178017166, -39059.9193048381, -29215.674604853943, -19838.380198285606, -28859.074873813974, -23931.6998638749, -0.2, 0.97, 0.078, 192.0, 0.0, 0.0, 0.0, 0.0, 0.0, 0.0, 0.0, 0.0, 0.0, 1.6521761228677483E9, 0.0, 2022-05-10 11:48:42.867
243.0, -4931.755951852316, 4648.067611225559, -53154.66113742127, -39069.93288635408, -29227.78925034872, -19848.55024201277, -28870.42955999727, -23927.005997539283, -0.2, 0.97, 0.078, 192.0, 0.0, 0.0, 0.0, 0.0, 0.0, 0.0, 0.0, 0.0, 0.0, 1.6521761228677545E9, 0.0, 2022-05-10 11:48:42.867
244.0, -4923.195233725934, 4651.7780008051395, -53149.81080887447, -39069.03881657586, -29231.969026561863, -19844.862204177643, -28877.827987411976, -23917.35004393459, -0.2, 0.97, 0.078, 192.0, 0.0, 0.0, 0.0, 0.0, 0.0, 0.0, 0.0, 0.0, 0.0, 1.6521761228677616E9, 0.0, 2022-05-10 11:48:42.867
245.0, -4906.185556195445, 4657.857675296984, -53128.26372721955, -39050.039833788855, -29211.36071817407, -19823.315122522727, -28851.542335932536, -23895.266520412748, -0.2, 0.998, 0.08, 192.0, 249.0, 192.0, 31.0, 48.0, 2.0, 128.0, 0.0, 0.0, 0.0, 1.6521761228677673E9, 0.0, 2022-05-10 11:48:42.867
246.0, -4905.738521306339, 4658.0588409970815, -53126.16266324076, -39046.64236863165, -29204.632843093023, -19822.7786806558, -28845.552068418514, -23890.796171521684, -0.2, 0.998, 0.08, 192.0, 0.0, 0.0, 0.0, 0.0, 0.0, 0.0, 0.0, 0.0, 0.0, 1.6521761228677728E9, 0.0, 2022-05-10 11:48:42.867
247.0, -4912.041713242736, 4661.5233613876535, -53132.488206921604, -39056.72300538099, -29214.19938971989, -19830.758253426346, -28854.068083055983, -23901.43560188241, -0.2, 0.998, 0.08, 192.0, 0.0, 0.0, 0.0, 0.0, 0.0, 0.0, 0.0, 0.0, 0.0, 1.652176122867778E9, 0.0, 2022-05-10 11:48:42.867
248.0, -4905.917335261981, 4678.555390662598, -53127.28025046352, -39054.219610001994, -29209.751392573286, -19825.617352201625, -28857.219679024183, -23904.900122272986, -0.2, 0.998, 0.08, 192.0, 0.0, 0.0, 0.0, 0.0, 0.0, 0.0, 0.0, 0.0, 0.0, 1.6521761228677828E9, 0.0, 2022-05-10 11:48:42.867
249.0, -4881.576285550152, 4682.779870364651, -53121.20057597168, -39047.312920965305, -29209.88550304002, -19815.96139859693, -28855.56564993449, -23893.567787834145, -0.2, 0.998, 0.08, 192.0, 0.0, 0.0, 0.0, 0.0, 0.0, 0.0, 0.0, 0.0, 0.0, 1.652176122867788E9, 0.0, 2022-05-10 11:48:42.867
250.0, -4880.436346582931, 4684.210382009791, -53109.86824153284, -39036.24880745993, -29199.35783140157, -19803.332662979683, -28845.976751563165, -23878.949746960374, -0.2, 0.998, 0.08, 192.0, 0.0, 0.0, 0.0, 0.0, 0.0, 0.0, 0.0, 0.0, 0.0, 1.6521761228677928E9, 0.0, 2022-05-10 11:48:42.867
251.0, -4898.362445636088, 4681.952855819804, -53115.165604968744, -39044.63071163067, -29213.752354830787, -19811.513401450327, -28858.04669356903, -23899.513351859256, -0.2, 0.998, 0.08, 192.0, 0.0, 0.0, 0.0, 0.0, 0.0, 0.0, 0.0, 0.0, 0.0, 1.6521761228677986E9, 0.0, 2022-05-10 11:48:42.867
252.0, -4909.4042073970095, 4671.045204525614, -53129.38131444232, -39061.97566532799, -29228.72802361584, -19828.478375491904, -28866.60741169541, -23920.63575036952, -0.2, 0.998, 0.08, 192.0, 0.0, 0.0, 0.0, 0.0, 0.0, 0.0, 0.0, 0.0, 0.0, 1.6521761228678043E9, 0.0, 2022-05-10 11:48:42.867
253.0, -4918.367256923587, 4654.326099673045, -53139.32784072493, -39075.34200851226, -29233.89127658502, -19841.934125654, -28878.610298467913, -23923.988512037817, -0.2, 0.998, 0.08, 192.0, 0.0, 0.0, 0.0, 0.0, 0.0, 0.0, 0.0, 0.0, 0.0, 1.6521761228678105E9, 0.0, 2022-05-10 11:48:42.867
254.0, -4906.498480617819, 4655.488390384721, -53133.203462744175, -39073.73268291148, -29226.626959637044, -19843.096416365675, -28879.884347901865, -23943.613343669578, -0.2, 0.998, 0.08, 192.0, 0.0, 0.0, 0.0, 0.0, 0.0, 0.0, 0.0, 0.0, 0.0, 1.6521761228678188E9, 0.0, 2022-05-10 11:48:42.867
255.0, -4893.869745000571, 4663.333852688534, -53124.93331729571, -39068.59178168676, -29216.948654287895, -19836.189727328983, -28867.345019262437, -23914.6454828555, -0.222, 1.01, 0.074, 192.0, 249.0, 16.0, 31.0, 144.0, 2.0, 80.0, 0.0, 0.0, 0.0, 1.6521761228678255E9, 0.0, 2022-05-10 11:48:42.867
0.0, -4897.06604445768, 4669.480582413743, -53122.65343936127, -39063.24971476194, -29211.427773407435, -19829.64066620358, -28863.969905849684, -23911.225665953836, -0.222, 1.01, 0.074, 192.0, 0.0, 0.0, 0.0, 0.0, 0.0, 0.0, 0.0, 0.0, 0.0, 1.6521761228678381E9, 0.0, 2022-05-10 11:48:42.867
1.0, -4900.5976200816185, 4674.800297594106, -53124.77685508453, -39064.47906070698, -29207.940901272406, -19829.81948015922, -28865.489824472646, -23927.900067317496, -0.222, 1.01, 0.074, 192.0, 0.0, 0.0, 0.0, 0.0, 0.0, 0.0, 0.0, 0.0, 0.0, 1.652176122867844E9, 0.0, 2022-05-10 11:48:42.867
2.0, -4913.740445821339, 4666.552503890098, -53136.779741857026, -39076.5713544573, -29219.005014777784, -19840.92829715351, -28876.151606577827, -23934.15855576498, -0.222, 1.01, 0.074, 192.0, 0.0, 0.0, 0.0, 0.0, 0.0, 0.0, 0.0, 0.0, 0.0, 1.652176122867849E9, 0.0, 2022-05-10 11:48:42.867
3.0, -4914.701570832917, 4660.003442764693, -53142.635898904315, -39082.04753184885, -29227.2975119707, -19842.090587865187, -28873.692914687745, -23934.896163332007, -0.222, 1.01, 0.074, 192.0, 0.0, 0.0, 0.0, 0.0, 0.0, 0.0, 0.0, 0.0, 0.0, 1.652176122867855E9, 0.0, 2022-05-10 11:48:42.867
4.0, -4901.089358459635, 4662.886817799427, -53136.489169179105, -39080.169985314606, -29216.903950798984, -19834.40158777256, -28865.109844816907, -23932.25865748628, -0.222, 1.01, 0.074, 192.0, 0.0, 0.0, 0.0, 0.0, 0.0, 0.0, 0.0, 0.0, 0.0, 1.6521761228678603E9, 0.0, 2022-05-10 11:48:42.867
5.0, -4892.6180473110735, 4668.474753913254, -53122.027590516525, -39067.0718630638, -29192.361735387058, -19819.895305621067, -28854.626876667367, -23928.63767488452, -0.222, 1.01, 0.074, 192.0, 0.0, 0.0, 0.0, 0.0, 0.0, 0.0, 0.0, 0.0, 0.0, 1.6521761228678663E9, 0.0, 2022-05-10 11:48:42.867
6.0, -4895.970808979369, 4672.2074952372905, -53126.43088417422, -39068.994113086956, -29194.663965065953, -19822.82338414471, -28856.75029239062, -23933.331541220134, -0.222, 1.01, 0.074, 192.0, 0.0, 0.0, 0.0, 0.0, 0.0, 0.0, 0.0, 0.0, 0.0, 1.6521761228678718E9, 0.0, 2022-05-10 11:48:42.867
7.0, -4909.426559141464, 4660.137553231425, -53147.91091059577, -39088.68599995208, -29220.703747356387, -19840.838890175688, -28878.81146416801, -23939.25475350079, -0.222, 1.01, 0.074, 192.0, 0.0, 0.0, 0.0, 0.0, 0.0, 0.0, 0.0, 0.0, 0.0, 1.652176122867882E9, 0.0, 2022-05-10 11:48:42.867
8.0, -4909.426559141464, 4653.767306061663, -53145.11694253885, -39089.334200541285, -29224.794116591707, -19842.582326243202, -28878.14091183435, -23941.467576201867, -0.222, 1.01, 0.074, 192.0, 0.0, 0.0, 0.0, 0.0, 0.0, 0.0, 0.0, 0.0, 0.0, 1.6521761228678887E9, 0.0, 2022-05-10 11:48:42.867
9.0, -4907.30314341821, 4649.565178104064, -53142.792361115506, -39090.72000869751, -29223.16243924647, -19844.83985243319, -28871.837719897954, -23945.334427992635, -0.23, 1.0, 0.068, 192.0, 248.0, 208.0, 31.0, 64.0, 2.0, 32.0, 0.0, 0.0, 0.0, 1.6521761228678937E9, 0.0, 2022-05-10 11:48:42.867
10.0, -4899.032997969746, 4660.919864287361, -53139.283137236016, -39085.95908712853, -29212.143029230003, -19844.571631499726, -28869.356676263415, -23945.915573348473, -0.23, 1.0, 0.068, 192.0, 0.0, 0.0, 0.0, 0.0, 0.0, 0.0, 0.0, 0.0, 0.0, 1.652176122867901E9, 0.0, 2022-05-10 11:48:42.867
11.0, -4901.312875904188, 4665.613730622975, -53139.57370991394, -39085.422645261606, -29209.170247217447, -19845.912736167043, -28877.269193800592, -23952.308172262692, -0.23, 1.0, 0.068, 192.0, 0.0, 0.0, 0.0, 0.0, 0.0, 0.0, 0.0, 0.0, 0.0, 1.6521761228679094E9, 0.0, 2022-05-10 11:48:42.867
12.0, -4904.285657916744, 4663.333852688534, -53143.44056170471, -39087.68017145159, -29225.151744502993, -19847.92439316802, -28880.890176402354, -23955.839747886628, -0.23, 1.0, 0.068, 192.0, 0.0, 0.0, 0.0, 0.0, 0.0, 0.0, 0.0, 0.0, 0.0, 1.6521761228679156E9, 0.0, 2022-05-10 11:48:42.867
13.0, -4910.454739386409, 4657.477695641243, -53142.94882332669, -39090.72000869751, -29221.709575856876, -19849.757236213354, -28873.55880422101, -23954.87862287505, -0.23, 1.0, 0.068, 192.0, 0.0, 0.0, 0.0, 0.0, 0.0, 0.0, 0.0, 0.0, 0.0, 1.6521761228679214E9, 0.0, 2022-05-10 11:48:42.867
14.0, -4894.9649804788805, 4659.981091020238, -53129.291907464496, -39079.43237774758, -29212.523008885746, -19840.794186686777, -28862.874670371377, -23953.515166463276, -0.23, 1.0, 0.068, 192.0, 0.0, 0.0, 0.0, 0.0, 0.0, 0.0, 0.0, 0.0, 0.0, 1.6521761228679297E9, 0.0, 2022-05-10 11:48:42.867
15.0, -4889.354692620599, 4663.602073621997, -53129.04603827549, -39076.16902305711, -29208.656157094978, -19837.866108163133, -28859.074873813974, -23940.59585816811, -0.23, 1.0, 0.068, 192.0, 0.0, 0.0, 0.0, 0.0, 0.0, 0.0, 0.0, 0.0, 0.0, 1.6521761228679395E9, 0.0, 2022-05-10 11:48:42.867
16.0, -4894.070910700669, 4666.194875978813, -53136.489169179105, -39083.96978187201, -29213.35002343059, -19846.605640245158, -28871.18951930875, -23955.817396142174, -0.23, 1.0, 0.068, 192.0, 0.0, 0.0, 0.0, 0.0, 0.0, 0.0, 0.0, 0.0, 0.0, 1.652176122867948E9, 0.0, 2022-05-10 11:48:42.867
17.0, -4903.436291627442, 4662.976224777249, -53142.434733204216, -39094.16217734363, -29219.36264268907, -19857.714457239446, -28878.7667606791, -23966.74739918082, -0.23, 1.0, 0.068, 192.0, 0.0, 0.0, 0.0, 0.0, 0.0, 0.0, 0.0, 0.0, 0.0, 1.6521761228679583E9, 0.0, 2022-05-10 11:48:42.867
18.0, -4903.279829416255, 4657.544750874609, -53137.31618372395, -39090.04945636386, -29215.004052520282, -19860.284907851805, -28874.698743188233, -23966.345067780625, -0.232, 1.0, 0.062, 192.0, 248.0, 192.0, 31.0, 64.0, 1.0, 240.0, 0.0, 0.0, 0.0, 1.6521761228679705E9, 0.0, 2022-05-10 11:48:42.867
19.0, -4872.121497645557, 4677.728376117751, -53114.807977057455, -39063.49558395095, -29193.34521214309, -19832.769910427323, -28849.597734164923, -23916.00893926727, -0.232, 1.0, 0.062, 192.0, 0.0, 0.0, 0.0, 0.0, 0.0, 0.0, 0.0, 0.0, 0.0, 1.6521761228679817E9, 0.0, 2022-05-10 11:48:42.867
20.0, -4873.842581968615, 4679.360053462989, -53116.93139278071, -39064.30024675134, -29192.361735387058, -19837.21790757393, -28854.448062711726, -23957.69494267642, -0.232, 1.0, 0.062, 192.0, 0.0, 0.0, 0.0, 0.0, 0.0, 0.0, 0.0, 0.0, 0.0, 1.6521761228679924E9, 0.0, 2022-05-10 11:48:42.867
21.0, -4905.291486417233, 4663.758535833184, -53138.23260524662, -39084.997962116955, -29206.890369283006, -19856.865090950145, -28863.94755410523, -23941.17700352395, -0.232, 1.0, 0.062, 192.0, 0.0, 0.0, 0.0, 0.0, 0.0, 0.0, 0.0, 0.0, 0.0, 1.6521761228680031E9, 0.0, 2022-05-10 11:48:42.868
22.0, -4902.944553249426, 4666.284282956634, -53137.15972151276, -39083.679209194095, -29210.35488967358, -19849.801939702265, -28855.878574356866, -23911.91857003195, -0.232, 1.0, 0.062, 192.0, 0.0, 0.0, 0.0, 0.0, 0.0, 0.0, 0.0, 0.0, 0.0, 1.6521761228680165E9, 0.0, 2022-05-10 11:48:42.868
23.0, -4898.116576447079, 4661.366899176467, -53134.946898811686, -39080.43820624807, -29214.4452589089, -19844.16930009953, -28856.973809835174, -23905.77184030674, -0.232, 1.0, 0.062, 192.0, 0.0, 0.0, 0.0, 0.0, 0.0, 0.0, 0.0, 0.0, 0.0, 1.6521761228680286E9, 0.0, 2022-05-10 11:48:42.868
24.0, -4877.351805848099, 4662.998576521704, -53123.79337832849, -39067.87652586419, -29196.005069733274, -19833.999256372364, -28847.94370507523, -23903.82723853913, -0.232, 1.0, 0.062, 192.0, 0.0, 0.0, 0.0, 0.0, 0.0, 0.0, 0.0, 0.0, 0.0, 1.6521761228680427E9, 0.0, 2022-05-10 11:48:42.868
25.0, -4875.63072152504, 4671.06755627007, -53117.17726196972, -39056.85711584772, -29198.933148256918, -19826.801994657755, -28845.730882374155, -23909.236360697316, -0.232, 1.0, 0.062, 192.0, 0.0, 0.0, 0.0, 0.0, 0.0, 0.0, 0.0, 0.0, 0.0, 1.6521761228680484E9, 0.0, 2022-05-10 11:48:42.868
26.0, -4897.714245046884, 4671.335777203533, -53127.056733018966, -39062.24388626145, -29205.571616360143, -19835.630933717603, -28858.538431947047, -23931.319884219156, -0.232, 1.0, 0.062, 192.0, 0.0, 0.0, 0.0, 0.0, 0.0, 0.0, 0.0, 0.0, 0.0, 1.6521761228680527E9, 0.0, 2022-05-10 11:48:42.868
27.0, -4904.464471872387, 4658.975262519749, -53138.791398858004, -39070.223459032, -29209.46081989537, -19848.192614101485, -28869.75900766361, -23949.49185246132, -0.232, 1.0, 0.062, 192.0, 0.0, 0.0, 0.0, 0.0, 0.0, 0.0, 0.0, 0.0, 0.0, 1.6521761228680575E9, 0.0, 2022-05-10 11:48:42.868
28.0, -4908.152509707512, 4644.066648968059, -53147.50857919557, -39081.04170334837, -29217.574503132644, -19859.16732062904, -28875.771626922087, -23962.344105523123, -0.232, 0.986, 0.058, 192.0, 248.0, 192.0, 30.0, 208.0, 1.0, 208.0, 0.0, 0.0, 0.0, 1.652176122868062E9, 0.0, 2022-05-10 11:48:42.868
29.0, -4903.033960227247, 4647.888797269917, -53138.27730873553, -39072.70450266654, -29208.38793616151, -19853.869957193132, -28866.13802506185, -23956.286782775736, -0.232, 0.986, 0.058, 192.0, 0.0, 0.0, 0.0, 0.0, 0.0, 0.0, 0.0, 0.0, 0.0, 1.6521761228680673E9, 0.0, 2022-05-10 11:48:42.868
30.0, -4899.055349714202, 4655.153114217891, -53132.935241810716, -39066.6695316636, -29201.190674446905, -19851.478320536415, -28860.952420348218, -23951.056474573194, -0.232, 0.986, 0.058, 192.0, 0.0, 0.0, 0.0, 0.0, 0.0, 0.0, 0.0, 0.0, 0.0, 1.652176122868072E9, 0.0, 2022-05-10 11:48:42.868
31.0, -4890.204058909901, 4666.3960416789105, -53130.968288298645, -39064.21083977352, -29196.139180200003, -19852.17122461453, -28858.024341824574, -23950.721198406365, -0.232, 0.986, 0.058, 192.0, 0.0, 0.0, 0.0, 0.0, 0.0, 0.0, 0.0, 0.0, 0.0, 1.652176122868077E9, 0.0, 2022-05-10 11:48:42.868
32.0, -4909.985352752848, 4646.100657713492, -53153.14121879831, -39089.55771798584, -29215.339328687114, -19879.418001105547, -28879.236147312662, -23973.587032984142, -0.232, 0.986, 0.058, 192.0, 0.0, 0.0, 0.0, 0.0, 0.0, 0.0, 0.0, 0.0, 0.0, 1.6521761228680816E9, 0.0, 2022-05-10 11:48:42.868
33.0, -4906.476128873364, 4646.3465269025, -53151.576596686435, -39088.283668551885, -29212.143029230003, -19878.434524349515, -28875.458702499713, -23967.08267534765, -0.232, 0.986, 0.058, 192.0, 0.0, 0.0, 0.0, 0.0, 0.0, 0.0, 0.0, 0.0, 0.0, 1.6521761228680863E9, 0.0, 2022-05-10 11:48:42.868
34.0, -4897.177803179956, 4648.402887392389, -53149.006146074076, -39082.8745463937, -29212.567712374654, -19876.44521909299, -28870.89894663083, -23958.298439776714, -0.232, 0.986, 0.058, 192.0, 0.0, 0.0, 0.0, 0.0, 0.0, 0.0, 0.0, 0.0, 0.0, 1.652176122868091E9, 0.0, 2022-05-10 11:48:42.868
35.0, -4886.225448396855, 4664.764364333673, -53138.94786106919, -39069.84347937626, -29203.001165747784, -19865.716381754446, -28861.108882559405, -23945.133262292537, -0.232, 0.986, 0.058, 192.0, 0.0, 0.0, 0.0, 0.0, 0.0, 0.0, 0.0, 0.0, 0.0, 1.6521761228680964E9, 0.0, 2022-05-10 11:48:42.868
36.0, -4888.035939697736, 4673.2580272266905, -53138.74669536909, -39068.39061598666, -29202.598834347587, -19867.772742244335, -28861.354751748415, -23945.155614036994, -0.232, 0.986, 0.058, 192.0, 0.0, 0.0, 0.0, 0.0, 0.0, 0.0, 0.0, 0.0, 0.0, 1.652176122868101E9, 0.0, 2022-05-10 11:48:42.868
37.0, -4888.371215864565, 4671.916922559371, -53146.50275069509, -39074.29147652286, -29207.672680338943, -19879.283890638817, -28869.781359408065, -23957.516128720777, -0.232, 0.986, 0.058, 192.0, 0.0, 0.0, 0.0, 0.0, 0.0, 0.0, 0.0, 0.0, 0.0, 1.652176122868106E9, 0.0, 2022-05-10 11:48:42.868
38.0, -4885.800765252205, 4670.709928358785, -53140.35602096988, -39068.703540409035, -29198.866093023553, -19881.094381939696, -28861.62297268188, -23950.58708793963, -0.232, 1.004, 0.058, 192.0, 248.0, 192.0, 31.0, 96.0, 1.0, 208.0, 0.0, 0.0, 0.0, 1.652176122868111E9, 0.0, 2022-05-10 11:48:42.868
39.0, -4880.793974494216, 4673.079213271048, -53128.77781734202, -39059.67343564909, -29193.144046442994, -19872.80188474678, -28854.023379567076, -23921.328654447636, -0.232, 1.004, 0.058, 192.0, 0.0, 0.0, 0.0, 0.0, 0.0, 0.0, 0.0, 0.0, 0.0, 1.6521761228681157E9, 0.0, 2022-05-10 11:48:42.868
40.0, -4886.448965841409, 4665.904303300894, -53134.96925055615, -39060.053415304836, -29205.72807857133, -19869.7396957564, -28865.825100639475, -23926.49190741681, -0.232, 1.004, 0.058, 192.0, 0.0, 0.0, 0.0, 0.0, 0.0, 0.0, 0.0, 0.0, 0.0, 1.6521761228681204E9, 0.0, 2022-05-10 11:48:42.868
41.0, -4894.9649804788805, 4666.932483545838, -53141.83123610392, -39062.914438595115, -29213.5958926196, -19875.46174233696, -28868.976696607675, -23931.297532474702, -0.232, 1.004, 0.058, 192.0, 0.0, 0.0, 0.0, 0.0, 0.0, 0.0, 0.0, 0.0, 0.0, 1.6521761228681257E9, 0.0, 2022-05-10 11:48:42.868
42.0, -4903.369236394076, 4663.870294555461, -53153.92352985425, -39073.35270325574, -29226.40344219249, -19891.309129155772, -28873.17882456527, -23937.69013138892, -0.232, 1.004, 0.058, 192.0, 0.0, 0.0, 0.0, 0.0, 0.0, 0.0, 0.0, 0.0, 0.0, 1.6521761228681307E9, 0.0, 2022-05-10 11:48:42.868
43.0, -4895.188497923434, 4658.72939333074, -53153.43179147623, -39072.59274394426, -29224.21297123587, -19893.87957976813, -28870.541318719545, -23929.129413262537, -0.232, 1.004, 0.058, 192.0, 0.0, 0.0, 0.0, 0.0, 0.0, 0.0, 0.0, 0.0, 0.0, 1.6521761228681393E9, 0.0, 2022-05-10 11:48:42.868
44.0, -4880.01166343828, 4669.145306246914, -53141.65242214828, -39060.388691471664, -29209.50552338428, -19883.351908129684, -28869.937821619253, -23920.479288158334, -0.232, 1.004, 0.058, 192.0, 0.0, 0.0, 0.0, 0.0, 0.0, 0.0, 0.0, 0.0, 0.0, 1.6521761228681438E9, 0.0, 2022-05-10 11:48:42.868
45.0, -4866.15358187599, 4669.324120202556, -53145.34045998341, -39060.85807810522, -29213.77470657524, -19871.30431786827, -28873.469397243192, -23899.558055348167, -0.232, 1.004, 0.058, 192.0, 0.0, 0.0, 0.0, 0.0, 0.0, 0.0, 0.0, 0.0, 0.0, 1.6521761228681493E9, 0.0, 2022-05-10 11:48:42.868
46.0, -4861.370308562554, 4677.527210417654, -53145.04988730549, -39058.645255404146, -29212.79122981921, -19871.572538801734, -28875.034019355062, -23906.889427529506, -0.232, 1.004, 0.058, 192.0, 0.0, 0.0, 0.0, 0.0, 0.0, 0.0, 0.0, 0.0, 0.0, 1.6521761228681545E9, 0.0, 2022-05-10 11:48:42.868
47.0, -4865.281863842233, 4678.063652284581, -53147.06154430647, -39060.92513333859, -29208.790267561708, -19881.206140661972, -28864.32753376097, -23935.522012176756, -0.232, 1.004, 0.058, 192.0, 0.0, 0.0, 0.0, 0.0, 0.0, 0.0, 0.0, 0.0, 0.0, 1.6521761228681595E9, 0.0, 2022-05-10 11:48:42.868
48.0, -4881.106898916591, 4659.802277064595, -53152.291852509006, -39065.50724095193, -29211.181904218425, -19879.97679471693, -28860.99712383713, -23895.221816923837, -0.22, 1.014, 0.058, 192.0, 249.0, 32.0, 31.0, 176.0, 1.0, 208.0, 0.0, 0.0, 0.0, 1.6521761228681645E9, 0.0, 2022-05-10 11:48:42.868
49.0, -4885.174916407456, 4658.394117163911, -53143.21704426016, -39060.187525771566, -29207.002128005282, -19869.337364356204, -28857.689065657745, -23861.29186884068, -0.22, 1.014, 0.058, 192.0, 0.0, 0.0, 0.0, 0.0, 0.0, 0.0, 0.0, 0.0, 0.0, 1.6521761228681695E9, 0.0, 2022-05-10 11:48:42.868
50.0, -4875.116631402568, 4674.621483638463, -53133.0917040219, -39050.19629600004, -29199.335479657115, -19858.49676829538, -28848.413091708793, -23861.805958963152, -0.22, 1.014, 0.058, 192.0, 0.0, 0.0, 0.0, 0.0, 0.0, 0.0, 0.0, 0.0, 0.0, 1.6521761228681755E9, 0.0, 2022-05-10 11:48:42.868
51.0, -4867.360576076577, 4683.159850020391, -53135.90802382327, -39049.03400528837, -29195.24511042179, -19857.98267817291, -28856.258554012606, -23877.698049270875, -0.22, 1.014, 0.058, 192.0, 0.0, 0.0, 0.0, 0.0, 0.0, 0.0, 0.0, 0.0, 0.0, 1.6521761228681805E9, 0.0, 2022-05-10 11:48:42.868
52.0, -4864.2983870862, 4674.3756144494555, -53144.446390205194, -39059.96400832701, -29204.185808203914, -19864.241166620395, -28860.6618476703, -23887.331651131113, -0.22, 1.014, 0.058, 192.0, 0.0, 0.0, 0.0, 0.0, 0.0, 0.0, 0.0, 0.0, 0.0, 1.652176122868246E9, 0.0, 2022-05-10 11:48:42.868
53.0, -4867.829962710138, 4667.267759712668, -53140.51248318106, -39058.086461792765, -29201.81652329165, -19862.207157874964, -28848.435443453247, -23884.62709005202, -0.22, 1.014, 0.058, 192.0, 0.0, 0.0, 0.0, 0.0, 0.0, 0.0, 0.0, 0.0, 0.0, 1.6521761228682868E9, 0.0, 2022-05-10 11:48:42.868
54.0, -4860.185666106423, 4669.659396369386, -53129.87305282034, -39046.57531339828, -29189.5901190746, -19852.864128692643, -28841.551106161012, -23873.808845735653, -0.22, 1.014, 0.058, 192.0, 0.0, 0.0, 0.0, 0.0, 0.0, 0.0, 0.0, 0.0, 0.0, 1.6521761228683035E9, 0.0, 2022-05-10 11:48:42.868
55.0, -4856.989366649314, 4672.945102804316, -53128.107265008366, -39047.044700031845, -29187.10907544006, -19852.864128692643, -28843.6074666509, -23877.452180081866, -0.22, 1.014, 0.058, 192.0, 0.0, 0.0, 0.0, 0.0, 0.0, 0.0, 0.0, 0.0, 0.0, 1.6521761228683162E9, 0.0, 2022-05-10 11:48:42.868
56.0, -4845.724087443839, 4681.036434297137, -53127.41436093025, -39046.97764479848, -29187.287889395702, -19852.573556014726, -28840.813498593987, -23881.028459194717, -0.22, 1.014, 0.058, 192.0, 0.0, 0.0, 0.0, 0.0, 0.0, 0.0, 0.0, 0.0, 0.0, 1.65217612286834E9, 0.0, 2022-05-10 11:48:42.868
57.0, -4863.471372541353, 4673.660358626886, -53145.787494872515, -39066.200145030045, -29205.035174493216, -19871.97487020193, -28862.986429093653, -23902.419078638446, -0.22, 1.014, 0.058, 192.0, 0.0, 0.0, 0.0, 0.0, 0.0, 0.0, 0.0, 0.0, 0.0, 1.6521761228683574E9, 0.0, 2022-05-10 11:48:42.868
58.0, -4866.622968509551, 4676.901361572905, -53144.55814892747, -39066.73658689697, -29207.35975591657, -19872.287794624306, -28864.238126783148, -23901.21208443786, -0.212, 1.01, 0.06, 192.0, 249.0, 96.0, 31.0, 144.0, 1.0, 224.0, 0.0, 0.0, 0.0, 1.6521761228683648E9, 0.0, 2022-05-10 11:48:42.868
59.0, -4860.208017850879, 4677.4825069287435, -53129.69423886469, -39053.28083673488, -29192.16056968696, -19858.943803184487, -28847.250800997117, -23884.91766272994, -0.212, 1.01, 0.06, 192.0, 0.0, 0.0, 0.0, 0.0, 0.0, 0.0, 0.0, 0.0, 0.0, 1.6521761228683703E9, 0.0, 2022-05-10 11:48:42.868
60.0, -4864.767773719761, 4669.704099858296, -53125.089779506896, -39049.548095410835, -29182.571671315633, -19851.16539611404, -28839.673559626768, -23870.4337323229, -0.212, 1.01, 0.06, 192.0, 0.0, 0.0, 0.0, 0.0, 0.0, 0.0, 0.0, 0.0, 0.0, 1.6521761228683767E9, 0.0, 2022-05-10 11:48:42.868
61.0, -4876.413032580976, 4656.449515396299, -53137.89732907979, -39061.506278694425, -29190.55124408618, -19862.631841019615, -28849.597734164923, -23880.24614813878, -0.212, 1.01, 0.06, 192.0, 0.0, 0.0, 0.0, 0.0, 0.0, 0.0, 0.0, 0.0, 0.0, 1.652176122868382E9, 0.0, 2022-05-10 11:48:42.868
62.0, -4883.766756506772, 4650.3698409044555, -53146.72626813964, -39069.329389253784, -29194.976889488327, -19871.572538801734, -28858.85135636942, -23890.237377910304, -0.212, 1.01, 0.06, 192.0, 0.0, 0.0, 0.0, 0.0, 0.0, 0.0, 0.0, 0.0, 0.0, 1.6521761228683867E9, 0.0, 2022-05-10 11:48:42.868
63.0, -4884.638474540529, 4644.737201301718, -53151.241320519606, -39077.15249981314, -29202.01768899175, -19878.50157958288, -28866.205080295218, -23892.427848866922, -0.212, 1.01, 0.06, 192.0, 0.0, 0.0, 0.0, 0.0, 0.0, 0.0, 0.0, 0.0, 0.0, 1.652176122868392E9, 0.0, 2022-05-10 11:48:42.868
64.0, -4877.865895970571, 4645.765381546662, -53145.69808789469, -39075.073787578796, -29206.800962305184, -19873.248919635884, -28862.09235931544, -23886.19171216389, -0.212, 1.01, 0.06, 192.0, 0.0, 0.0, 0.0, 0.0, 0.0, 0.0, 0.0, 0.0, 0.0, 1.6521761228684146E9, 0.0, 2022-05-10 11:48:42.868
65.0, -4859.649224239495, 4656.896550285405, -53131.57178539894, -39061.6180374167, -29189.321898141137, -19861.89423345259, -28847.027283552565, -23879.888520227494, -0.212, 1.01, 0.06, 192.0, 0.0, 0.0, 0.0, 0.0, 0.0, 0.0, 0.0, 0.0, 0.0, 1.6521761228684194E9, 0.0, 2022-05-10 11:48:42.868
66.0, -4856.162352104468, 4657.500047385699, -53140.37837271433, -39071.095177065756, -29194.30633715467, -19866.945727699487, -28852.41405396629, -23869.00322067776, -0.212, 1.01, 0.06, 192.0, 0.0, 0.0, 0.0, 0.0, 0.0, 0.0, 0.0, 0.0, 0.0, 1.652176122868425E9, 0.0, 2022-05-10 11:48:42.868
67.0, -4873.015567423769, 4654.795486306606, -53153.52119845405, -39081.89106963767, -29209.326709428635, -19882.189617418007, -28866.85328088442, -23872.601851535066, -0.212, 1.01, 0.06, 192.0, 0.0, 0.0, 0.0, 0.0, 0.0, 0.0, 0.0, 0.0, 0.0, 1.652176122868431E9, 0.0, 2022-05-10 11:48:42.868
68.0, -4876.234218625334, 4656.1812944628355, -53146.92743383974, -39076.5713544573, -29200.87775002453, -19882.815466262757, -28863.411112238304, -23876.379296348012, -0.20600000000000002, 1.01, 0.056, 192.0, 249.0, 144.0, 31.0, 144.0, 1.0, 192.0, 0.0, 0.0, 0.0, 1.652176122868438E9, 0.0, 2022-05-10 11:48:42.868
69.0, -4869.640454011018, 4650.123971715448, -53141.51831168155, -39073.73268291148, -29202.934110514416, -19881.273195895337, -28862.494690715637, -23878.68152602691, -0.20600000000000002, 1.01, 0.056, 192.0, 0.0, 0.0, 0.0, 0.0, 0.0, 0.0, 0.0, 0.0, 0.0, 1.6521761228684428E9, 0.0, 2022-05-10 11:48:42.868
70.0, -4860.096259128602, 4661.5233613876535, -53136.08683777891, -39069.50820320943, -29199.626052335032, -19881.809637762268, -28861.7123796597, -23899.692165814897, -0.20600000000000002, 1.01, 0.056, 192.0, 0.0, 0.0, 0.0, 0.0, 0.0, 0.0, 0.0, 0.0, 0.0, 1.652176122868448E9, 0.0, 2022-05-10 11:48:42.868
71.0, -4861.347956818099, 4668.452402168799, -53143.86524484936, -39074.47029047851, -29203.023517492238, -19888.64927156559, -28866.249783784126, -23887.286947642202, -0.20600000000000002, 1.01, 0.056, 192.0, 0.0, 0.0, 0.0, 0.0, 0.0, 0.0, 0.0, 0.0, 0.0, 1.652176122868453E9, 0.0, 2022-05-10 11:48:42.868
72.0, -4866.310044087177, 4666.932483545838, -53143.552320426985, -39071.02812183239, -29204.49873262629, -19880.043849950296, -28863.32170526048, -23840.974133130807, -0.20600000000000002, 1.01, 0.056, 192.0, 0.0, 0.0, 0.0, 0.0, 0.0, 0.0, 0.0, 0.0, 0.0, 1.65217612286846E9, 0.0, 2022-05-10 11:48:42.868
73.0, -4866.064174898169, 4663.602073621997, -53140.244262247594, -39070.044645076356, -29204.386973904013, -19882.65900405157, -28869.379028007872, -23876.15577890346, -0.20600000000000002, 1.01, 0.056, 192.0, 0.0, 0.0, 0.0, 0.0, 0.0, 0.0, 0.0, 0.0, 0.0, 1.652176122868467E9, 0.0, 2022-05-10 11:48:42.868
74.0, -4868.411108065976, 4661.545713132109, -53136.84679709039, -39071.16223229912, -29198.754334301277, -19885.9447104865, -28863.455815727215, -23885.45410459687, -0.20600000000000002, 1.01, 0.056, 192.0, 0.0, 0.0, 0.0, 0.0, 0.0, 0.0, 0.0, 0.0, 0.0, 1.6521761228684738E9, 0.0, 2022-05-10 11:48:42.868
75.0, -4846.349936288588, 4674.867352827472, -53120.060637004455, -39054.84545884674, -29176.76021775725, -19869.49382656739, -28837.818364836978, -23840.61650521952, -0.20600000000000002, 1.01, 0.056, 192.0, 0.0, 0.0, 0.0, 0.0, 0.0, 0.0, 0.0, 0.0, 0.0, 1.652176122868479E9, 0.0, 2022-05-10 11:48:42.868
76.0, -4842.438381008909, 4681.885800586439, -53118.69718059268, -39051.44799368954, -29173.87684272252, -19865.582271287713, -28838.60067589291, -23840.23652556378, -0.20600000000000002, 1.01, 0.056, 192.0, 0.0, 0.0, 0.0, 0.0, 0.0, 0.0, 0.0, 0.0, 0.0, 1.6521761228684857E9, 0.0, 2022-05-10 11:48:42.868
77.0, -4864.745421975305, 4671.581646392542, -53134.7904366005, -39066.98245608598, -29192.562901087156, -19882.41313486256, -28858.247859269126, -23864.264650853238, -0.20600000000000002, 1.01, 0.056, 192.0, 0.0, 0.0, 0.0, 0.0, 0.0, 0.0, 0.0, 0.0, 0.0, 1.6521761228684945E9, 0.0, 2022-05-10 11:48:42.868
78.0, -4877.508268059286, 4656.3601084184775, -53145.54162568351, -39078.985342858476, -29204.632843093023, -19896.18180944703, -28866.7638739066, -23877.720401015333, -0.20600000000000002, 1.004, 0.058, 192.0, 249.0, 144.0, 31.0, 96.0, 1.0, 208.0, 0.0, 0.0, 0.0, 1.652176122868502E9, 0.0, 2022-05-10 11:48:42.868
79.0, -4865.594788264607, 4666.2172277232685, -53131.57178539894, -39065.149613040645, -29189.29954639668, -19883.374259874137, -28857.57730693547, -23863.951726430863, -0.20600000000000002, 1.004, 0.058, 192.0, 0.0, 0.0, 0.0, 0.0, 0.0, 0.0, 0.0, 0.0, 0.0, 1.6521761228685071E9, 0.0, 2022-05-10 11:48:42.868
80.0, -4859.2468928393, 4669.011195780182, -53127.749637097084, -39063.5179356954, -29183.935127727407, -19880.35677437267, -28850.715321387688, -23855.905098426952, -0.20600000000000002, 1.004, 0.058, 192.0, 0.0, 0.0, 0.0, 0.0, 0.0, 0.0, 0.0, 0.0, 0.0, 1.652176122868512E9, 0.0, 2022-05-10 11:48:42.868
81.0, -4857.168180604956, 4671.291073714623, -53128.97898304212, -39067.228325274984, -29188.15960742946, -19881.384954617617, -28851.922315588276, -23864.845796209076, -0.20600000000000002, 1.004, 0.058, 192.0, 0.0, 0.0, 0.0, 0.0, 0.0, 0.0, 0.0, 0.0, 0.0, 1.652176122868524E9, 0.0, 2022-05-10 11:48:42.868
82.0, -4857.101125371591, 4676.454326683799, -53120.820596315934, -39058.980531570975, -29182.035229448706, -19871.214910890452, -28847.09433878593, -23860.375447318012, -0.20600000000000002, 1.004, 0.058, 192.0, 0.0, 0.0, 0.0, 0.0, 0.0, 0.0, 0.0, 0.0, 0.0, 1.6521761228685322E9, 0.0, 2022-05-10 11:48:42.868
83.0, -4868.187590621423, 4661.92569278785, -53125.872090562836, -39066.24484851895, -29188.941918485394, -19880.915567984055, -28848.055463797507, -23866.566880532133, -0.20600000000000002, 1.004, 0.058, 192.0, 0.0, 0.0, 0.0, 0.0, 0.0, 0.0, 0.0, 0.0, 0.0, 1.6521761228685398E9, 0.0, 2022-05-10 11:48:42.868
84.0, -4868.232294110334, 4653.409678150378, -53125.38035218482, -39068.54707819785, -29189.835988263607, -19885.430620364026, -28848.99423706463, -23871.126636401015, -0.20600000000000002, 1.004, 0.058, 192.0, 0.0, 0.0, 0.0, 0.0, 0.0, 0.0, 0.0, 0.0, 0.0, 1.6521761228685453E9, 0.0, 2022-05-10 11:48:42.868
85.0, -4858.3975265499985, 4667.670091112864, -53116.283192191506, -39059.15934552662, -29181.074104437128, -19875.931128970522, -28845.28384748505, -23863.370581075025, -0.20600000000000002, 1.004, 0.058, 192.0, 0.0, 0.0, 0.0, 0.0, 0.0, 0.0, 0.0, 0.0, 0.0, 1.6521761228685513E9, 0.0, 2022-05-10 11:48:42.868
86.0, -4858.710450972373, 4673.012158037682, -53119.3900846708, -39061.32746473879, -29183.130464927017, -19877.965137715953, -28852.101129543917, -23868.57853753311, -0.20600000000000002, 1.004, 0.058, 192.0, 0.0, 0.0, 0.0, 0.0, 0.0, 0.0, 0.0, 0.0, 0.0, 1.6521761228685632E9, 0.0, 2022-05-10 11:48:42.868
87.0, -4859.5151137727635, 4662.797410821607, -53127.79434058599, -39071.430453232584, -29190.193616174893, -19888.291643654306, -28864.215775038694, -23877.00514519276, -0.20600000000000002, 1.004, 0.058, 192.0, 0.0, 0.0, 0.0, 0.0, 0.0, 0.0, 0.0, 0.0, 0.0, 1.6521761228685703E9, 0.0, 2022-05-10 11:48:42.868
88.0, -4864.231331852833, 4651.040393238115, -53130.70006736518, -39076.59370620176, -29192.428790620423, -19892.47141986745, -28870.228394297174, -23883.241281895793, -0.20400000000000001, 1.0, 0.068, 192.0, 249.0, 160.0, 31.0, 64.0, 2.0, 32.0, 0.0, 0.0, 0.0, 1.652176122868575E9, 0.0, 2022-05-10 11:48:42.868
89.0, -4858.442230038909, 4653.275567683646, -53124.598041128884, -39070.312866009815, -29189.835988263607, -19889.632748321623, -28865.33336226146, -23885.163531918948, -0.20400000000000001, 1.0, 0.068, 192.0, 0.0, 0.0, 0.0, 0.0, 0.0, 0.0, 0.0, 0.0, 0.0, 1.6521761228685808E9, 0.0, 2022-05-10 11:48:42.868
90.0, -4844.628851965529, 4672.431012681844, -53110.628200844316, -39055.694825136045, -29175.86614797904, -19876.60168130418, -28848.435443453247, -23871.86424396804, -0.20400000000000001, 1.0, 0.068, 192.0, 0.0, 0.0, 0.0, 0.0, 0.0, 0.0, 0.0, 0.0, 0.0, 1.6521761228685877E9, 0.0, 2022-05-10 11:48:42.868
91.0, -4856.095296871102, 4668.340643446522, -53118.22779395912, -39063.09325255075, -29179.732999769807, -19881.876692995633, -28852.503460944114, -23861.515386285235, -0.20400000000000001, 1.0, 0.068, 192.0, 0.0, 0.0, 0.0, 0.0, 0.0, 0.0, 0.0, 0.0, 0.0, 1.6521761233468225E9, 0.0, 2022-05-10 11:48:43.346
92.0, -4866.622968509551, 4660.629291609442, -53131.258860976566, -39073.73268291148, -29192.004107475772, -19889.766858788356, -28863.746388405132, -23872.423037579425, -0.20400000000000001, 1.0, 0.068, 192.0, 0.0, 0.0, 0.0, 0.0, 0.0, 0.0, 0.0, 0.0, 0.0, 1.652176123347088E9, 0.0, 2022-05-10 11:48:43.347
93.0, -4864.544256275208, 4659.198779964302, -53128.375485941826, -39067.2730287639, -29187.779627773718, -19885.296509897293, -28857.465548213193, -23872.601851535066, -0.20400000000000001, 1.0, 0.068, 192.0, 0.0, 0.0, 0.0, 0.0, 0.0, 0.0, 0.0, 0.0, 0.0, 1.6521761233471036E9, 0.0, 2022-05-10 11:48:43.347
94.0, -4853.480142769831, 4665.121992244958, -53119.166567226246, -39058.17586877059, -29176.447293334877, -19877.562806315756, -28846.580248663457, -23868.91381369994, -0.20400000000000001, 1.0, 0.068, 192.0, 0.0, 0.0, 0.0, 0.0, 0.0, 0.0, 0.0, 0.0, 0.0, 1.652176123347116E9, 0.0, 2022-05-10 11:48:43.347
95.0, -4847.221654322345, 4670.642873125419, -53116.0373230025, -39054.13020302418, -29172.28986886619, -19870.27613762333, -28837.99717879262, -23842.6281622205, -0.20400000000000001, 1.0, 0.068, 192.0, 0.0, 0.0, 0.0, 0.0, 0.0, 0.0, 0.0, 0.0, 0.0, 1.652176123347128E9, 0.0, 2022-05-10 11:48:43.347
96.0, -4847.780447933727, 4675.627312138952, -53121.46879690514, -39057.90764783712, -29166.791339730185, -19873.248919635884, -28840.61233289389, -23845.019798877216, -0.20400000000000001, 1.0, 0.068, 192.0, 0.0, 0.0, 0.0, 0.0, 0.0, 0.0, 0.0, 0.0, 0.0, 1.6521761233471344E9, 0.0, 2022-05-10 11:48:43.347
97.0, -4867.181762120934, 4664.093812000014, -53141.317145981455, -39076.1243195682, -29188.025496962728, -19893.70076581249, -28858.94076334724, -23865.516348542733, -0.196, 1.006, 0.068, 192.0, 249.0, 224.0, 31.0, 112.0, 2.0, 32.0, 0.0, 0.0, 0.0, 1.6521761233471396E9, 0.0, 2022-05-10 11:48:43.347
98.0, -4863.404317307987, 4661.590416621019, -53138.299660479985, -39073.44211023356, -29191.042982464194, -19896.22651293594, -28859.6113156809, -23884.604738307567, -0.196, 1.006, 0.068, 192.0, 0.0, 0.0, 0.0, 0.0, 0.0, 0.0, 0.0, 0.0, 0.0, 1.652176123347145E9, 0.0, 2022-05-10 11:48:43.347
99.0, -4859.068078883658, 4660.517532887165, -53131.8400063324, -39068.79294738686, -29188.807808018664, -19893.678414068036, -28856.303257501517, -23886.169360419437, -0.196, 1.006, 0.068, 192.0, 0.0, 0.0, 0.0, 0.0, 0.0, 0.0, 0.0, 0.0, 0.0, 1.6521761233471508E9, 0.0, 2022-05-10 11:48:43.347
100.0, -4856.408221293476, 4660.964567776271, -53132.10822726587, -39064.38965372916, -29188.003145218274, -19890.057431466274, -28845.909696329796, -23844.70687445484, -0.196, 1.006, 0.068, 192.0, 0.0, 0.0, 0.0, 0.0, 0.0, 0.0, 0.0, 0.0, 0.0, 1.6521761233471563E9, 0.0, 2022-05-10 11:48:43.347
101.0, -4847.400468277988, 4674.330910960545, -53131.32591620993, -39058.46644144851, -29184.940956227896, -19882.681355796023, -28843.85333583991, -23833.843926649562, -0.196, 1.006, 0.068, 192.0, 0.0, 0.0, 0.0, 0.0, 0.0, 0.0, 0.0, 0.0, 0.0, 1.6521761233471622E9, 0.0, 2022-05-10 11:48:43.347
102.0, -4862.979634163336, 4670.6205213809635, -53142.74765762659, -39068.077691564285, -29190.97592723083, -19894.527780357337, -28854.246897011628, -23854.876918182006, -0.196, 1.006, 0.068, 192.0, 0.0, 0.0, 0.0, 0.0, 0.0, 0.0, 0.0, 0.0, 0.0, 1.6521761233471696E9, 0.0, 2022-05-10 11:48:43.347
103.0, -4870.892151700515, 4660.763402076173, -53144.55814892747, -39070.71519741001, -29189.97009873034, -19900.13806821562, -28853.576344677967, -23855.793339704676, -0.196, 1.006, 0.068, 192.0, 0.0, 0.0, 0.0, 0.0, 0.0, 0.0, 0.0, 0.0, 0.0, 1.652176123347176E9, 0.0, 2022-05-10 11:48:43.347
104.0, -4864.320738830655, 4660.651643353897, -53134.16458775575, -39061.707444394524, -29179.665944536442, -19893.432544879026, -28841.595809649923, -23842.404644775947, -0.196, 1.006, 0.068, 192.0, 0.0, 0.0, 0.0, 0.0, 0.0, 0.0, 0.0, 0.0, 0.0, 1.652176123347183E9, 0.0, 2022-05-10 11:48:43.347
105.0, -4855.670613726451, 4664.943178289316, -53127.8390440749, -39052.9679123125, -29167.886575208497, -19888.40340237658, -28834.599713635413, -23839.72243544131, -0.196, 1.006, 0.068, 192.0, 0.0, 0.0, 0.0, 0.0, 0.0, 0.0, 0.0, 0.0, 0.0, 1.652176123347189E9, 0.0, 2022-05-10 11:48:43.347
106.0, -4850.5297125017305, 4673.034509782137, -53130.45419817617, -39054.0184443019, -29169.40649383146, -19890.21389367746, -28835.672597369266, -23853.5805170036, -0.196, 1.006, 0.068, 192.0, 0.0, 0.0, 0.0, 0.0, 0.0, 0.0, 0.0, 0.0, 0.0, 1.6521761233471942E9, 0.0, 2022-05-10 11:48:43.347
107.0, -4855.894131171004, 4672.855695826494, -53137.51734942405, -39063.607342673226, -29177.00608694626, -19896.60649259168, -28842.534582917047, -23861.24716535177, -0.2, 1.012, 0.066, 192.0, 249.0, 192.0, 31.0, 160.0, 2.0, 16.0, 0.0, 0.0, 0.0, 1.6521761233472555E9, 0.0, 2022-05-10 11:48:43.347
108.0, -4855.96118640437, 4666.373689934456, -53134.61162264486, -39063.339121739766, -29178.280136380214, -19897.07587922524, -28843.272190484073, -23861.694200240876, -0.2, 1.012, 0.066, 192.0, 0.0, 0.0, 0.0, 0.0, 0.0, 0.0, 0.0, 0.0, 0.0, 1.6521761233472621E9, 0.0, 2022-05-10 11:48:43.347
109.0, -4863.20315160789, 4661.92569278785, -53132.711724366156, -39061.55098218334, -29178.86128173605, -19893.007861734375, -28843.965094562187, -23852.90996466994, -0.2, 1.012, 0.066, 192.0, 0.0, 0.0, 0.0, 0.0, 0.0, 0.0, 0.0, 0.0, 0.0, 1.652176123347268E9, 0.0, 2022-05-10 11:48:43.347
110.0, -4856.207055593379, 4669.346471947011, -53128.06256151946, -39055.78423211387, -29170.00999093175, -19885.475323852937, -28832.94568454572, -23844.416301776924, -0.2, 1.012, 0.066, 192.0, 0.0, 0.0, 0.0, 0.0, 0.0, 0.0, 0.0, 0.0, 0.0, 1.652176123347273E9, 0.0, 2022-05-10 11:48:43.347
111.0, -4848.003965378281, 4667.960663790782, -53133.42698018873, -39058.89112459316, -29170.524081054224, -19886.92818724253, -28831.04578626702, -23852.082950125096, -0.2, 1.012, 0.066, 192.0, 0.0, 0.0, 0.0, 0.0, 0.0, 0.0, 0.0, 0.0, 0.0, 1.6521761233472798E9, 0.0, 2022-05-10 11:48:43.347
112.0, -4857.950491660892, 4668.586512635531, -53137.45029419068, -39060.92513333859, -29175.195595645382, -19885.810600019766, -28839.42769043776, -23857.84970019456, -0.2, 1.012, 0.066, 192.0, 0.0, 0.0, 0.0, 0.0, 0.0, 0.0, 0.0, 0.0, 0.0, 1.6521761233472855E9, 0.0, 2022-05-10 11:48:43.347
113.0, -4876.390680836521, 4662.618596865964, -53143.127637282334, -39064.970799085, -29179.129502669515, -19890.45976286647, -28853.017551066587, -23875.06054342515, -0.2, 1.012, 0.066, 192.0, 0.0, 0.0, 0.0, 0.0, 0.0, 0.0, 0.0, 0.0, 0.0, 1.6521761233472917E9, 0.0, 2022-05-10 11:48:43.347
114.0, -4876.457736069887, 4656.605977607486, -53142.47943669313, -39063.54028743986, -29181.5881945596, -19889.722155299445, -28849.15069927582, -23870.456084067355, -0.2, 1.012, 0.066, 192.0, 0.0, 0.0, 0.0, 0.0, 0.0, 0.0, 0.0, 0.0, 0.0, 1.652176123347297E9, 0.0, 2022-05-10 11:48:43.347
115.0, -4858.755154461283, 4668.027719024149, -53132.6893726217, -39048.654025632626, -29173.809787489154, -19876.60168130418, -28832.744518845622, -23853.893441425975, -0.2, 1.012, 0.066, 192.0, 0.0, 0.0, 0.0, 0.0, 0.0, 0.0, 0.0, 0.0, 0.0, 1.652176123347303E9, 0.0, 2022-05-10 11:48:43.347
116.0, -4865.348919075599, 4669.011195780182, -53140.02074480304, -39052.72204312349, -29178.034267191204, -19882.681355796023, -28842.601638150412, -23858.743769972774, -0.2, 1.012, 0.066, 192.0, 0.0, 0.0, 0.0, 0.0, 0.0, 0.0, 0.0, 0.0, 0.0, 1.6521761233473084E9, 0.0, 2022-05-10 11:48:43.347
117.0, -4871.763869734272, 4672.341605704022, -53150.9954513306, -39063.38382522867, -29192.02645922023, -19892.382012889626, -28858.98546683615, -23872.892424212983, -0.202, 1.006, 0.066, 192.0, 249.0, 176.0, 31.0, 112.0, 2.0, 16.0, 0.0, 0.0, 0.0, 1.6521761233473136E9, 0.0, 2022-05-10 11:48:43.347
118.0, -4860.543294017708, 4670.374652191956, -53143.90994833827, -39057.57237167029, -29188.04784870718, -19886.436448864515, -28854.64922841182, -23869.919642200428, -0.202, 1.006, 0.066, 192.0, 0.0, 0.0, 0.0, 0.0, 0.0, 0.0, 0.0, 0.0, 0.0, 1.6521761233473191E9, 0.0, 2022-05-10 11:48:43.347
119.0, -4850.261491568267, 4661.411602665377, -53138.433770946715, -39052.65498789013, -29184.940956227896, -19883.17309417404, -28848.547202175523, -23869.20438637786, -0.202, 1.006, 0.066, 192.0, 0.0, 0.0, 0.0, 0.0, 0.0, 0.0, 0.0, 0.0, 0.0, 1.6521761233473248E9, 0.0, 2022-05-10 11:48:43.347
120.0, -4849.367421790054, 4664.049108511103, -53138.3443639689, -39052.073842534286, -29184.38216261651, -19885.475323852937, -28846.356731218904, -23869.092627655584, -0.202, 1.006, 0.066, 192.0, 0.0, 0.0, 0.0, 0.0, 0.0, 0.0, 0.0, 0.0, 0.0, 1.65217612334733E9, 0.0, 2022-05-10 11:48:43.347
121.0, -4858.196360849901, 4667.290111457123, -53142.09945703739, -39057.08063329227, -29184.002182960772, -19890.70563205548, -28850.067120798485, -23871.976002690317, -0.202, 1.006, 0.066, 192.0, 0.0, 0.0, 0.0, 0.0, 0.0, 0.0, 0.0, 0.0, 0.0, 1.652176123347335E9, 0.0, 2022-05-10 11:48:43.347
122.0, -4874.937817446926, 4657.388288663422, -53158.34917525639, -39074.13501431167, -29198.419058134445, -19910.285760198327, -28863.813443638497, -23893.545436089687, -0.202, 1.006, 0.066, 192.0, 0.0, 0.0, 0.0, 0.0, 0.0, 0.0, 0.0, 0.0, 0.0, 1.6521761233473415E9, 0.0, 2022-05-10 11:48:43.347
123.0, -4870.86979995606, 4656.851846796495, -53157.56686420046, -39074.91732536761, -29196.87678776703, -19914.443184667016, -28858.18080403576, -23888.359831376056, -0.202, 1.006, 0.066, 192.0, 0.0, 0.0, 0.0, 0.0, 0.0, 0.0, 0.0, 0.0, 0.0, 1.652176123347347E9, 0.0, 2022-05-10 11:48:43.347
124.0, -4854.173046847945, 4666.239579467724, -53138.74669536909, -39054.84545884674, -29178.77187475823, -19894.438373379515, -28840.545277660523, -23864.309354342146, -0.202, 1.006, 0.066, 192.0, 0.0, 0.0, 0.0, 0.0, 0.0, 0.0, 0.0, 0.0, 0.0, 1.6521761233473525E9, 0.0, 2022-05-10 11:48:43.347
125.0, -4854.396564292499, 4664.987881778226, -53140.28896573651, -39053.14672626814, -29176.82727299062, -19893.07491696774, -28846.624952152368, -23869.5843660336, -0.202, 1.006, 0.066, 192.0, 0.0, 0.0, 0.0, 0.0, 0.0, 0.0, 0.0, 0.0, 0.0, 1.6521761233473575E9, 0.0, 2022-05-10 11:48:43.347
126.0, -4858.799857950194, 4663.736184088729, -53151.04015481951, -39063.473232206496, -29180.738828270296, -19902.529704872337, -28846.71435913019, -23876.938089959396, -0.202, 1.006, 0.066, 192.0, 0.0, 0.0, 0.0, 0.0, 0.0, 0.0, 0.0, 0.0, 0.0, 1.6521761233473656E9, 0.0, 2022-05-10 11:48:43.347
127.0, -4857.39169804951, 4668.474753913254, -53154.035288576524, -39068.90470610913, -29186.371467873036, -19906.821239807756, -28846.356731218904, -23888.762162776253, -0.2, 1.004, 0.07200000000000001, 192.0, 249.0, 192.0, 31.0, 96.0, 2.0, 64.0, 0.0, 0.0, 0.0, 1.6521761233473709E9, 0.0, 2022-05-10 11:48:43.347
128.0, -4864.454849297386, 4661.143381731914, -53159.60087294589, -39078.24773529145, -29194.954537743874, -19917.460670168482, -28856.75029239062, -23898.97690999233, -0.2, 1.004, 0.07200000000000001, 192.0, 0.0, 0.0, 0.0, 0.0, 0.0, 0.0, 0.0, 0.0, 0.0, 1.6521761233473885E9, 0.0, 2022-05-10 11:48:43.347
129.0, -4860.051555639691, 4658.952910775293, -53151.68835540872, -39073.68797942257, -29187.82433126263, -19910.46457415397, -28849.061292297996, -23883.4871510848, -0.2, 1.004, 0.07200000000000001, 192.0, 0.0, 0.0, 0.0, 0.0, 0.0, 0.0, 0.0, 0.0, 0.0, 1.652176123347393E9, 0.0, 2022-05-10 11:48:43.347
130.0, -4842.259567053266, 4669.167657991369, -53141.63007040383, -39061.841554861254, -29177.073142179626, -19898.327576914737, -28837.17016424777, -23872.311278857145, -0.2, 1.004, 0.07200000000000001, 192.0, 0.0, 0.0, 0.0, 0.0, 0.0, 0.0, 0.0, 0.0, 0.0, 1.652176123347398E9, 0.0, 2022-05-10 11:48:43.347
131.0, -4847.109895600069, 4670.687576614329, -53147.32976523993, -39064.83668861827, -29183.53279632721, -19901.32271067175, -28840.634684638346, -23865.00225842026, -0.2, 1.004, 0.07200000000000001, 192.0, 0.0, 0.0, 0.0, 0.0, 0.0, 0.0, 0.0, 0.0, 0.0, 1.652176123347403E9, 0.0, 2022-05-10 11:48:43.347
132.0, -4856.408221293476, 4679.315349974078, -53140.400724458785, -39054.376072213185, -29178.838929991598, -19891.912626256064, -28833.348015945914, -23858.34143857258, -0.2, 1.004, 0.07200000000000001, 192.0, 0.0, 0.0, 0.0, 0.0, 0.0, 0.0, 0.0, 0.0, 0.0, 1.6521761233474083E9, 0.0, 2022-05-10 11:48:43.347
133.0, -4869.148715633001, 4666.954835290294, -53145.027535561036, -39058.62290365969, -29182.370505615534, -19895.779478046832, -28837.7066061147, -23865.449293309368, -0.2, 1.004, 0.07200000000000001, 192.0, 0.0, 0.0, 0.0, 0.0, 0.0, 0.0, 0.0, 0.0, 0.0, 1.6521761233474133E9, 0.0, 2022-05-10 11:48:43.347
134.0, -4862.309081829677, 4664.54084688912, -53145.429866961225, -39059.65108390464, -29186.840854506598, -19896.78530654732, -28841.95343756121, -23873.652383524466, -0.2, 1.004, 0.07200000000000001, 192.0, 0.0, 0.0, 0.0, 0.0, 0.0, 0.0, 0.0, 0.0, 0.0, 1.6521761233474185E9, 0.0, 2022-05-10 11:48:43.347
135.0, -4849.1215526010465, 4676.342567961522, -53130.52125340954, -39042.39553718514, -29173.362752600045, -19884.760068030366, -28827.31304494298, -23854.76515945973, -0.2, 1.004, 0.07200000000000001, 192.0, 0.0, 0.0, 0.0, 0.0, 0.0, 0.0, 0.0, 0.0, 0.0, 1.6521761233474238E9, 0.0, 2022-05-10 11:48:43.347
136.0, -4850.619119479552, 4678.756556362696, -53132.42115168824, -39046.84353433175, -29173.407456088957, -19886.32469014224, -28830.442289166724, -23853.044075136673, -0.2, 1.004, 0.07200000000000001, 192.0, 0.0, 0.0, 0.0, 0.0, 0.0, 0.0, 0.0, 0.0, 0.0, 1.6521761233474288E9, 0.0, 2022-05-10 11:48:43.347
137.0, -4862.890227185515, 4669.525285902654, -53141.54066342601, -39057.371205970194, -29182.48226433781, -19895.13127745763, -28840.388815449336, -23865.784569476196, -0.192, 1.006, 0.07, 192.0, 250.0, 0.0, 31.0, 112.0, 2.0, 48.0, 0.0, 0.0, 0.0, 1.6521761233474357E9, 0.0, 2022-05-10 11:48:43.347
138.0, -4863.918407430459, 4668.698271357807, -53142.65825064877, -39061.32746473879, -29188.606642318566, -19902.820277550254, -28848.23427775315, -23879.19561614938, -0.192, 1.006, 0.07, 192.0, 0.0, 0.0, 0.0, 0.0, 0.0, 0.0, 0.0, 0.0, 0.0, 1.6521761233474476E9, 0.0, 2022-05-10 11:48:43.347
139.0, -4847.132247344523, 4678.6000941515085, -53131.035343532014, -39051.62680764518, -29178.950688713874, -19895.667719324556, -28843.38394920635, -23886.102305186072, -0.192, 1.006, 0.07, 192.0, 0.0, 0.0, 0.0, 0.0, 0.0, 0.0, 0.0, 0.0, 0.0, 1.6521761233474536E9, 0.0, 2022-05-10 11:48:43.347
140.0, -4844.226520565334, 4677.460155184288, -53131.035343532014, -39052.16324951211, -29176.983735201808, -19897.880542025632, -28838.913600315285, -23874.211177135847, -0.192, 1.006, 0.07, 192.0, 0.0, 0.0, 0.0, 0.0, 0.0, 0.0, 0.0, 0.0, 0.0, 1.6521761233474586E9, 0.0, 2022-05-10 11:48:43.347
141.0, -4838.660936195963, 4688.367806478477, -53126.967326041144, -39042.61905462969, -29175.195595645382, -19890.616225077658, -28829.592922877422, -23829.95472311434, -0.192, 1.006, 0.07, 192.0, 0.0, 0.0, 0.0, 0.0, 0.0, 0.0, 0.0, 0.0, 0.0, 1.652176123347464E9, 0.0, 2022-05-10 11:48:43.347
142.0, -4843.645375209496, 4680.254123241201, -53134.20929124467, -39048.47521167698, -29178.21308114685, -19899.020480992855, -28840.344111960425, -23846.00327563325, -0.192, 1.006, 0.07, 192.0, 0.0, 0.0, 0.0, 0.0, 0.0, 0.0, 0.0, 0.0, 0.0, 1.6521761233474708E9, 0.0, 2022-05-10 11:48:43.347
143.0, -4849.1215526010465, 4671.581646392542, -53138.05379129098, -39054.75605186893, -29186.81850276214, -19905.860114796178, -28854.626876667367, -23862.96824967483, -0.192, 1.006, 0.07, 192.0, 0.0, 0.0, 0.0, 0.0, 0.0, 0.0, 0.0, 0.0, 0.0, 1.6521761233474772E9, 0.0, 2022-05-10 11:48:43.347
144.0, -4855.536503259719, 4659.9363875313275, -53134.9916023006, -39058.13116528167, -29185.991488217296, -19907.603550863692, -28847.116690530383, -23868.936165444396, -0.192, 1.006, 0.07, 192.0, 0.0, 0.0, 0.0, 0.0, 0.0, 0.0, 0.0, 0.0, 0.0, 1.6521761233474848E9, 0.0, 2022-05-10 11:48:43.347
145.0, -4837.9680321178475, 4679.315349974078, -53116.2384887026, -39040.473287161985, -29160.7340169828, -19891.55499834478, -28816.114820970874, -23842.650513964953, -0.192, 1.006, 0.07, 192.0, 0.0, 0.0, 0.0, 0.0, 0.0, 0.0, 0.0, 0.0, 0.0, 1.6521761233474913E9, 0.0, 2022-05-10 11:48:43.347
