%OpenBCI Raw EEG Data
%Number of channels = 8
%Sample Rate = 250 Hz
%Board = OpenBCI_GUI$BoardCytonSerial
Sample Index, EXG Channel 0, EXG Channel 1, EXG Channel 2, EXG Channel 3, EXG Channel 4, EXG Channel 5, EXG Channel 6, EXG Channel 7, Accel Channel 0, Accel Channel 1, Accel Channel 2, Other, Other, Other, Other, Other, Other, Other, Analog Channel 0, Analog Channel 1, Analog Channel 2, Timestamp, Other, Timestamp (Formatted)
0.0, 0.0, 0.0, 0.0, 0.0, 0.0, 0.0, 0.0, 0.0, -0.004, 1.028, 0.08600000000000001, 192.0, 255.0, 224.0, 32.0, 32.0, 2.0, 176.0, 0.0, 0.0, 0.0, 1.6527978239480815E9, 0.0, 2022-05-17 16:30:23.948
1.0, 60777.5447699481, 28039.056424982122, -42368.75979527948, -8153.737563340374, 11452.877396688153, -21221.39438645773, 27625.191524647656, 22084.574053832777, -0.004, 1.028, 0.08600000000000001, 192.0, 0.0, 0.0, 0.0, 0.0, 0.0, 0.0, 0.0, 0.0, 0.0, 1.652797823948116E9, 0.0, 2022-05-17 16:30:23.948
2.0, 60803.76336619418, 28102.200103068368, -42326.11266685875, -8081.250856071813, 11512.42244391709, -21143.543260519895, 27691.263281257547, 22140.833394626785, -0.004, 1.028, 0.08600000000000001, 192.0, 0.0, 0.0, 0.0, 0.0, 0.0, 0.0, 0.0, 0.0, 0.0, 1.6527978244276166E9, 0.0, 2022-05-17 16:30:24.427
3.0, 60856.40172438642, 28142.27678087673, -42265.69590159606, -8043.074076542149, 11555.740124671474, -21106.349957746264, 27723.114517106358, 22186.498008548977, -0.004, 1.028, 0.08600000000000001, 192.0, 0.0, 0.0, 0.0, 0.0, 0.0, 0.0, 0.0, 0.0, 0.0, 1.6527978244277203E9, 0.0, 2022-05-17 16:30:24.427
4.0, 60843.59417481354, 28089.593719195575, -42316.88139639871, -8100.69687374793, 11534.170691272104, -21169.71715327706, 27680.221519496623, 22184.53105503691, -0.004, 1.028, 0.08600000000000001, 192.0, 0.0, 0.0, 0.0, 0.0, 0.0, 0.0, 0.0, 0.0, 0.0, 1.652797824427726E9, 0.0, 2022-05-17 16:30:24.427
5.0, 60796.99078762422, 28026.56179983161, -42407.47301667607, -8167.573293158209, 11482.135830180148, -21245.690732680647, 27610.059393651416, 22072.92879497156, -0.004, 1.028, 0.08600000000000001, 192.0, 0.0, 0.0, 0.0, 0.0, 0.0, 0.0, 0.0, 0.0, 0.0, 1.6527978244277315E9, 0.0, 2022-05-17 16:30:24.427
6.0, 60772.78384837912, 28039.346997660043, -42449.42724101868, -8143.902795780039, 11458.867664202175, -21223.942485325635, 27615.781440231975, 22071.4088763486, -0.004, 1.028, 0.08600000000000001, 192.0, 0.0, 0.0, 0.0, 0.0, 0.0, 0.0, 0.0, 0.0, 0.0, 1.6527978244277365E9, 0.0, 2022-05-17 16:30:24.427
7.0, 60793.12393583345, 28097.774457666215, -42385.03186524294, -8075.662919957987, 11510.768414827397, -21161.111731661767, 27665.826996067408, 22114.547743147345, -0.004, 1.028, 0.08600000000000001, 192.0, 0.0, 0.0, 0.0, 0.0, 0.0, 0.0, 0.0, 0.0, 0.0, 1.6527978244277415E9, 0.0, 2022-05-17 16:30:24.427
8.0, 60840.979020712264, 28132.263199360754, -42304.27501252592, -8046.046858554704, 11551.917976369617, -21138.84939418428, 27685.608289910353, 22139.581696937286, -0.006, 1.012, 0.11800000000000001, 192.0, 255.0, 208.0, 31.0, 160.0, 3.0, 176.0, 0.0, 0.0, 0.0, 1.6527978244277468E9, 0.0, 2022-05-17 16:30:24.427
9.0, 60830.58545954055, 28086.911509860936, -42352.57713229384, -8104.4296150719665, 11517.5186416529, -21190.414868642674, 27642.827051022894, 22185.738049237498, -0.006, 1.012, 0.11800000000000001, 192.0, 0.0, 0.0, 0.0, 0.0, 0.0, 0.0, 0.0, 0.0, 0.0, 1.652797824427752E9, 0.0, 2022-05-17 16:30:24.427
10.0, 60802.735185949234, 28051.50634664373, -42414.82674060187, -8155.346888941156, 11482.784030769353, -21243.142633812742, 27626.08559442587, 22126.3718159642, -0.006, 1.012, 0.11800000000000001, 192.0, 0.0, 0.0, 0.0, 0.0, 0.0, 0.0, 0.0, 0.0, 0.0, 1.6527978244277568E9, 0.0, 2022-05-17 16:30:24.427
11.0, 60768.894644843895, 28052.579230377585, -42442.028813603974, -8150.608319116631, 11487.567304082788, -21236.59357268734, 27612.160457630212, 22081.98125147596, -0.006, 1.012, 0.11800000000000001, 192.0, 0.0, 0.0, 0.0, 0.0, 0.0, 0.0, 0.0, 0.0, 0.0, 1.6527978244277618E9, 0.0, 2022-05-17 16:30:24.427
12.0, 60793.52626723365, 28108.70446070486, -42371.218487169564, -8082.435498527944, 11543.357258243235, -21174.008688212478, 27643.00586497854, 22133.434967212077, -0.006, 1.012, 0.11800000000000001, 192.0, 0.0, 0.0, 0.0, 0.0, 0.0, 0.0, 0.0, 0.0, 0.0, 1.6527978244277668E9, 0.0, 2022-05-17 16:30:24.427
13.0, 60837.02276194368, 28137.694673263395, -42322.022297623436, -8053.5346929472325, 11573.845037680274, -21152.46160655756, 27674.745342105074, 22132.585600922775, -0.006, 1.012, 0.11800000000000001, 192.0, 0.0, 0.0, 0.0, 0.0, 0.0, 0.0, 0.0, 0.0, 0.0, 1.6527978244277716E9, 0.0, 2022-05-17 16:30:24.427
14.0, 60821.063616402585, 28084.98925983778, -42380.56151635188, -8132.5481095967425, 11518.457414920023, -21237.420587232184, 27630.064204938913, 22262.136311785736, -0.006, 1.012, 0.11800000000000001, 192.0, 0.0, 0.0, 0.0, 0.0, 0.0, 0.0, 0.0, 0.0, 0.0, 1.6527978244277763E9, 0.0, 2022-05-17 16:30:24.427
15.0, 60794.979130623244, 28046.141927974455, -42429.802409386924, -8181.85605786515, 11479.833600501252, -21301.12305892981, 27604.158533115213, 22182.362935824745, -0.006, 1.012, 0.11800000000000001, 192.0, 0.0, 0.0, 0.0, 0.0, 0.0, 0.0, 0.0, 0.0, 0.0, 1.6527978244277813E9, 0.0, 2022-05-17 16:30:24.427
16.0, 60789.458249742784, 28062.79397759366, -42414.60322315732, -8128.971830483893, 11479.051289445317, -21253.044456606443, 27599.911701668705, 22078.874358996673, -0.006, 1.012, 0.11800000000000001, 192.0, 0.0, 0.0, 0.0, 0.0, 0.0, 0.0, 0.0, 0.0, 0.0, 1.6527978244277875E9, 0.0, 2022-05-17 16:30:24.427
17.0, 60793.68272944483, 28103.85413215806, -42394.39724616972, -8083.754251450808, 11518.390359686657, -21220.38855795724, 27622.352853101835, 22175.702115977063, -0.014, 0.92, 0.098, 192.0, 255.0, 144.0, 28.0, 192.0, 3.0, 16.0, 0.0, 0.0, 0.0, 1.6527978244277923E9, 0.0, 2022-05-17 16:30:24.427
18.0, 60827.053883916604, 28127.47992604732, -42372.22431567006, -8077.1381350920365, 11543.848996621251, -21222.556677169407, 27660.99901926506, 22273.93803285814, -0.014, 0.92, 0.098, 192.0, 0.0, 0.0, 0.0, 0.0, 0.0, 0.0, 0.0, 0.0, 0.0, 1.6527978244277973E9, 0.0, 2022-05-17 16:30:24.427
19.0, 60841.60486955701, 28101.775419923713, -42384.87540303176, -8106.105995906115, 11528.76156911392, -21261.44871252164, 27642.80469927844, 22296.22272208008, -0.014, 0.92, 0.098, 192.0, 0.0, 0.0, 0.0, 0.0, 0.0, 0.0, 0.0, 0.0, 0.0, 1.652797824427802E9, 0.0, 2022-05-17 16:30:24.427
20.0, 60799.76240393668, 28042.520945372697, -42446.63327296177, -8173.295339738767, 11483.74515578093, -21331.186155222196, 27585.137198583747, 22203.86531399075, -0.014, 0.92, 0.098, 192.0, 0.0, 0.0, 0.0, 0.0, 0.0, 0.0, 0.0, 0.0, 0.0, 1.6527978244278069E9, 0.0, 2022-05-17 16:30:24.427
21.0, 60777.83534262602, 28047.818308808604, -42449.941331141155, -8170.881351337594, 11453.88322518864, -21340.93151580471, 27591.909777153705, 22226.418224146157, -0.014, 0.92, 0.098, 192.0, 0.0, 0.0, 0.0, 0.0, 0.0, 0.0, 0.0, 0.0, 0.0, 1.6527978244278116E9, 0.0, 2022-05-17 16:30:24.427
22.0, 60812.3017325761, 28121.199085855376, -42389.77043506747, -8096.382987068056, 11498.832583288264, -21287.577901789893, 27663.457711155144, 22301.87771342727, -0.014, 0.92, 0.098, 192.0, 0.0, 0.0, 0.0, 0.0, 0.0, 0.0, 0.0, 0.0, 0.0, 1.6527978244278228E9, 0.0, 2022-05-17 16:30:24.427
23.0, 60818.828441957055, 28126.51880103574, -42406.98127829806, -8100.272190603279, 11542.530243698387, -21293.63522453728, 27683.395467209277, 22313.478268799576, -0.014, 0.92, 0.098, 192.0, 0.0, 0.0, 0.0, 0.0, 0.0, 0.0, 0.0, 0.0, 0.0, 1.6527978244278276E9, 0.0, 2022-05-17 16:30:24.427
24.0, 60831.23366012975, 28092.968832608323, -42429.377726242274, -8147.523778381798, 11540.295069252858, -21353.202623510675, 27653.600591850354, 22268.819483377873, -0.014, 0.92, 0.098, 192.0, 0.0, 0.0, 0.0, 0.0, 0.0, 0.0, 0.0, 0.0, 0.0, 1.652797824427832E9, 0.0, 2022-05-17 16:30:24.427
25.0, 60842.99067771324, 28069.186576507876, -42397.504138649005, -8176.536342684787, 11499.905467022118, -21404.745746224613, 27601.632785991766, 22237.035302762426, -0.014, 0.92, 0.098, 192.0, 0.0, 0.0, 0.0, 0.0, 0.0, 0.0, 0.0, 0.0, 0.0, 1.6527978244278364E9, 0.0, 2022-05-17 16:30:24.427
26.0, 60808.613694740976, 28074.908623088435, -42399.71696135008, -8158.811409331729, 11479.65478654561, -21394.553350752994, 27609.45589655112, 22268.014820577482, -0.014, 0.92, 0.098, 192.0, 0.0, 0.0, 0.0, 0.0, 0.0, 0.0, 0.0, 0.0, 0.0, 1.6527978244278407E9, 0.0, 2022-05-17 16:30:24.427
27.0, 60819.81191871309, 28126.09411789109, -42353.22533288304, -8088.850449186618, 11511.573077627789, -21343.546669905983, 27650.650161582253, 22334.578315565388, -0.032, 0.934, 0.078, 192.0, 255.0, 0.0, 29.0, 48.0, 2.0, 112.0, 0.0, 0.0, 0.0, 1.6527978244278452E9, 0.0, 2022-05-17 16:30:24.427
28.0, 60876.652404862936, 28175.13384522603, -42275.798890089856, -8024.812701322163, 11584.886799441196, -21281.185302875674, 27705.836618642406, 22387.842522602383, -0.032, 0.934, 0.078, 192.0, 0.0, 0.0, 0.0, 0.0, 0.0, 0.0, 0.0, 0.0, 0.0, 1.6527978244278498E9, 0.0, 2022-05-17 16:30:24.427
29.0, 60876.786515329666, 28140.823917487138, -42281.0291982924, -8062.251873284802, 11598.029625180916, -21269.383581803275, 27690.078638801413, 22320.295550858445, -0.032, 0.934, 0.078, 192.0, 0.0, 0.0, 0.0, 0.0, 0.0, 0.0, 0.0, 0.0, 0.0, 1.6527978244278543E9, 0.0, 2022-05-17 16:30:24.427
30.0, 60826.38333158295, 28072.695800387362, -42347.97267293605, -8128.70360955043, 11558.757610172941, -21282.280538353985, 27618.03896642196, 22275.54735845892, -0.032, 0.934, 0.078, 192.0, 0.0, 0.0, 0.0, 0.0, 0.0, 0.0, 0.0, 0.0, 0.0, 1.6527978244278588E9, 0.0, 2022-05-17 16:30:24.427
31.0, 60800.723528948256, 28072.80755910964, -42347.81621072486, -8123.495653092344, 11524.402978945134, -21238.20289828812, 27621.32467285689, 22365.24490895807, -0.032, 0.934, 0.078, 192.0, 0.0, 0.0, 0.0, 0.0, 0.0, 0.0, 0.0, 0.0, 0.0, 1.6527978244278631E9, 0.0, 2022-05-17 16:30:24.427
32.0, 60823.90228794841, 28128.53045803672, -42226.580348799274, -8079.686233959942, 11394.651102382077, -21164.218624141053, 27692.559682435953, 22525.395157980343, -0.032, 0.934, 0.078, 192.0, 0.0, 0.0, 0.0, 0.0, 0.0, 0.0, 0.0, 0.0, 0.0, 1.6527978244278677E9, 0.0, 2022-05-17 16:30:24.427
33.0, 60858.34632615404, 28152.737397281817, -42121.77301904834, -8081.854353172106, 11245.028524998252, -21174.72394403505, 27738.648979502796, 22545.198803567746, -0.032, 0.934, 0.078, 192.0, 0.0, 0.0, 0.0, 0.0, 0.0, 0.0, 0.0, 0.0, 0.0, 1.652797824427872E9, 0.0, 2022-05-17 16:30:24.427
34.0, 60890.35402421404, 28150.52457458074, -42075.303742325756, -8111.068083175192, 11175.559303231157, -21250.943392627643, 27712.363328023355, 22502.12699200237, -0.032, 0.934, 0.078, 192.0, 0.0, 0.0, 0.0, 0.0, 0.0, 0.0, 0.0, 0.0, 0.0, 1.6527978244278765E9, 0.0, 2022-05-17 16:30:24.427
35.0, 60866.772933813685, 28108.033908371202, -42130.736068574915, -8183.957121843949, 11121.356322927037, -21358.812911368957, 27641.12831844429, 22417.25741830557, -0.032, 0.934, 0.078, 192.0, 0.0, 0.0, 0.0, 0.0, 0.0, 0.0, 0.0, 0.0, 0.0, 1.6527978244278808E9, 0.0, 2022-05-17 16:30:24.427
36.0, 60820.84009895803, 28096.388649509987, -42189.051769858816, -8193.590723704187, 11151.598233175067, -21418.134441153343, 27582.343230526836, 22338.981609223083, -0.032, 0.934, 0.078, 192.0, 0.0, 0.0, 0.0, 0.0, 0.0, 0.0, 0.0, 0.0, 0.0, 1.6527978244278865E9, 0.0, 2022-05-17 16:30:24.427
37.0, 60844.063561447096, 28155.41960661645, -42148.840981583715, -8131.98931598536, 11297.868048890597, -21373.587414453916, 27615.066184409403, 22356.974763509603, 0.02, 1.008, 0.186, 192.0, 0.0, 160.0, 31.0, 128.0, 5.0, 208.0, 0.0, 0.0, 0.0, 1.6527978244278908E9, 0.0, 2022-05-17 16:30:24.427
38.0, 60911.69994016885, 28209.376717731564, -42082.791576718286, -8077.920446147972, 11457.347745579213, -21313.997663736067, 27665.715237345128, 22378.074810275415, 0.02, 1.008, 0.186, 192.0, 0.0, 0.0, 0.0, 0.0, 0.0, 0.0, 0.0, 0.0, 0.0, 1.6527978244278953E9, 0.0, 2022-05-17 16:30:24.427
39.0, 60934.20814683535, 28175.446769648406, -42118.777885291325, -8129.3741618840895, 11515.886964307663, -21329.062739498942, 27646.2245161801, 22330.376187607788, 0.02, 1.008, 0.186, 192.0, 0.0, 0.0, 0.0, 0.0, 0.0, 0.0, 0.0, 0.0, 0.0, 1.6527978244279E9, 0.0, 2022-05-17 16:30:24.427
40.0, 60894.399689960446, 28101.730716434806, -42194.81851992828, -8238.227157381434, 11452.877396688153, -21389.501856506093, 27559.07506454886, 22252.34624771431, 0.02, 1.008, 0.186, 192.0, 0.0, 0.0, 0.0, 0.0, 0.0, 0.0, 0.0, 0.0, 0.0, 1.6527978244279044E9, 0.0, 2022-05-17 16:30:24.427
41.0, 60855.887634263956, 28082.26234701423, -42217.438485317056, -8304.83535585825, 11276.298615491225, -21394.553350752994, 27528.430822900635, 22242.86910806526, 0.02, 1.008, 0.186, 192.0, 0.0, 0.0, 0.0, 0.0, 0.0, 0.0, 0.0, 0.0, 0.0, 1.652797824427909E9, 0.0, 2022-05-17 16:30:24.427
42.0, 60883.000300288244, 28141.762690754258, -42159.54746717781, -8280.963692779982, 11024.193289779818, -21308.11915494432, 27574.386009500744, 22323.04481542645, 0.02, 1.008, 0.186, 192.0, 0.0, 0.0, 0.0, 0.0, 0.0, 0.0, 0.0, 0.0, 0.0, 1.6527978244279132E9, 0.0, 2022-05-17 16:30:24.427
43.0, 60947.373324319524, 28194.356345457596, -42141.33079544673, -8278.907332290093, 10794.283246312529, -21214.35358695431, 27589.94282364164, 22368.776484582006, 0.02, 1.008, 0.186, 192.0, 0.0, 0.0, 0.0, 0.0, 0.0, 0.0, 0.0, 0.0, 0.0, 1.65279782442792E9, 0.0, 2022-05-17 16:30:24.427
44.0, 60953.7882749782, 28146.344798367598, -42200.853490931215, -8402.668941339129, 10635.697619402126, -21220.54502016843, 27535.762195081974, 22314.84172521135, 0.02, 1.008, 0.186, 192.0, 0.0, 0.0, 0.0, 0.0, 0.0, 0.0, 0.0, 0.0, 0.0, 1.6527978244279244E9, 0.0, 2022-05-17 16:30:24.427
45.0, 60929.82720492211, 28086.285661016187, -42259.41506140412, -8517.445149117131, 10556.639499263705, -21243.075578579377, 27478.742894976487, 22256.347209971813, 0.02, 1.008, 0.186, 192.0, 0.0, 0.0, 0.0, 0.0, 0.0, 0.0, 0.0, 0.0, 0.0, 1.6527978244279287E9, 0.0, 2022-05-17 16:30:24.427
46.0, 60898.95944582933, 28069.387742207975, -42306.86781488274, -8564.607329917828, 10512.897135364668, -21223.83072660336, 27451.496118485466, 22242.757349342985, 0.02, 1.008, 0.186, 192.0, 0.0, 0.0, 0.0, 0.0, 0.0, 0.0, 0.0, 0.0, 0.0, 1.6527978244279332E9, 0.0, 2022-05-17 16:30:24.427
47.0, 60902.04398656416, 28107.005728126256, -42306.26431778244, -8546.569472142395, 10483.92927455059, -21143.319743075343, 27486.744819491487, 22270.607622934298, -0.108, 0.9460000000000001, 0.222, 192.0, 252.0, 160.0, 29.0, 144.0, 6.0, 240.0, 0.0, 0.0, 0.0, 1.6527978244279375E9, 0.0, 2022-05-17 16:30:24.427
48.0, 60932.129434601, 28130.855039460068, -42305.68317242661, -8534.812454558903, 10399.171459576066, -21086.099277269757, 27503.553331321877, 22253.01680004797, -0.108, 0.9460000000000001, 0.222, 192.0, 0.0, 0.0, 0.0, 0.0, 0.0, 0.0, 0.0, 0.0, 0.0, 1.652797824427942E9, 0.0, 2022-05-17 16:30:24.427
49.0, 60939.32669631561, 28107.31865254863, -42340.61894901025, -8567.803629374937, 10284.171734353511, -21094.436477951585, 27472.417351295633, 22175.746819465974, -0.108, 0.9460000000000001, 0.222, 192.0, 0.0, 0.0, 0.0, 0.0, 0.0, 0.0, 0.0, 0.0, 0.0, 1.6527978244279463E9, 0.0, 2022-05-17 16:30:24.427
50.0, 60891.40455620344, 28045.69489308535, -42406.82481608687, -8629.203871393665, 10199.100994956612, -21154.18269088062, 27408.781934831375, 22071.07360018177, -0.108, 0.9460000000000001, 0.222, 192.0, 0.0, 0.0, 0.0, 0.0, 0.0, 0.0, 0.0, 0.0, 0.0, 1.6527978244279509E9, 0.0, 2022-05-17 16:30:24.427
51.0, 60886.554227656634, 28061.855204326537, -42387.62466759976, -8597.822022178414, 10258.422524740998, -21119.93981837509, 27422.394147204657, 22054.823881962762, -0.108, 0.9460000000000001, 0.222, 192.0, 0.0, 0.0, 0.0, 0.0, 0.0, 0.0, 0.0, 0.0, 0.0, 1.6527978244279552E9, 0.0, 2022-05-17 16:30:24.427
52.0, 60910.31413201262, 28124.61890275704, -42328.370193048744, -8509.957314724603, 10445.372515365187, -21026.956561441013, 27496.981918452017, 22102.008414507916, -0.108, 0.9460000000000001, 0.222, 192.0, 0.0, 0.0, 0.0, 0.0, 0.0, 0.0, 0.0, 0.0, 0.0, 1.6527978244279597E9, 0.0, 2022-05-17 16:30:24.427
53.0, 60938.11970211503, 28154.01144671577, -42318.37896327722, -8465.991433381014, 10665.380736038773, -20976.888653861126, 27536.96918928256, 22101.27080694089, -0.108, 0.9460000000000001, 0.222, 192.0, 0.0, 0.0, 0.0, 0.0, 0.0, 0.0, 0.0, 0.0, 0.0, 1.652797824427964E9, 0.0, 2022-05-17 16:30:24.427
54.0, 60919.50069898376, 28104.971719380825, -42385.85887978779, -8504.123509421768, 10841.333668390951, -21021.97212242748, 27514.282168660426, 22034.729663697442, -0.108, 0.9460000000000001, 0.222, 192.0, 0.0, 0.0, 0.0, 0.0, 0.0, 0.0, 0.0, 0.0, 0.0, 1.6527978244279685E9, 0.0, 2022-05-17 16:30:24.427
55.0, 60858.748657554235, 28031.233314422767, -42502.9820207336, -8548.603480887828, 10973.723050799734, -21094.9282163296, 27455.184156320593, 21947.15552892155, -0.108, 0.9460000000000001, 0.222, 192.0, 0.0, 0.0, 0.0, 0.0, 0.0, 0.0, 0.0, 0.0, 0.0, 1.6527978244279728E9, 0.0, 2022-05-17 16:30:24.427
56.0, 60831.121901407474, 28033.513192357208, -42486.419378092214, -8508.169175168177, 11121.646895604956, -21105.679405412604, 27444.09769107076, 21929.63176126859, -0.108, 0.9460000000000001, 0.222, 192.0, 0.0, 0.0, 0.0, 0.0, 0.0, 0.0, 0.0, 0.0, 0.0, 1.652797824427977E9, 0.0, 2022-05-17 16:30:24.427
57.0, 60892.18686725937, 28125.04358590169, -42357.6956817741, -8381.993577717969, 11324.019589903306, -21045.128529683177, 27527.715567078063, 22004.06307030476, -0.06, 0.9440000000000001, 0.136, 192.0, 254.0, 32.0, 29.0, 128.0, 4.0, 64.0, 0.0, 0.0, 0.0, 1.6527978244279816E9, 0.0, 2022-05-17 16:30:24.427
58.0, 60932.59882123457, 28171.42345564645, -42323.85514066877, -8308.83631811575, 11460.007603169395, -21030.085805664756, 27592.42386727618, 22039.624695733153, -0.06, 0.9440000000000001, 0.136, 192.0, 0.0, 0.0, 0.0, 0.0, 0.0, 0.0, 0.0, 0.0, 0.0, 1.652797824427986E9, 0.0, 2022-05-17 16:30:24.427
59.0, 60943.41706555094, 28154.838461260613, -42348.1961903806, -8311.74204489494, 11487.142620938137, -21090.256701738443, 27584.243128805534, 21995.524703922834, -0.06, 0.9440000000000001, 0.136, 192.0, 0.0, 0.0, 0.0, 0.0, 0.0, 0.0, 0.0, 0.0, 0.0, 1.6527978244279904E9, 0.0, 2022-05-17 16:30:24.427
60.0, 60899.562942929624, 28086.531530205197, -42435.85973213431, -8365.252121120944, 11433.051399356294, -21210.66554911918, 27525.793317054908, 21923.06034839873, -0.06, 0.9440000000000001, 0.136, 192.0, 0.0, 0.0, 0.0, 0.0, 0.0, 0.0, 0.0, 0.0, 0.0, 1.652797824427995E9, 0.0, 2022-05-17 16:30:24.427
61.0, 60859.73213431027, 28075.489768444273, -42487.134633914786, -8346.722524967496, 11398.272084983837, -21278.167817374208, 27531.716529335565, 21941.545241063268, -0.06, 0.9440000000000001, 0.136, 192.0, 0.0, 0.0, 0.0, 0.0, 0.0, 0.0, 0.0, 0.0, 0.0, 1.6527978244279995E9, 0.0, 2022-05-17 16:30:24.427
62.0, 60869.924529781885, 28133.00080692778, -42420.39232497124, -8258.835465769227, 11411.906649101575, -21281.36411683132, 27599.6658324797, 22004.040718560307, -0.06, 0.9440000000000001, 0.136, 192.0, 0.0, 0.0, 0.0, 0.0, 0.0, 0.0, 0.0, 0.0, 0.0, 1.652797824428004E9, 0.0, 2022-05-17 16:30:24.428
63.0, 60884.09553576655, 28149.786967013715, -42368.983312724034, -8227.945354931993, 11440.136902348626, -21304.699338042657, 27634.221629407602, 22010.902704108084, -0.06, 0.9440000000000001, 0.136, 192.0, 0.0, 0.0, 0.0, 0.0, 0.0, 0.0, 0.0, 0.0, 0.0, 1.6527978244280083E9, 0.0, 2022-05-17 16:30:24.428
64.0, 60869.34338442605, 28109.352661294066, -42434.138647811254, -8255.080372700737, 11446.753018707397, -21363.774998638037, 27621.637597279263, 21963.673468074023, -0.06, 0.9440000000000001, 0.136, 192.0, 0.0, 0.0, 0.0, 0.0, 0.0, 0.0, 0.0, 0.0, 0.0, 1.6527978244280148E9, 0.0, 2022-05-17 16:30:24.428
65.0, 60852.24429991774, 28068.001934051747, -42460.714871968616, -8285.858724815695, 11390.180753491015, -21415.51928705207, 27594.010841132505, 21890.270339282793, -0.06, 0.9440000000000001, 0.136, 192.0, 0.0, 0.0, 0.0, 0.0, 0.0, 0.0, 0.0, 0.0, 0.0, 1.6527978244280193E9, 0.0, 2022-05-17 16:30:24.428
66.0, 60844.17532016937, 28075.55682367764, -42440.643005447746, -8265.473933872454, 11368.790134047287, -21425.108185423396, 27604.873788937784, 21888.862179382108, -0.06, 0.9440000000000001, 0.136, 192.0, 0.0, 0.0, 0.0, 0.0, 0.0, 0.0, 0.0, 0.0, 0.0, 1.652797824428024E9, 0.0, 2022-05-17 16:30:24.428
67.0, 60855.35119239703, 28133.42549007243, -42411.78690335595, -8189.165078302036, 11421.428492239535, -21376.8954726333, 27664.552946633452, 21951.67058130152, -0.018000000000000002, 0.976, 0.082, 192.0, 255.0, 112.0, 30.0, 128.0, 2.0, 144.0, 0.0, 0.0, 0.0, 1.6527978244280283E9, 0.0, 2022-05-17 16:30:24.428
68.0, 60899.38412897398, 28167.467196877864, -42399.26992646098, -8144.506292880332, 11496.08331872026, -21345.69243737369, 27710.4410780002, 21987.142799752095, -0.018000000000000002, 0.976, 0.082, 192.0, 0.0, 0.0, 0.0, 0.0, 0.0, 0.0, 0.0, 0.0, 0.0, 1.652797824428033E9, 0.0, 2022-05-17 16:30:24.428
69.0, 60926.85442290955, 28138.029949430223, -42401.0580660174, -8170.501371681854, 11503.615856601698, -21389.56891173946, 27699.57813019492, 21959.851319772162, -0.018000000000000002, 0.976, 0.082, 192.0, 0.0, 0.0, 0.0, 0.0, 0.0, 0.0, 0.0, 0.0, 0.0, 1.6527978244280376E9, 0.0, 2022-05-17 16:30:24.428
70.0, 60903.966236587316, 28084.296355759667, -42414.7596853685, -8216.635372237608, 11473.441001587034, -21463.463778908706, 27650.404292393243, 21910.699833714945, -0.018000000000000002, 0.976, 0.082, 192.0, 0.0, 0.0, 0.0, 0.0, 0.0, 0.0, 0.0, 0.0, 0.0, 1.652797824428042E9, 0.0, 2022-05-17 16:30:24.428
71.0, 60872.56203562761, 28072.025248053702, -42435.949139112134, -8226.805415964773, 11453.279728088348, -21482.35100297344, 27636.389748619767, 21913.136173860574, -0.018000000000000002, 0.976, 0.082, 192.0, 0.0, 0.0, 0.0, 0.0, 0.0, 0.0, 0.0, 0.0, 0.0, 1.6527978244280465E9, 0.0, 2022-05-17 16:30:24.428
72.0, 60895.74079462777, 28142.388539599007, -42380.56151635188, -8145.08743823617, 11508.935571782062, -21401.86237118988, 27697.25354877157, 21991.993128298895, -0.018000000000000002, 0.976, 0.082, 192.0, 0.0, 0.0, 0.0, 0.0, 0.0, 0.0, 0.0, 0.0, 0.0, 1.6527978244280508E9, 0.0, 2022-05-17 16:30:24.428
73.0, 60933.00115263476, 28184.968612786368, -42338.74140247601, -8091.040920143238, 11571.587511490288, -21349.291068230996, 27731.921104421748, 22043.424492290556, -0.018000000000000002, 0.976, 0.082, 192.0, 0.0, 0.0, 0.0, 0.0, 0.0, 0.0, 0.0, 0.0, 0.0, 1.6527978244280553E9, 0.0, 2022-05-17 16:30:24.428
74.0, 60926.139167086985, 28136.800603485182, -42374.19126918212, -8140.862958534117, 11535.310630239324, -21409.327853837953, 27671.929022303706, 21971.76479956684, -0.018000000000000002, 0.976, 0.082, 192.0, 0.0, 0.0, 0.0, 0.0, 0.0, 0.0, 0.0, 0.0, 0.0, 1.6527978244280596E9, 0.0, 2022-05-17 16:30:24.428
75.0, 60907.40840523344, 28089.45960872884, -42387.445853644116, -8173.4294502055, 11504.979313013473, -21462.18972947475, 27621.79405949045, 21922.501554787345, -0.018000000000000002, 0.976, 0.082, 192.0, 0.0, 0.0, 0.0, 0.0, 0.0, 0.0, 0.0, 0.0, 0.0, 1.652797824428064E9, 0.0, 2022-05-17 16:30:24.428
76.0, 60876.25007346274, 28086.687992416384, -42366.81519351187, -8145.46741789191, 11492.998777985427, -21444.263630421596, 27607.153666872226, 21905.111897601117, -0.018000000000000002, 0.976, 0.082, 192.0, 0.0, 0.0, 0.0, 0.0, 0.0, 0.0, 0.0, 0.0, 0.0, 1.6527978244280684E9, 0.0, 2022-05-17 16:30:24.428
77.0, 60890.77870735869, 28144.064920433157, -42320.256509811465, -8061.894245373517, 11546.978240844994, -21366.636021928316, 27650.828975537894, 21975.430485657515, -0.016, 1.024, 0.088, 192.0, 255.0, 128.0, 32.0, 0.0, 2.0, 192.0, 0.0, 0.0, 0.0, 1.6527978244280727E9, 0.0, 2022-05-17 16:30:24.428
78.0, 60935.39278929148, 28191.472970422863, -42279.576334902806, -8009.568811603644, 11604.444575839589, -21318.579771349403, 27696.359478993356, 22032.27097180736, -0.016, 1.024, 0.088, 192.0, 0.0, 0.0, 0.0, 0.0, 0.0, 0.0, 0.0, 0.0, 0.0, 1.6527978244280772E9, 0.0, 2022-05-17 16:30:24.428
79.0, 60942.835920195095, 28158.414740373464, -42291.02042806392, -8033.373419448545, 11600.600075793276, -21338.964562292644, 27675.594708394376, 22013.271989020348, -0.016, 1.024, 0.088, 192.0, 0.0, 0.0, 0.0, 0.0, 0.0, 0.0, 0.0, 0.0, 0.0, 1.6527978244280818E9, 0.0, 2022-05-17 16:30:24.428
80.0, 60870.19275071535, 28068.560727663127, -42363.08245218783, -8118.690028034453, 11543.401961732145, -21410.42308931626, 27597.073030122883, 21950.48593884539, -0.016, 1.024, 0.088, 192.0, 0.0, 0.0, 0.0, 0.0, 0.0, 0.0, 0.0, 0.0, 0.0, 1.6527978244280863E9, 0.0, 2022-05-17 16:30:24.428
81.0, 60853.071314462584, 28083.804617381647, -42341.96005367757, -8106.798899984229, 11540.183310530581, -21365.56313819446, 27607.08661163886, 21990.45085793148, -0.016, 1.024, 0.088, 192.0, 0.0, 0.0, 0.0, 0.0, 0.0, 0.0, 0.0, 0.0, 0.0, 1.6527978244280925E9, 0.0, 2022-05-17 16:30:24.428
82.0, 60872.83025656108, 28146.702426278884, -42275.441262178574, -8051.344221990612, 11574.269720824925, -21291.377698347296, 27649.040835981472, 22063.47400706697, -0.016, 1.024, 0.088, 192.0, 0.0, 0.0, 0.0, 0.0, 0.0, 0.0, 0.0, 0.0, 0.0, 1.652797824428097E9, 0.0, 2022-05-17 16:30:24.428
83.0, 60900.881695852484, 28177.167853971467, -42256.26346543592, -8042.180006763936, 11616.335703889812, -21254.25145080703, 27672.42076068172, 22098.253321439424, -0.016, 1.024, 0.088, 192.0, 0.0, 0.0, 0.0, 0.0, 0.0, 0.0, 0.0, 0.0, 0.0, 1.6527978244281013E9, 0.0, 2022-05-17 16:30:24.428
84.0, 60890.93516956987, 28131.659702260462, -42305.90668987116, -8112.967981453894, 11603.595209550287, -21280.134770886278, 27645.173984190704, 22071.23006239296, -0.016, 1.024, 0.088, 192.0, 0.0, 0.0, 0.0, 0.0, 0.0, 0.0, 0.0, 0.0, 0.0, 1.6527978244281058E9, 0.0, 2022-05-17 16:30:24.428
85.0, 60859.41920988789, 28081.99412608077, -42348.03972816941, -8187.108717812147, 11538.752798885442, -21321.127870217308, 27591.060410864404, 22024.26904729236, -0.016, 1.024, 0.088, 192.0, 0.0, 0.0, 0.0, 0.0, 0.0, 0.0, 0.0, 0.0, 0.0, 1.6527978244281101E9, 0.0, 2022-05-17 16:30:24.428
86.0, 60840.062599189594, 28085.190425537876, -42343.94935893409, -8197.278761539312, 11490.651844817621, -21306.733346788093, 27576.621183946274, 22040.183489344538, -0.016, 1.024, 0.088, 192.0, 0.0, 0.0, 0.0, 0.0, 0.0, 0.0, 0.0, 0.0, 0.0, 1.6527978244281163E9, 0.0, 2022-05-17 16:30:24.428
87.0, 60867.398782658434, 28150.636333303017, -42311.04759109588, -8148.619013860109, 11506.65569384762, -21226.20001151562, 27622.017576935003, 22110.591484378754, -0.062, 1.026, 0.116, 192.0, 254.0, 16.0, 32.0, 16.0, 3.0, 160.0, 0.0, 0.0, 0.0, 1.6527978244281209E9, 0.0, 2022-05-17 16:30:24.428
88.0, 60900.21114351883, 28184.2533569638, -42292.1827187756, -8131.162301440514, 11493.55757159681, -21169.80656025488, 27652.974743005605, 22152.23278429899, -0.062, 1.026, 0.116, 192.0, 0.0, 0.0, 0.0, 0.0, 0.0, 0.0, 0.0, 0.0, 0.0, 1.6527978244281251E9, 0.0, 2022-05-17 16:30:24.428
89.0, 60887.269483479206, 28141.203897142877, -42322.491684256995, -8177.586874674186, 11421.942582362008, -21210.397328185718, 27613.345100086346, 22124.650731641144, -0.062, 1.026, 0.116, 192.0, 0.0, 0.0, 0.0, 0.0, 0.0, 0.0, 0.0, 0.0, 0.0, 1.6527978244281297E9, 0.0, 2022-05-17 16:30:24.428
90.0, 60886.62128289, 28106.04460311468, -42335.81332395236, -8220.01048565036, 11318.319895067203, -21238.78404364396, 27566.36173324129, 22088.93264400156, -0.062, 1.026, 0.116, 192.0, 0.0, 0.0, 0.0, 0.0, 0.0, 0.0, 0.0, 0.0, 0.0, 1.652797824428134E9, 0.0, 2022-05-17 16:30:24.428
91.0, 60869.85747454852, 28111.096097361577, -42314.668573697636, -8221.575107762232, 11207.857573969075, -21221.215572502086, 27553.107148779294, 22084.03761196585, -0.062, 1.026, 0.116, 192.0, 0.0, 0.0, 0.0, 0.0, 0.0, 0.0, 0.0, 0.0, 0.0, 1.6527978244281385E9, 0.0, 2022-05-17 16:30:24.428
92.0, 60861.43086688887, 28142.03091168772, -42296.29543975538, -8185.298226511268, 11151.911157597442, -21175.506255090982, 27579.996297359026, 22121.834411839773, -0.062, 1.026, 0.116, 192.0, 0.0, 0.0, 0.0, 0.0, 0.0, 0.0, 0.0, 0.0, 0.0, 1.6527978244281428E9, 0.0, 2022-05-17 16:30:24.428
93.0, 60876.697108351844, 28160.471100863353, -42286.17009951712, -8169.562598414732, 11135.996715545263, -21131.31685630284, 27620.296492611946, 22139.939324848572, -0.062, 1.026, 0.116, 192.0, 0.0, 0.0, 0.0, 0.0, 0.0, 0.0, 0.0, 0.0, 0.0, 1.6527978244281473E9, 0.0, 2022-05-17 16:30:24.428
94.0, 60898.55711442913, 28156.134862439023, -42267.93107604159, -8186.214648033935, 11116.505994380235, -21119.47043174153, 27616.407289076724, 22123.622551396198, -0.062, 1.026, 0.116, 192.0, 0.0, 0.0, 0.0, 0.0, 0.0, 0.0, 0.0, 0.0, 0.0, 1.6527978244281516E9, 0.0, 2022-05-17 16:30:24.428
95.0, 60876.67475660739, 28111.878408417513, -42319.80947492236, -8238.115398659158, 11046.254461557206, -21156.41786532615, 27559.87972734925, 22074.538120572346, -0.062, 1.026, 0.116, 192.0, 0.0, 0.0, 0.0, 0.0, 0.0, 0.0, 0.0, 0.0, 0.0, 1.652797824428156E9, 0.0, 2022-05-17 16:30:24.428
96.0, 60829.53492755115, 28091.47126572982, -42369.76562377997, -8255.281538400834, 10979.109821213464, -21163.302202618386, 27529.369596167755, 22053.661591251086, -0.062, 1.026, 0.116, 192.0, 0.0, 0.0, 0.0, 0.0, 0.0, 0.0, 0.0, 0.0, 0.0, 1.6527978244281607E9, 0.0, 2022-05-17 16:30:24.428
97.0, 60839.12382592247, 28142.634408788017, -42349.09026015881, -8198.418700506532, 10997.639417366912, -21103.645396667172, 27565.579422185354, 22103.394222664145, -0.09, 1.026, 0.122, 192.0, 253.0, 48.0, 32.0, 16.0, 3.0, 208.0, 0.0, 0.0, 0.0, 1.652797824428165E9, 0.0, 2022-05-17 16:30:24.428
98.0, 60894.95848357183, 28191.048287278212, -42280.693922125574, -8152.687031350974, 11054.703420961312, -21047.475462850984, 27607.55599827242, 22148.656505186143, -0.09, 1.026, 0.122, 192.0, 0.0, 0.0, 0.0, 0.0, 0.0, 0.0, 0.0, 0.0, 0.0, 1.6527978244281695E9, 0.0, 2022-05-17 16:30:24.428
99.0, 60873.85843680602, 28141.963856454357, -42330.42655353863, -8204.811299420751, 11025.333228747038, -21086.993347047966, 27571.994372844027, 22101.829600552275, -0.09, 1.026, 0.122, 192.0, 0.0, 0.0, 0.0, 0.0, 0.0, 0.0, 0.0, 0.0, 0.0, 1.6527978244281738E9, 0.0, 2022-05-17 16:30:24.428
100.0, 60859.24039593225, 28087.112675561035, -42375.30885640489, -8258.254320413389, 10971.93491124331, -21138.022379639435, 27532.83411655833, 22001.425564459034, -0.09, 1.026, 0.122, 192.0, 0.0, 0.0, 0.0, 0.0, 0.0, 0.0, 0.0, 0.0, 0.0, 1.6527978244281783E9, 0.0, 2022-05-17 16:30:24.428
101.0, 60838.877956733464, 28089.817236640127, -42403.941441052135, -8246.58670980772, 10959.462637837249, -21124.61133296625, 27528.721395578552, 21990.31674746475, -0.09, 1.026, 0.122, 192.0, 0.0, 0.0, 0.0, 0.0, 0.0, 0.0, 0.0, 0.0, 0.0, 1.6527978244281828E9, 0.0, 2022-05-17 16:30:24.428
102.0, 60860.559148855114, 28152.53623158172, -42372.693702303615, -8172.825953105206, 11002.825022080544, -21046.939020984057, 27568.37339024227, 22073.241719393936, -0.09, 1.026, 0.122, 192.0, 0.0, 0.0, 0.0, 0.0, 0.0, 0.0, 0.0, 0.0, 0.0, 1.6527978244281871E9, 0.0, 2022-05-17 16:30:24.428
103.0, 60891.65042539244, 28188.656650621495, -42352.95711194958, -8140.70649632293, 11053.339964549537, -21016.093613635734, 27598.19061734565, 22182.742915480485, -0.09, 1.026, 0.122, 192.0, 0.0, 0.0, 0.0, 0.0, 0.0, 0.0, 0.0, 0.0, 0.0, 1.652797824428192E9, 0.0, 2022-05-17 16:30:24.428
104.0, 60900.56877143011, 28170.328220168143, -42406.333077708856, -8177.229246762901, 11069.388517068448, -21050.180023930076, 27577.247032791023, 22057.349629086213, -0.09, 1.026, 0.122, 192.0, 0.0, 0.0, 0.0, 0.0, 0.0, 0.0, 0.0, 0.0, 0.0, 1.6527978244281962E9, 0.0, 2022-05-17 16:30:24.428
105.0, 60852.82544527358, 28108.168018837932, -42470.147308128755, -8228.72766598793, 11031.524661961159, -21114.754213661457, 27505.699098789588, 21905.58128423468, -0.09, 1.026, 0.122, 192.0, 0.0, 0.0, 0.0, 0.0, 0.0, 0.0, 0.0, 0.0, 0.0, 1.6527978244282007E9, 0.0, 2022-05-17 16:30:24.428
106.0, 60808.79250869662, 28081.904719102946, -42495.47183459662, -8215.24956408138, 11027.076664814553, -21122.532620731905, 27502.279281887924, 21901.91559814401, -0.076, 0.974, 0.082, 192.0, 253.0, 160.0, 30.0, 112.0, 2.0, 144.0, 0.0, 0.0, 0.0, 1.6527978244282053E9, 0.0, 2022-05-17 16:30:24.428
107.0, 60788.85475264249, 28112.191332839888, -42459.75374695704, -8164.2428832343685, 11068.203874612318, -21083.17119874611, 27547.83213708784, 21972.01066875585, -0.076, 0.974, 0.082, 192.0, 0.0, 0.0, 0.0, 0.0, 0.0, 0.0, 0.0, 0.0, 0.0, 1.6527978244282115E9, 0.0, 2022-05-17 16:30:24.428
108.0, 60776.44953446979, 28121.53436202221, -42479.31152335543, -8145.847397547651, 11120.305790937638, -21068.77667531689, 27571.03324783245, 21998.653948146577, -0.076, 0.974, 0.082, 192.0, 0.0, 0.0, 0.0, 0.0, 0.0, 0.0, 0.0, 0.0, 0.0, 1.6527978244282157E9, 0.0, 2022-05-17 16:30:24.428
109.0, 60770.34750823349, 28077.479073700797, -42506.11126495734, -8192.04845333677, 11144.557433671645, -21127.584114978807, 27536.343340437812, 22010.723890152443, -0.076, 0.974, 0.082, 192.0, 0.0, 0.0, 0.0, 0.0, 0.0, 0.0, 0.0, 0.0, 0.0, 1.6527978244282203E9, 0.0, 2022-05-17 16:30:24.428
110.0, 60787.22307529725, 28037.156526703424, -42510.000468492566, -8245.647936540596, 11096.232962159273, -21203.825915315858, 27468.572851249322, 21981.44310491599, -0.076, 0.974, 0.082, 192.0, 0.0, 0.0, 0.0, 0.0, 0.0, 0.0, 0.0, 0.0, 0.0, 1.6527978244282246E9, 0.0, 2022-05-17 16:30:24.428
111.0, 60826.003351927204, 28074.930974832892, -42354.789954994914, -8200.05037785177, 11097.171735426395, -21188.783191297436, 27491.796313738385, 21974.02232575683, -0.076, 0.974, 0.082, 192.0, 0.0, 0.0, 0.0, 0.0, 0.0, 0.0, 0.0, 0.0, 0.0, 1.652797824428229E9, 0.0, 2022-05-17 16:30:24.428
112.0, 60849.584442327556, 28123.12133587853, -42384.62953384275, -8148.5072551378325, 11119.7246455818, -21136.569516249838, 27560.058541304894, 22159.206528569048, -0.076, 0.974, 0.082, 192.0, 0.0, 0.0, 0.0, 0.0, 0.0, 0.0, 0.0, 0.0, 0.0, 1.6527978244282334E9, 0.0, 2022-05-17 16:30:24.428
113.0, 60880.7204223538, 28180.43120866194, -42332.840541939804, -8077.74163219233, 11181.326053300627, -21073.53759688587, 27617.614283277308, 22119.018092038405, -0.076, 0.974, 0.082, 192.0, 0.0, 0.0, 0.0, 0.0, 0.0, 0.0, 0.0, 0.0, 0.0, 1.652797824428238E9, 0.0, 2022-05-17 16:30:24.428
114.0, 60863.6660413344, 28137.068824418646, -42378.639266328726, -8103.289676104746, 11188.009224892763, -21110.865010126236, 27581.002125859515, 21949.077778944706, -0.076, 0.974, 0.082, 192.0, 0.0, 0.0, 0.0, 0.0, 0.0, 0.0, 0.0, 0.0, 0.0, 1.6527978244282424E9, 0.0, 2022-05-17 16:30:24.428
115.0, 60851.30552665061, 28086.55388194965, -42397.95117353811, -8166.768630357818, 11154.123980298518, -21198.685014091137, 27558.672733148665, 22088.50796085691, -0.076, 0.974, 0.082, 192.0, 0.0, 0.0, 0.0, 0.0, 0.0, 0.0, 0.0, 0.0, 0.0, 1.6527978244282467E9, 0.0, 2022-05-17 16:30:24.428
116.0, 60842.85656724651, 28103.138876335488, -42380.181536696145, -8132.816330530207, 11177.570960232135, -21184.692822062116, 27561.84668086132, 21973.128255978616, -0.07200000000000001, 0.9380000000000001, 0.042, 192.0, 253.0, 192.0, 29.0, 80.0, 1.0, 80.0, 0.0, 0.0, 0.0, 1.6527978244282515E9, 0.0, 2022-05-17 16:30:24.428
117.0, 60846.27638414817, 28140.399234342487, -42347.324472346845, -8055.948681348405, 11241.027562740752, -21119.828059652813, 27593.340288798845, 22092.151295203126, -0.07200000000000001, 0.9380000000000001, 0.042, 192.0, 0.0, 0.0, 0.0, 0.0, 0.0, 0.0, 0.0, 0.0, 0.0, 1.6527978244282558E9, 0.0, 2022-05-17 16:30:24.428
118.0, 60879.80400083113, 28184.38746743053, -42320.61413772275, -8015.626134351031, 11286.669824918488, -21096.336376230287, 27690.19039752369, 22214.638854818208, -0.07200000000000001, 0.9380000000000001, 0.042, 192.0, 0.0, 0.0, 0.0, 0.0, 0.0, 0.0, 0.0, 0.0, 0.0, 1.6527978244282603E9, 0.0, 2022-05-17 16:30:24.428
119.0, 60885.90602706743, 28147.86471699056, -42320.547082489386, -8030.132416502526, 11343.24209013487, -21140.168147107142, 27605.723155227086, 22229.189840458614, -0.07200000000000001, 0.9380000000000001, 0.042, 192.0, 0.0, 0.0, 0.0, 0.0, 0.0, 0.0, 0.0, 0.0, 0.0, 1.6527978244282672E9, 0.0, 2022-05-17 16:30:24.428
120.0, 60827.38916008344, 28049.002951264734, -42382.886097775234, -8105.949533694928, 11457.548911279311, -21216.700520122115, 27521.12180246375, 22149.416464497623, -0.07200000000000001, 0.9380000000000001, 0.042, 192.0, 0.0, 0.0, 0.0, 0.0, 0.0, 0.0, 0.0, 0.0, 0.0, 1.6527978244282753E9, 0.0, 2022-05-17 16:30:24.428
121.0, 60784.60792119598, 28033.021453979192, -42404.075551518865, -8127.0272287162825, 11476.74905976642, -21210.15145899671, 27527.045014744406, 22166.20262458356, -0.07200000000000001, 0.9380000000000001, 0.042, 192.0, 0.0, 0.0, 0.0, 0.0, 0.0, 0.0, 0.0, 0.0, 0.0, 1.6527978244282837E9, 0.0, 2022-05-17 16:30:24.428
122.0, 60831.680695018855, 28099.115562333533, -42310.42174225113, -8066.766925664774, 11497.983216998962, -21166.52085381995, 27594.144951599235, 22277.290794526434, -0.07200000000000001, 0.9380000000000001, 0.042, 192.0, 0.0, 0.0, 0.0, 0.0, 0.0, 0.0, 0.0, 0.0, 0.0, 1.6527978245029013E9, 0.0, 2022-05-17 16:30:24.502
123.0, 60878.35113744154, 28138.342873852598, -42268.02048301941, -8054.987556336828, 11440.449826771, -21214.666511376683, 27632.3217311289, 22412.67531069223, -0.07200000000000001, 0.9380000000000001, 0.042, 192.0, 0.0, 0.0, 0.0, 0.0, 0.0, 0.0, 0.0, 0.0, 0.0, 1.6527978245029128E9, 0.0, 2022-05-17 16:30:24.502
124.0, 60897.03719580617, 28115.90172241947, -42262.387843416676, -8111.313952364201, 11256.584376881645, -21319.071509727422, 27613.121582641794, 22470.409866620288, -0.07200000000000001, 0.9380000000000001, 0.042, 192.0, 0.0, 0.0, 0.0, 0.0, 0.0, 0.0, 0.0, 0.0, 0.0, 1.652797824502918E9, 0.0, 2022-05-17 16:30:24.502
125.0, 60887.04596603465, 28071.466454442318, -42275.1283377562, -8176.446935706966, 11106.850040775544, -21436.976961729164, 27553.062445290383, 22432.68012197973, -0.07200000000000001, 0.9380000000000001, 0.042, 192.0, 0.0, 0.0, 0.0, 0.0, 0.0, 0.0, 0.0, 0.0, 0.0, 1.652797824502923E9, 0.0, 2022-05-17 16:30:24.502
126.0, 60881.70389910983, 28066.929050317893, -42270.36741618722, -8185.499392211365, 11085.660587031913, -21510.693014942768, 27508.716584291054, 22393.56456918294, 0.016, 1.116, 0.182, 192.0, 0.0, 128.0, 34.0, 224.0, 5.0, 176.0, 0.0, 0.0, 0.0, 1.652797824502928E9, 0.0, 2022-05-17 16:30:24.502
127.0, 60888.029442790685, 28105.84343741458, -42250.94375025556, -8174.9270170840055, 11181.370756789536, -21538.163308878342, 27510.616482569752, 22393.475162205123, 0.016, 1.116, 0.182, 192.0, 0.0, 0.0, 0.0, 0.0, 0.0, 0.0, 0.0, 0.0, 0.0, 1.6527978245029328E9, 0.0, 2022-05-17 16:30:24.502
128.0, 60943.126492873016, 28151.843327503604, -42220.61243302971, -8168.668528636519, 11364.6327095786, -21566.348858636484, 27527.31323567787, 22426.06400562096, 0.016, 1.116, 0.182, 192.0, 0.0, 0.0, 0.0, 0.0, 0.0, 0.0, 0.0, 0.0, 0.0, 1.6527978245029557E9, 0.0, 2022-05-17 16:30:24.502
129.0, 60965.09825767258, 28129.022196414735, -42249.33442465478, -8230.202881121979, 11500.106632722216, -21659.913260926398, 27476.999458908973, 22409.702528679674, 0.016, 1.116, 0.182, 192.0, 0.0, 0.0, 0.0, 0.0, 0.0, 0.0, 0.0, 0.0, 0.0, 1.6527978245029604E9, 0.0, 2022-05-17 16:30:24.502
130.0, 60943.6852864844, 28070.393570708464, -42336.90855943067, -8321.442701988542, 11572.81685743533, -21756.562203951147, 27356.478852805958, 22362.294478689968, 0.016, 1.116, 0.182, 192.0, 0.0, 0.0, 0.0, 0.0, 0.0, 0.0, 0.0, 0.0, 0.0, 1.652797824502965E9, 0.0, 2022-05-17 16:30:24.502
131.0, 60921.69116994038, 28063.397474693953, -42350.07373691485, -8358.993632673459, 11633.300677931391, -21751.64482017098, 27233.879534468597, 22340.5238795905, 0.016, 1.116, 0.182, 192.0, 0.0, 0.0, 0.0, 0.0, 0.0, 0.0, 0.0, 0.0, 0.0, 1.6527978245029697E9, 0.0, 2022-05-17 16:30:24.502
132.0, 60926.116815342524, 28097.528588477206, -42327.744344203995, -8373.902246225149, 11589.625369265721, -21660.00266790422, 27167.584260414158, 22354.180795452692, 0.016, 1.116, 0.182, 192.0, 0.0, 0.0, 0.0, 0.0, 0.0, 0.0, 0.0, 0.0, 0.0, 1.6527978245029745E9, 0.0, 2022-05-17 16:30:24.502
133.0, 60985.281882915726, 28134.006635428268, -42275.7765383454, -8402.937162272592, 11344.449084335458, -21571.623870327934, 27132.46966987487, 22436.412863303765, 0.016, 1.116, 0.182, 192.0, 0.0, 0.0, 0.0, 0.0, 0.0, 0.0, 0.0, 0.0, 0.0, 1.6527978245029788E9, 0.0, 2022-05-17 16:30:24.502
134.0, 61006.873668059554, 28106.804562426158, -42266.96995103001, -8504.436433844141, 11043.95223187831, -21561.409123111862, 27081.194768094396, 22443.028979662537, 0.016, 1.116, 0.182, 192.0, 0.0, 0.0, 0.0, 0.0, 0.0, 0.0, 0.0, 0.0, 0.0, 1.652797824502984E9, 0.0, 2022-05-17 16:30:24.502
135.0, 60962.93013846042, 28031.68034931187, -42358.0980131743, -8676.366052194364, 10828.436711840239, -21593.5956351275, 27001.28728166667, 22382.343993466377, 0.016, 1.116, 0.182, 192.0, 0.0, 0.0, 0.0, 0.0, 0.0, 0.0, 0.0, 0.0, 0.0, 1.6527978245029883E9, 0.0, 2022-05-17 16:30:24.502
136.0, 60964.137132661, 28033.55789584612, -42330.046573882886, -8739.174454113776, 10773.965510602655, -21552.401370096373, 27018.408717919436, 22393.676327905217, -0.098, 0.9540000000000001, 0.23800000000000002, 192.0, 252.0, 240.0, 29.0, 208.0, 7.0, 112.0, 0.0, 0.0, 0.0, 1.6527978245029933E9, 0.0, 2022-05-17 16:30:24.502
137.0, 60980.40920262447, 28079.22250976831, -42296.54130894438, -8730.546680754029, 10816.791452979023, -21450.67858108027, 27087.542663519704, 22455.3000873685, -0.098, 0.9540000000000001, 0.23800000000000002, 192.0, 0.0, 0.0, 0.0, 0.0, 0.0, 0.0, 0.0, 0.0, 0.0, 1.652797824502998E9, 0.0, 2022-05-17 16:30:24.502
138.0, 60992.52384811924, 28084.36341099303, -42319.72006794454, -8756.54175955555, 10862.031383756565, -21387.959586138677, 27114.409460354982, 22447.00759017558, -0.098, 0.9540000000000001, 0.23800000000000002, 192.0, 0.0, 0.0, 0.0, 0.0, 0.0, 0.0, 0.0, 0.0, 0.0, 1.652797824503003E9, 0.0, 2022-05-17 16:30:24.503
139.0, 60983.13611544802, 28019.565703817098, -42432.819894888395, -8830.704847658259, 10866.814657070001, -21389.45715301718, 27078.825483182132, 22353.84551928586, -0.098, 0.9540000000000001, 0.23800000000000002, 192.0, 0.0, 0.0, 0.0, 0.0, 0.0, 0.0, 0.0, 0.0, 0.0, 1.6527978245189729E9, 0.0, 2022-05-17 16:30:24.518
140.0, 60965.9923274508, 27960.735912410728, -42479.244468122066, -8880.437479071317, 10878.30345372003, -21410.825420716457, 27060.944087617885, 22267.098399054816, -0.098, 0.9540000000000001, 0.23800000000000002, 192.0, 0.0, 0.0, 0.0, 0.0, 0.0, 0.0, 0.0, 0.0, 0.0, 1.6527978249789E9, 0.0, 2022-05-17 16:30:24.978
141.0, 60960.13617040351, 27959.30540076559, -42369.29623714641, -8867.384060309418, 10885.657177645824, -21410.758365483092, 27085.68746872991, 22240.097491752804, -0.098, 0.9540000000000001, 0.23800000000000002, 192.0, 0.0, 0.0, 0.0, 0.0, 0.0, 0.0, 0.0, 0.0, 0.0, 1.652797824978986E9, 0.0, 2022-05-17 16:30:24.978
142.0, 60932.88939391248, 27982.90884291039, -42387.42350189966, -8820.870080097924, 10945.448094063771, -21363.439722471205, 27141.343312423625, 22250.26753547997, -0.098, 0.9540000000000001, 0.23800000000000002, 192.0, 0.0, 0.0, 0.0, 0.0, 0.0, 0.0, 0.0, 0.0, 0.0, 1.6527978249790907E9, 0.0, 2022-05-17 16:30:24.979
143.0, 60971.33439437561, 28032.17208768989, -42366.43521385613, -8748.718648996193, 11030.004743338197, -21288.673137268204, 27213.651205736543, 22272.21694853508, -0.098, 0.9540000000000001, 0.23800000000000002, 192.0, 0.0, 0.0, 0.0, 0.0, 0.0, 0.0, 0.0, 0.0, 0.0, 1.6527978249791095E9, 0.0, 2022-05-17 16:30:24.979
144.0, 60998.53646737772, 28008.792162989637, -42367.463394101076, -8745.008259416612, 11062.95121466532, -21289.656614024236, 27220.58024651769, 22218.997444986995, -0.098, 0.9540000000000001, 0.23800000000000002, 192.0, 0.0, 0.0, 0.0, 0.0, 0.0, 0.0, 0.0, 0.0, 0.0, 1.6527978249791155E9, 0.0, 2022-05-17 16:30:24.979
145.0, 60984.857199771075, 27960.57945019954, -42444.37574677179, -8767.650576549839, 11083.492467819748, -21327.498117387073, 27195.076906094186, 22151.696342432064, -0.098, 0.9540000000000001, 0.23800000000000002, 192.0, 0.0, 0.0, 0.0, 0.0, 0.0, 0.0, 0.0, 0.0, 0.0, 1.6527978249791207E9, 0.0, 2022-05-17 16:30:24.979
146.0, 60924.77571067521, 27921.843877058494, -42539.41536419575, -8773.462030108218, 11137.695448123866, -21357.628268912827, 27178.24604251934, 22098.342728417247, -0.128, 0.906, 0.16, 192.0, 252.0, 0.0, 28.0, 80.0, 5.0, 0.0, 0.0, 0.0, 0.0, 1.6527978249791255E9, 0.0, 2022-05-17 16:30:24.979
147.0, 60918.53957397218, 27950.834089617027, -42548.46782070015, -8693.800412869503, 11272.074135789173, -21311.516620101527, 27222.18957211847, 22102.924836030583, -0.128, 0.906, 0.16, 192.0, 0.0, 0.0, 0.0, 0.0, 0.0, 0.0, 0.0, 0.0, 0.0, 1.6527978249791324E9, 0.0, 2022-05-17 16:30:24.979
148.0, 61007.38775818203, 28036.55302960313, -42362.63541729873, -8559.55583567093, 11497.491478620945, -21243.232040790564, 27303.5946254247, 22128.964618321017, -0.128, 0.906, 0.16, 192.0, 0.0, 0.0, 0.0, 0.0, 0.0, 0.0, 0.0, 0.0, 0.0, 1.652797824979138E9, 0.0, 2022-05-17 16:30:24.979
149.0, 61023.41395895648, 28041.17984070538, -42376.49349886102, -8516.618134572283, 11650.82444558435, -21272.512826027018, 27330.17084958206, 22079.366097374692, -0.128, 0.906, 0.16, 192.0, 0.0, 0.0, 0.0, 0.0, 0.0, 0.0, 0.0, 0.0, 0.0, 1.6527978249791427E9, 0.0, 2022-05-17 16:30:24.979
150.0, 60972.18376066491, 27971.509453238185, -42501.23858466608, -8539.752190083527, 11695.729100195063, -21383.444533758706, 27292.17288400804, 21968.389686154092, -0.128, 0.906, 0.16, 192.0, 0.0, 0.0, 0.0, 0.0, 0.0, 0.0, 0.0, 0.0, 0.0, 1.652797824979164E9, 0.0, 2022-05-17 16:30:24.979
151.0, 60942.29947832817, 27964.69217117932, -42511.520387115524, -8484.096346389812, 11800.3352642459, -21439.10037745242, 27306.36624173716, 21936.20317413845, -0.128, 0.906, 0.16, 192.0, 0.0, 0.0, 0.0, 0.0, 0.0, 0.0, 0.0, 0.0, 0.0, 1.6527978249791684E9, 0.0, 2022-05-17 16:30:24.979
152.0, 60944.55700451816, 28016.659977037907, -42502.5349858445, -8393.95176100156, 11953.735286442672, -21418.00033068661, 27379.90348099512, 21979.945538037486, -0.128, 0.906, 0.16, 192.0, 0.0, 0.0, 0.0, 0.0, 0.0, 0.0, 0.0, 0.0, 0.0, 1.652797824979173E9, 0.0, 2022-05-17 16:30:24.979
153.0, 60980.05157471319, 28071.242936997765, -42450.79069743046, -8322.448530489031, 12083.688328705828, -21395.112144364375, 27465.24244132548, 22033.947352641506, -0.128, 0.906, 0.16, 192.0, 0.0, 0.0, 0.0, 0.0, 0.0, 0.0, 0.0, 0.0, 0.0, 1.6527978249791775E9, 0.0, 2022-05-17 16:30:24.979
154.0, 60997.21771445486, 28065.431483439384, -42465.43109004868, -8329.64579220364, 12108.342302840032, -21444.9118310108, 27491.170464893636, 21996.418773701047, -0.128, 0.906, 0.16, 192.0, 0.0, 0.0, 0.0, 0.0, 0.0, 0.0, 0.0, 0.0, 0.0, 1.652797824979182E9, 0.0, 2022-05-17 16:30:24.979
155.0, 60939.550213760165, 28013.709546769805, -42513.68850632769, -8382.015929462425, 12027.272525700633, -21533.73766347619, 27467.902298915662, 21987.54513115229, -0.128, 0.906, 0.16, 192.0, 0.0, 0.0, 0.0, 0.0, 0.0, 0.0, 0.0, 0.0, 0.0, 1.652797824979187E9, 0.0, 2022-05-17 16:30:24.979
156.0, 60913.10810006954, 28017.151715415923, -42534.676794371226, -8366.70498451054, 12003.75849053365, -21541.7842914801, 27494.791447495398, 21977.97858452542, -0.046, 0.9540000000000001, 0.064, 192.0, 254.0, 144.0, 29.0, 208.0, 2.0, 0.0, 0.0, 0.0, 0.0, 1.6527978249791918E9, 0.0, 2022-05-17 16:30:24.979
157.0, 60919.567754217125, 28068.113692774023, -42469.78968021747, -8281.455431157998, 12024.14328147689, -21506.513238729625, 27569.714494909585, 22052.856928450696, -0.046, 0.9540000000000001, 0.064, 192.0, 0.0, 0.0, 0.0, 0.0, 0.0, 0.0, 0.0, 0.0, 0.0, 1.6527978249791963E9, 0.0, 2022-05-17 16:30:24.979
158.0, 60950.815492965645, 28106.871617659526, -42442.252331048534, -8232.527462545331, 12062.141247050911, -21487.402497220337, 27639.116661443313, 22102.589559863754, -0.046, 0.9540000000000001, 0.064, 192.0, 0.0, 0.0, 0.0, 0.0, 0.0, 0.0, 0.0, 0.0, 0.0, 1.6527978249792008E9, 0.0, 2022-05-17 16:30:24.979
159.0, 60960.82907448162, 28091.13598956299, -42457.31740681141, -8255.907387245583, 12066.544540708606, -21501.752317160644, 27662.630696610297, 22091.03370798036, -0.046, 0.9540000000000001, 0.064, 192.0, 0.0, 0.0, 0.0, 0.0, 0.0, 0.0, 0.0, 0.0, 0.0, 1.6527978249792056E9, 0.0, 2022-05-17 16:30:24.979
160.0, 60929.08959735509, 28038.050596481633, -42500.54568058797, -8311.65263791712, 12005.010188223147, -21548.132186905408, 27637.32852188689, 22044.452672535503, -0.046, 0.9540000000000001, 0.064, 192.0, 0.0, 0.0, 0.0, 0.0, 0.0, 0.0, 0.0, 0.0, 0.0, 1.6527978249792104E9, 0.0, 2022-05-17 16:30:24.979
161.0, 60891.024576547694, 28022.046747451634, -42529.17826523522, -8312.367893739689, 11964.553530759042, -21551.93198346281, 27636.27798989749, 22043.98328590194, -0.046, 0.9540000000000001, 0.064, 192.0, 0.0, 0.0, 0.0, 0.0, 0.0, 0.0, 0.0, 0.0, 0.0, 1.652797824979215E9, 0.0, 2022-05-17 16:30:24.979
162.0, 60896.18782951687, 28075.310954488632, -42478.84213672187, -8234.62852652413, 11983.261940868133, -21490.509389699626, 27703.646147685784, 22142.75564464994, -0.046, 0.9540000000000001, 0.064, 192.0, 0.0, 0.0, 0.0, 0.0, 0.0, 0.0, 0.0, 0.0, 0.0, 1.6527978249792192E9, 0.0, 2022-05-17 16:30:24.979
163.0, 60906.89431511096, 28102.088344346088, -42442.69936593764, -8192.070805081226, 12005.054891712058, -21462.6144126194, 27735.832659701427, 22160.212357069537, -0.046, 0.9540000000000001, 0.064, 192.0, 0.0, 0.0, 0.0, 0.0, 0.0, 0.0, 0.0, 0.0, 0.0, 1.6527978249792235E9, 0.0, 2022-05-17 16:30:24.979
164.0, 60894.71261438282, 28063.73275086078, -42468.962665672625, -8221.128072873125, 11983.865437968427, -21498.77953514809, 27700.20397903967, 22115.687682114563, -0.046, 0.9540000000000001, 0.064, 192.0, 0.0, 0.0, 0.0, 0.0, 0.0, 0.0, 0.0, 0.0, 0.0, 1.652797824979228E9, 0.0, 2022-05-17 16:30:24.979
165.0, 60851.79726502863, 28003.472447809276, -42512.302698171465, -8265.093954216714, 11918.2630679921, -21550.255602628662, 27646.112757457824, 22076.41566710659, -0.046, 0.9540000000000001, 0.064, 192.0, 0.0, 0.0, 0.0, 0.0, 0.0, 0.0, 0.0, 0.0, 0.0, 1.6527978249792333E9, 0.0, 2022-05-17 16:30:24.979
166.0, 60814.89453493292, 27995.761095972193, -42526.11607624484, -8241.691677772007, 11883.170829197268, -21546.142881648884, 27636.009768964028, 22097.448658639034, -0.014, 1.054, 0.07, 192.0, 255.0, 144.0, 32.0, 240.0, 2.0, 48.0, 0.0, 0.0, 0.0, 1.652797824979238E9, 0.0, 2022-05-17 16:30:24.979
167.0, 60806.75849995119, 28032.93204700137, -42489.861546738335, -8152.821141817706, 11910.842288832939, -21485.30143324154, 27672.443112426176, 22151.942211621074, -0.014, 1.054, 0.07, 192.0, 0.0, 0.0, 0.0, 0.0, 0.0, 0.0, 0.0, 0.0, 0.0, 1.6527978249792423E9, 0.0, 2022-05-17 16:30:24.979
168.0, 60880.206332231326, 28099.89787338947, -42347.52563804694, -8050.40544872349, 11975.125905886402, -21416.793336486022, 27720.834639171917, 22219.623293831744, -0.014, 1.054, 0.07, 192.0, 0.0, 0.0, 0.0, 0.0, 0.0, 0.0, 0.0, 0.0, 0.0, 1.652797824979247E9, 0.0, 2022-05-17 16:30:24.979
169.0, 60888.90116082444, 28086.93386160539, -42355.48285907303, -8058.519131960766, 11953.98115563168, -21437.982790229653, 27693.677269658718, 22187.369726582736, -0.014, 1.054, 0.07, 192.0, 0.0, 0.0, 0.0, 0.0, 0.0, 0.0, 0.0, 0.0, 0.0, 1.6527978249792523E9, 0.0, 2022-05-17 16:30:24.979
170.0, 60845.874052747975, 28014.64832003693, -42421.77813312747, -8117.013647200304, 11904.561448640998, -21510.78242192059, 27637.66379805372, 22107.23872271046, -0.014, 1.054, 0.07, 192.0, 0.0, 0.0, 0.0, 0.0, 0.0, 0.0, 0.0, 0.0, 0.0, 1.652797824979257E9, 0.0, 2022-05-17 16:30:24.979
171.0, 60831.72539850777, 28008.367479844987, -42431.45643847662, -8112.699760520431, 11910.775233599572, -21501.417040993816, 27616.183771632168, 22077.980289218463, -0.014, 1.054, 0.07, 192.0, 0.0, 0.0, 0.0, 0.0, 0.0, 0.0, 0.0, 0.0, 0.0, 1.652797824979269E9, 0.0, 2022-05-17 16:30:24.979
172.0, 60837.80507299961, 28053.920335044902, -42413.239766745544, -8074.187704823936, 11970.007356406137, -21435.70291229521, 27624.23039963608, 22134.060816056826, -0.014, 1.054, 0.07, 192.0, 0.0, 0.0, 0.0, 0.0, 0.0, 0.0, 0.0, 0.0, 0.0, 1.652797824979274E9, 0.0, 2022-05-17 16:30:24.979
173.0, 60872.919663538894, 28096.165132065435, -42346.20688512408, -8042.962317819873, 12030.71469434675, -21375.733181921623, 27662.004847765547, 22185.20160737057, -0.014, 1.054, 0.07, 192.0, 0.0, 0.0, 0.0, 0.0, 0.0, 0.0, 0.0, 0.0, 0.0, 1.6527978249792788E9, 0.0, 2022-05-17 16:30:24.979
174.0, 60886.844800334555, 28070.952364319848, -42353.44885032759, -8080.334434549146, 12039.633040384417, -21390.440629773217, 27646.157460946735, 22157.19487156807, -0.014, 1.054, 0.07, 192.0, 0.0, 0.0, 0.0, 0.0, 0.0, 0.0, 0.0, 0.0, 0.0, 1.652797824979283E9, 0.0, 2022-05-17 16:30:24.979
175.0, 60860.626204088476, 28007.138133899945, -42426.36024074081, -8144.483941135877, 11979.685661755284, -21444.353037399418, 27590.568672486388, 22108.199847722037, -0.014, 1.054, 0.07, 192.0, 0.0, 0.0, 0.0, 0.0, 0.0, 0.0, 0.0, 0.0, 0.0, 1.6527978249792879E9, 0.0, 2022-05-17 16:30:24.979
176.0, 60854.23360517426, 28008.948625200825, -42437.37965075728, -8142.047600990249, 11961.267824324112, -21430.33849362594, 27576.710590924096, 22120.493307172455, -0.028, 1.07, 0.108, 192.0, 255.0, 32.0, 33.0, 112.0, 3.0, 96.0, 0.0, 0.0, 0.0, 1.6527978249792922E9, 0.0, 2022-05-17 16:30:24.979
177.0, 60854.63593657446, 28053.87563155599, -42419.319441237385, -8103.98258018286, 11989.542781060074, -21366.61367018386, 27607.623053505788, 22170.53886300789, -0.028, 1.07, 0.108, 192.0, 0.0, 0.0, 0.0, 0.0, 0.0, 0.0, 0.0, 0.0, 0.0, 1.6527978249792964E9, 0.0, 2022-05-17 16:30:24.979
178.0, 60899.76410862972, 28096.254539043253, -42353.94058870561, -8071.237274555836, 12035.274450215633, -21298.88788448428, 27655.500490129056, 22220.718529310052, -0.028, 1.07, 0.108, 192.0, 0.0, 0.0, 0.0, 0.0, 0.0, 0.0, 0.0, 0.0, 0.0, 1.652797824979301E9, 0.0, 2022-05-17 16:30:24.979
179.0, 60920.55123097316, 28075.959155077835, -42334.36046056276, -8109.79403374124, 12024.14328147689, -21303.000605464054, 27642.98351323408, 22195.81868598684, -0.028, 1.07, 0.108, 192.0, 0.0, 0.0, 0.0, 0.0, 0.0, 0.0, 0.0, 0.0, 0.0, 1.6527978249793053E9, 0.0, 2022-05-17 16:30:24.979
180.0, 60888.923512568894, 28012.83782873605, -42403.62851662976, -8195.915305127539, 11961.290176068565, -21349.64869614228, 27580.242166548036, 22131.602124166744, -0.028, 1.07, 0.108, 192.0, 0.0, 0.0, 0.0, 0.0, 0.0, 0.0, 0.0, 0.0, 0.0, 1.6527978249793096E9, 0.0, 2022-05-17 16:30:24.979
181.0, 60864.22483494578, 28002.1089913975, -42456.579799244384, -8219.362285061155, 11923.78394887256, -21344.485443173104, 27561.667866905675, 22127.24353399796, -0.028, 1.07, 0.108, 192.0, 0.0, 0.0, 0.0, 0.0, 0.0, 0.0, 0.0, 0.0, 0.0, 1.652797824979314E9, 0.0, 2022-05-17 16:30:24.979
182.0, 60863.57663435658, 28043.660884339915, -42435.1668280562, -8175.418755462022, 11928.74603614164, -21313.66238756924, 27584.131370083258, 22158.42421751311, -0.028, 1.07, 0.108, 192.0, 0.0, 0.0, 0.0, 0.0, 0.0, 0.0, 0.0, 0.0, 0.0, 1.6527978249793186E9, 0.0, 2022-05-17 16:30:24.979
183.0, 60946.52395803022, 28123.925998678926, -42312.90278588567, -8110.755158752819, 11993.811964251037, -21235.654799420216, 27648.07971096989, 22222.640779333207, -0.028, 1.07, 0.108, 192.0, 0.0, 0.0, 0.0, 0.0, 0.0, 0.0, 0.0, 0.0, 0.0, 1.6527978249793272E9, 0.0, 2022-05-17 16:30:24.979
184.0, 60939.99724864928, 28080.451855713352, -42345.02224266795, -8163.23705473388, 11967.928644171792, -21260.57699448788, 27616.675510010187, 22188.666127761142, -0.028, 1.07, 0.108, 192.0, 0.0, 0.0, 0.0, 0.0, 0.0, 0.0, 0.0, 0.0, 0.0, 1.652797824979332E9, 0.0, 2022-05-17 16:30:24.979
185.0, 60902.69218715336, 28018.470468338786, -42404.81315908589, -8231.611041022663, 11899.755823583106, -21301.413631607727, 27561.17612852766, 22129.322246232303, -0.062, 1.05, 0.136, 192.0, 254.0, 16.0, 32.0, 208.0, 4.0, 64.0, 0.0, 0.0, 0.0, 1.6527978249793365E9, 0.0, 2022-05-17 16:30:24.979
186.0, 60875.13248623997, 28006.60169203302, -42437.78198215747, -8249.268919142356, 11839.227299598135, -21324.190059207685, 27523.78166005393, 22100.80142030733, -0.062, 1.05, 0.136, 192.0, 0.0, 0.0, 0.0, 0.0, 0.0, 0.0, 0.0, 0.0, 0.0, 1.6527978249793422E9, 0.0, 2022-05-17 16:30:24.979
187.0, 60876.562997885114, 28046.544259374652, -42419.00651681501, -8204.76659593184, 11838.601450753386, -21272.892805682757, 27559.79032037143, 22138.128833547693, -0.062, 1.05, 0.136, 192.0, 0.0, 0.0, 0.0, 0.0, 0.0, 0.0, 0.0, 0.0, 0.0, 1.6527978249793468E9, 0.0, 2022-05-17 16:30:24.979
188.0, 60917.5784489606, 28097.685050688393, -42389.681028089646, -8156.75504884184, 11891.865657790382, -21215.76174685499, 27610.729945985073, 22172.19289209758, -0.062, 1.05, 0.136, 192.0, 0.0, 0.0, 0.0, 0.0, 0.0, 0.0, 0.0, 0.0, 0.0, 1.6527978249793513E9, 0.0, 2022-05-17 16:30:24.979
189.0, 60941.718332972334, 28095.315765776133, -42373.20779242609, -8166.4110024465335, 11883.282587919544, -21222.713139380594, 27605.5666930159, 22142.442720227566, -0.062, 1.05, 0.136, 192.0, 0.0, 0.0, 0.0, 0.0, 0.0, 0.0, 0.0, 0.0, 0.0, 1.6527978249793563E9, 0.0, 2022-05-17 16:30:24.979
190.0, 60925.24509730877, 28044.912582029414, -42448.55552298493, -8221.642162995597, 11814.886249886305, -21272.31166032692, 27548.92737256615, 22073.867568238686, -0.062, 1.05, 0.136, 192.0, 0.0, 0.0, 0.0, 0.0, 0.0, 0.0, 0.0, 0.0, 0.0, 1.6527978249793608E9, 0.0, 2022-05-17 16:30:24.979
191.0, 60886.10719276753, 28013.530732814164, -42513.46498888314, -8247.100799930191, 11786.164258261235, -21292.83056173689, 27513.388098882213, 22036.49545150941, -0.062, 1.05, 0.136, 192.0, 0.0, 0.0, 0.0, 0.0, 0.0, 0.0, 0.0, 0.0, 0.0, 1.6527978249793656E9, 0.0, 2022-05-17 16:30:24.979
192.0, 60888.36471895751, 28064.068027027613, -42454.769307943505, -8189.723871913418, 11800.894057857282, -21234.984247086555, 27548.748558610507, 22100.4661441405, -0.062, 1.05, 0.136, 192.0, 0.0, 0.0, 0.0, 0.0, 0.0, 0.0, 0.0, 0.0, 0.0, 1.6527978249793727E9, 0.0, 2022-05-17 16:30:24.979
193.0, 60921.7805769182, 28120.684995732903, -42408.50119692102, -8135.297374164746, 11840.143721120801, -21187.755011052494, 27601.006937147016, 22150.44464474257, -0.062, 1.05, 0.136, 192.0, 0.0, 0.0, 0.0, 0.0, 0.0, 0.0, 0.0, 0.0, 0.0, 1.6527978249793773E9, 0.0, 2022-05-17 16:30:24.979
194.0, 60923.81458566363, 28087.42559998341, -42460.62546499079, -8168.243845491868, 11835.740427463106, -21227.608171416305, 27576.308259523903, 22099.907350529116, -0.062, 1.05, 0.136, 192.0, 0.0, 0.0, 0.0, 0.0, 0.0, 0.0, 0.0, 0.0, 0.0, 1.652797824979385E9, 0.0, 2022-05-17 16:30:24.979
195.0, 60880.206332231326, 28032.350901645532, -42536.353175205375, -8211.740340201895, 11792.489801942087, -21287.242625623065, 27504.603863311277, 22044.519727768868, -0.056, 0.984, 0.082, 192.0, 254.0, 64.0, 30.0, 192.0, 2.0, 144.0, 0.0, 0.0, 0.0, 1.6527978249793923E9, 0.0, 2022-05-17 16:30:24.979
196.0, 60868.181093714375, 28038.162355203913, -42481.680808267694, -8178.5032961968545, 11777.178856990202, -21288.941358201668, 27500.267624886947, 22017.384710000126, -0.056, 0.984, 0.082, 192.0, 0.0, 0.0, 0.0, 0.0, 0.0, 0.0, 0.0, 0.0, 0.0, 1.6527978249793975E9, 0.0, 2022-05-17 16:30:24.979
197.0, 60852.95955574031, 28061.139948503966, -42443.8169531604, -8134.984449742371, 11780.397508191767, -21255.21257581861, 27525.301578676892, 22044.966762657972, -0.056, 0.984, 0.082, 192.0, 0.0, 0.0, 0.0, 0.0, 0.0, 0.0, 0.0, 0.0, 0.0, 1.652797824979402E9, 0.0, 2022-05-17 16:30:24.979
198.0, 60850.65732606141, 28074.819216110616, -42470.907267440234, -8116.5219088222875, 11807.66663642724, -21240.952162856123, 27531.73888108002, 22091.32428065828, -0.056, 0.984, 0.082, 192.0, 0.0, 0.0, 0.0, 0.0, 0.0, 0.0, 0.0, 0.0, 0.0, 1.652797824979408E9, 0.0, 2022-05-17 16:30:24.979
199.0, 60869.030460003676, 28055.283791456677, -42548.95955907817, -8147.859054548629, 11806.705511415663, -21278.45839005213, 27499.328851619823, 22126.19300200856, -0.056, 0.984, 0.082, 192.0, 0.0, 0.0, 0.0, 0.0, 0.0, 0.0, 0.0, 0.0, 0.0, 1.6527978249794135E9, 0.0, 2022-05-17 16:30:24.979
200.0, 60887.113021268015, 28034.340206902052, -42510.201634192665, -8166.634519891086, 11807.443118982688, -21326.40288190876, 27500.312328375858, 22009.15926804057, -0.056, 0.984, 0.082, 192.0, 0.0, 0.0, 0.0, 0.0, 0.0, 0.0, 0.0, 0.0, 0.0, 1.652797824979419E9, 0.0, 2022-05-17 16:30:24.979
201.0, 60841.62722130147, 28007.518113555685, -42508.949936503166, -8178.100964796658, 11779.861066324838, -21349.045199041986, 27478.76524672094, 21935.86789797162, -0.056, 0.984, 0.082, 192.0, 0.0, 0.0, 0.0, 0.0, 0.0, 0.0, 0.0, 0.0, 0.0, 1.6527978249794278E9, 0.0, 2022-05-17 16:30:24.979
202.0, 60821.89063094743, 28026.762965531703, -42584.11885310637, -8157.693822108963, 11780.084583769392, -21314.198829436165, 27510.929406992127, 22001.336157481215, -0.056, 0.984, 0.082, 192.0, 0.0, 0.0, 0.0, 0.0, 0.0, 0.0, 0.0, 0.0, 0.0, 1.6527978249794343E9, 0.0, 2022-05-17 16:30:24.979
203.0, 60925.647428708966, 28113.152457851465, -42438.43018274668, -8075.729975191352, 11853.264195116068, -21235.364226742295, 27627.337292115368, 22212.426032117135, -0.056, 0.984, 0.082, 192.0, 0.0, 0.0, 0.0, 0.0, 0.0, 0.0, 0.0, 0.0, 0.0, 1.6527978249794393E9, 0.0, 2022-05-17 16:30:24.979
204.0, 60973.99425196579, 28125.512972535253, -42298.77648338991, -8044.281070742735, 11884.333119908944, -21229.664531906194, 27616.429640821178, 22015.440108232513, -0.056, 0.984, 0.082, 192.0, 0.0, 0.0, 0.0, 0.0, 0.0, 0.0, 0.0, 0.0, 0.0, 1.6527978249794445E9, 0.0, 2022-05-17 16:30:24.979
205.0, 60920.66298969543, 28052.780396077684, -42398.17469098267, -8087.196420096925, 11880.421564629265, -21303.380585119794, 27540.567820139866, 21911.7727174488, -0.026000000000000002, 0.996, 0.06, 192.0, 255.0, 48.0, 31.0, 32.0, 1.0, 224.0, 0.0, 0.0, 0.0, 1.6527978249794507E9, 0.0, 2022-05-17 16:30:24.979
206.0, 60876.85357056303, 28023.298445141132, -42447.415584017705, -8088.26930383078, 11851.811331726472, -21346.050065284977, 27520.719471063552, 21976.369258924635, -0.026000000000000002, 0.996, 0.06, 192.0, 0.0, 0.0, 0.0, 0.0, 0.0, 0.0, 0.0, 0.0, 0.0, 1.6527978249794557E9, 0.0, 2022-05-17 16:30:24.979
207.0, 60868.53872162566, 28056.55784089063, -42390.91037403469, -8017.548384374188, 11910.484660921653, -21273.20573010513, 27585.69599219513, 22115.46416467001, -0.026000000000000002, 0.996, 0.06, 192.0, 0.0, 0.0, 0.0, 0.0, 0.0, 0.0, 0.0, 0.0, 0.0, 1.6527978249794607E9, 0.0, 2022-05-17 16:30:24.979
208.0, 60915.790309404176, 28119.142725365487, -42310.86877714023, -7936.679772934887, 11954.919928898804, -21162.877519473735, 27676.04174328348, 22303.531742516967, -0.026000000000000002, 0.996, 0.06, 192.0, 0.0, 0.0, 0.0, 0.0, 0.0, 0.0, 0.0, 0.0, 0.0, 1.6527978249794652E9, 0.0, 2022-05-17 16:30:24.979
209.0, 60924.798062419664, 28098.065030344133, -42330.62771923873, -7967.05579364965, 11862.093134175913, -21191.398345398706, 27658.249754697055, 22314.37233857779, -0.026000000000000002, 0.996, 0.06, 192.0, 0.0, 0.0, 0.0, 0.0, 0.0, 0.0, 0.0, 0.0, 0.0, 1.6527978249794724E9, 0.0, 2022-05-17 16:30:24.979
210.0, 60874.01489901721, 28030.003968477726, -42375.688836060624, -8057.490951715822, 11627.355113906278, -21294.842218737867, 27578.297564780423, 22269.17711128916, -0.026000000000000002, 0.996, 0.06, 192.0, 0.0, 0.0, 0.0, 0.0, 0.0, 0.0, 0.0, 0.0, 0.0, 1.6527978249794774E9, 0.0, 2022-05-17 16:30:24.979
211.0, 60843.929450980366, 28010.40148859042, -42348.084431658324, -8109.190536640947, 11383.676395854522, -21344.150167006275, 27555.431730202643, 22300.760126204506, -0.026000000000000002, 0.996, 0.06, 192.0, 0.0, 0.0, 0.0, 0.0, 0.0, 0.0, 0.0, 0.0, 0.0, 1.6527978249794834E9, 0.0, 2022-05-17 16:30:24.979
212.0, 60876.60770137402, 28070.192405008365, -42242.383032129175, -8075.797030424718, 11194.938265673909, -21358.768207880046, 27581.13623632625, 22379.930005065205, -0.026000000000000002, 0.996, 0.06, 192.0, 0.0, 0.0, 0.0, 0.0, 0.0, 0.0, 0.0, 0.0, 0.0, 1.652797824979488E9, 0.0, 2022-05-17 16:30:24.979
213.0, 60918.360760016534, 28110.17967583891, -42182.79328141133, -8065.381117508545, 11090.62267430099, -21501.148820060353, 27548.770910354964, 22422.890057908306, -0.026000000000000002, 0.996, 0.06, 192.0, 0.0, 0.0, 0.0, 0.0, 0.0, 0.0, 0.0, 0.0, 0.0, 1.6527978249794924E9, 0.0, 2022-05-17 16:30:24.979
214.0, 60962.72897276032, 28104.99407112528, -42152.43961244102, -8111.068083175192, 11052.624708726968, -21662.81898770559, 27504.26858714445, 22369.827016571406, -0.026000000000000002, 0.996, 0.06, 192.0, 0.0, 0.0, 0.0, 0.0, 0.0, 0.0, 0.0, 0.0, 0.0, 1.6527978249795032E9, 0.0, 2022-05-17 16:30:24.979
215.0, 60973.74838277679, 28061.095245015058, -42183.44148200053, -8197.77049991733, 11039.66069694289, -21795.498942792292, 27425.90337108414, 22275.480303225555, 0.084, 1.114, 0.25, 192.0, 2.0, 160.0, 34.0, 208.0, 7.0, 208.0, 0.0, 0.0, 0.0, 1.6527978249795089E9, 0.0, 2022-05-17 16:30:24.979
216.0, 60935.95158290286, 28026.003006220224, -42287.73472162899, -8264.69162281652, 11082.91132246391, -21866.532786671258, 27344.61007650019, 22215.77879378543, 0.084, 1.114, 0.25, 192.0, 0.0, 0.0, 0.0, 0.0, 0.0, 0.0, 0.0, 0.0, 0.0, 1.652797824979514E9, 0.0, 2022-05-17 16:30:24.979
217.0, 60929.380170033, 28057.921297302404, -42327.543178503896, -8237.489549814409, 11232.89152775902, -21854.552251643214, 27338.619808986165, 22243.36084644328, 0.084, 1.114, 0.25, 192.0, 0.0, 0.0, 0.0, 0.0, 0.0, 0.0, 0.0, 0.0, 0.0, 1.6527978249795184E9, 0.0, 2022-05-17 16:30:24.979
218.0, 60986.37711839403, 28119.03096664321, -42298.26239326744, -8180.76082238684, 11414.477099713935, -21786.491189776803, 27352.54494578182, 22295.84274242434, 0.084, 1.114, 0.25, 192.0, 0.0, 0.0, 0.0, 0.0, 0.0, 0.0, 0.0, 0.0, 0.0, 1.652797824979524E9, 0.0, 2022-05-17 16:30:24.979
219.0, 61010.427595427944, 28099.629652456006, -42321.06117261186, -8236.662535269563, 11530.415598203612, -21759.534985963703, 27245.770662518822, 22258.604736161797, 0.084, 1.114, 0.25, 192.0, 0.0, 0.0, 0.0, 0.0, 0.0, 0.0, 0.0, 0.0, 0.0, 1.652797824979529E9, 0.0, 2022-05-17 16:30:24.979
220.0, 60989.484010873326, 28030.942741744846, -42395.04544675892, -8400.053787237857, 11492.574094840777, -21760.987849353296, 27093.30941358917, 22183.502874791968, 0.084, 1.114, 0.25, 192.0, 0.0, 0.0, 0.0, 0.0, 0.0, 0.0, 0.0, 0.0, 0.0, 1.6527978249795349E9, 0.0, 2022-05-17 16:30:24.979
221.0, 60980.56566483565, 28011.96611070229, -42380.09212971832, -8580.924103370202, 11227.571812578657, -21724.219229724316, 26973.70522900882, 22158.692438446575, 0.084, 1.114, 0.25, 192.0, 0.0, 0.0, 0.0, 0.0, 0.0, 0.0, 0.0, 0.0, 0.0, 1.6527978249795396E9, 0.0, 2022-05-17 16:30:24.979
222.0, 60962.57251054914, 28030.808631278116, -42355.41580383966, -8698.159003038289, 11075.021156671186, -21639.19319381633, 26911.790896867624, 22175.2327293435, 0.084, 1.114, 0.25, 192.0, 0.0, 0.0, 0.0, 0.0, 0.0, 0.0, 0.0, 0.0, 0.0, 1.652797824979546E9, 0.0, 2022-05-17 16:30:24.979
223.0, 60985.63951082701, 28056.759006590728, -42341.155390877175, -8775.45133536474, 11033.17869105085, -21546.32169560453, 26906.113553775973, 22179.680726490107, 0.084, 1.114, 0.25, 192.0, 0.0, 0.0, 0.0, 0.0, 0.0, 0.0, 0.0, 0.0, 0.0, 1.6527978249795513E9, 0.0, 2022-05-17 16:30:24.979
224.0, 61002.895057546506, 28017.2634741382, -42322.625794723725, -8886.740671007714, 10995.046615010097, -21535.816375710532, 26883.09125698701, 22119.465126927513, 0.084, 1.114, 0.25, 192.0, 0.0, 0.0, 0.0, 0.0, 0.0, 0.0, 0.0, 0.0, 0.0, 1.652797824979558E9, 0.0, 2022-05-17 16:30:24.979
225.0, 61017.51309842028, 27960.15476705489, -42334.47221928504, -8971.498485982238, 10973.253664166174, -21518.896105157866, 26851.50824207166, 22040.116434111173, -0.078, 0.84, 0.182, 192.0, 253.0, 144.0, 26.0, 64.0, 5.0, 176.0, 0.0, 0.0, 0.0, 1.6527978249795637E9, 0.0, 2022-05-17 16:30:24.979
226.0, 60972.36257462056, 27903.582501838508, -42398.21939447158, -9025.857928497546, 10931.344143312472, -21506.714404429724, 26810.850418907456, 21977.55390138077, -0.078, 0.84, 0.182, 192.0, 0.0, 0.0, 0.0, 0.0, 0.0, 0.0, 0.0, 0.0, 0.0, 1.652797824979568E9, 0.0, 2022-05-17 16:30:24.979
227.0, 60948.82618770912, 27922.425022414332, -42408.38943819874, -8991.570352503104, 10975.757059545167, -21414.51345855158, 26848.870736225934, 22001.73848888141, -0.078, 0.84, 0.182, 192.0, 0.0, 0.0, 0.0, 0.0, 0.0, 0.0, 0.0, 0.0, 0.0, 1.652797824979575E9, 0.0, 2022-05-17 16:30:24.979
228.0, 60965.03120243922, 27947.63779015992, -42422.180464527664, -8953.818256118091, 11014.447929197304, -21328.79451856548, 26904.437172941827, 22006.052375561285, -0.078, 0.84, 0.182, 192.0, 0.0, 0.0, 0.0, 0.0, 0.0, 0.0, 0.0, 0.0, 0.0, 1.6527978249795814E9, 0.0, 2022-05-17 16:30:24.979
229.0, 60956.336373846105, 27913.216103698745, -42441.17944731467, -8983.881352410479, 10898.10709930743, -21351.36978046534, 26895.697640859802, 21932.96217119243, -0.078, 0.84, 0.182, 192.0, 0.0, 0.0, 0.0, 0.0, 0.0, 0.0, 0.0, 0.0, 0.0, 1.6527978249795868E9, 0.0, 2022-05-17 16:30:24.979
230.0, 60964.584167550114, 27884.85173998496, -42504.680753312205, -9015.844346981567, 10803.894496428311, -21385.27737680404, 26870.574280092038, 21865.191682003937, -0.078, 0.84, 0.182, 192.0, 0.0, 0.0, 0.0, 0.0, 0.0, 0.0, 0.0, 0.0, 0.0, 1.6527978249795933E9, 0.0, 2022-05-17 16:30:24.979
231.0, 60946.52395803022, 27877.118036403423, -42485.97234320311, -8999.572277018104, 10796.80899343598, -21373.118027820354, 26875.26814642765, 21840.98474275884, -0.078, 0.84, 0.182, 192.0, 0.0, 0.0, 0.0, 0.0, 0.0, 0.0, 0.0, 0.0, 0.0, 1.6527978249795983E9, 0.0, 2022-05-17 16:30:24.979
232.0, 60897.03719580617, 27893.077181944514, -42479.73620650008, -8949.727886882769, 10891.133355037375, -21303.648806053257, 26916.7529841367, 21862.442417435937, -0.078, 0.84, 0.182, 192.0, 0.0, 0.0, 0.0, 0.0, 0.0, 0.0, 0.0, 0.0, 0.0, 1.6527978249796033E9, 0.0, 2022-05-17 16:30:24.979
233.0, 60918.29370478317, 27945.022636058646, -42450.79069743046, -8864.143057363399, 11076.406964827414, -21253.78206417347, 26976.18627264336, 21888.52690321528, -0.078, 0.84, 0.182, 192.0, 0.0, 0.0, 0.0, 0.0, 0.0, 0.0, 0.0, 0.0, 0.0, 1.6527978249796083E9, 0.0, 2022-05-17 16:30:24.979
234.0, 60906.33552149958, 27921.396842169386, -42529.24532046859, -8855.001193881179, 11283.115897550095, -21290.729497758093, 26971.224185374285, 21823.572733828158, -0.078, 0.84, 0.182, 192.0, 0.0, 0.0, 0.0, 0.0, 0.0, 0.0, 0.0, 0.0, 0.0, 1.6527978249796128E9, 0.0, 2022-05-17 16:30:24.979
235.0, 60874.21606471731, 27862.924678674302, -42634.67849906427, -8870.669766744348, 11437.365286036169, -21387.065516360464, 26942.05515886011, 21736.602096152557, -0.06, 0.874, 0.156, 192.0, 254.0, 32.0, 27.0, 80.0, 4.0, 224.0, 0.0, 0.0, 0.0, 1.6527978249796298E9, 0.0, 2022-05-17 16:30:24.979
236.0, 60959.10799015856, 27921.32978693602, -42460.916037668714, -8757.68169852277, 11569.24057832248, -21414.8040312295, 26997.19691243135, 21738.703160131357, -0.06, 0.874, 0.156, 192.0, 0.0, 0.0, 0.0, 0.0, 0.0, 0.0, 0.0, 0.0, 0.0, 1.6527978249796364E9, 0.0, 2022-05-17 16:30:24.979
237.0, 60945.696943485375, 27950.878793105938, -42449.62840671878, -8641.743200033094, 11702.904010165217, -21455.8641857939, 27064.5874219641, 21767.49220698979, -0.06, 0.874, 0.156, 192.0, 0.0, 0.0, 0.0, 0.0, 0.0, 0.0, 0.0, 0.0, 0.0, 1.6527978249796422E9, 0.0, 2022-05-17 16:30:24.979
238.0, 60956.91751920194, 27998.800933218117, -42459.19495334566, -8536.533538881962, 11795.306121743455, -21442.90017400982, 27153.100330007117, 21813.469745334358, -0.06, 0.874, 0.156, 192.0, 0.0, 0.0, 0.0, 0.0, 0.0, 0.0, 0.0, 0.0, 0.0, 1.6527978249796507E9, 0.0, 2022-05-17 16:30:24.979
239.0, 60957.029277924215, 27984.62992723345, -42492.856680495344, -8499.429643086152, 11791.126345530314, -21465.028401020576, 27199.48019975188, 21811.346329611104, -0.06, 0.874, 0.156, 192.0, 0.0, 0.0, 0.0, 0.0, 0.0, 0.0, 0.0, 0.0, 0.0, 1.6527978249796567E9, 0.0, 2022-05-17 16:30:24.979
240.0, 60946.21103360785, 27946.073168048046, -42522.56214887645, -8501.86598323178, 11729.435530833665, -21537.157480377853, 27209.136153356572, 21773.46012275936, -0.06, 0.874, 0.156, 192.0, 0.0, 0.0, 0.0, 0.0, 0.0, 0.0, 0.0, 0.0, 0.0, 1.652797824979662E9, 0.0, 2022-05-17 16:30:24.979
241.0, 60919.277181539204, 27940.373473211945, -42530.541721646994, -8487.87379120276, 11650.35505895079, -21539.07973040101, 27253.77258703382, 21779.271576317737, -0.06, 0.874, 0.156, 192.0, 0.0, 0.0, 0.0, 0.0, 0.0, 0.0, 0.0, 0.0, 0.0, 1.6527978249796689E9, 0.0, 2022-05-17 16:30:24.979
242.0, 60882.776782843684, 27967.083807836036, -42527.09955300087, -8436.53183418892, 11600.465965326544, -21536.531631533104, 27311.417735984058, 21830.971161242862, -0.06, 0.874, 0.156, 192.0, 0.0, 0.0, 0.0, 0.0, 0.0, 0.0, 0.0, 0.0, 0.0, 1.6527978249796748E9, 0.0, 2022-05-17 16:30:24.979
243.0, 60910.336483757084, 28018.045785194136, -42467.84507844986, -8367.3755368442, 11606.500936329478, -21523.478212771202, 27366.5594895553, 21881.888435112054, -0.06, 0.874, 0.156, 192.0, 0.0, 0.0, 0.0, 0.0, 0.0, 0.0, 0.0, 0.0, 0.0, 1.6527978249796813E9, 0.0, 2022-05-17 16:30:24.979
244.0, 60923.09932984106, 28018.55987531661, -42464.64877899275, -8356.780809972382, 11588.396023320678, -21553.31779161904, 27387.95010899903, 21863.112969769594, -0.06, 0.874, 0.156, 192.0, 0.0, 0.0, 0.0, 0.0, 0.0, 0.0, 0.0, 0.0, 0.0, 1.6527978249796875E9, 0.0, 2022-05-17 16:30:24.979
245.0, 60904.323864498605, 27986.574529001064, -42511.98977374909, -8379.3784236167, 11553.124970570205, -21622.071757563564, 27368.347629111726, 21825.874963507053, -0.004, 0.998, 0.166, 192.0, 255.0, 224.0, 31.0, 48.0, 5.0, 48.0, 0.0, 0.0, 0.0, 1.6527978249796932E9, 0.0, 2022-05-17 16:30:24.979
246.0, 60873.94784378384, 27975.39865677341, -42543.88571308681, -8364.827437976293, 11542.351429742746, -21644.5576124856, 27358.51286155139, 21836.961428756887, -0.004, 0.998, 0.166, 192.0, 0.0, 0.0, 0.0, 0.0, 0.0, 0.0, 0.0, 0.0, 0.0, 1.6527978249796996E9, 0.0, 2022-05-17 16:30:24.979
247.0, 60859.307451165616, 28015.296520626132, -42539.638881640305, -8304.365969224687, 11563.67499395311, -21596.88134156243, 27407.641995864153, 21900.753307432333, -0.004, 0.998, 0.166, 192.0, 0.0, 0.0, 0.0, 0.0, 0.0, 0.0, 0.0, 0.0, 0.0, 1.6527978249797084E9, 0.0, 2022-05-17 16:30:24.979
248.0, 60871.69031759386, 28042.74446281725, -42493.23666015109, -8252.956956977481, 11595.883857713206, -21562.638469056903, 27453.70894118654, 21966.91447102004, -0.004, 0.998, 0.166, 192.0, 0.0, 0.0, 0.0, 0.0, 0.0, 0.0, 0.0, 0.0, 0.0, 1.6527978249797163E9, 0.0, 2022-05-17 16:30:24.979
249.0, 60899.920570840906, 28037.111823214513, -42503.160834689246, -8256.220311667958, 11590.452383810567, -21584.49847513419, 27434.844068866263, 21968.412037898546, -0.004, 0.998, 0.166, 192.0, 0.0, 0.0, 0.0, 0.0, 0.0, 0.0, 0.0, 0.0, 0.0, 1.6527978249797232E9, 0.0, 2022-05-17 16:30:24.979
250.0, 60909.19654478986, 28001.706659997304, -42541.382317707816, -8281.477782902453, 11568.055935866349, -21628.553763455602, 27406.390298174658, 21928.268304856814, -0.004, 0.998, 0.166, 192.0, 0.0, 0.0, 0.0, 0.0, 0.0, 0.0, 0.0, 0.0, 0.0, 1.6527978249797292E9, 0.0, 2022-05-17 16:30:24.979
251.0, 60822.248258858715, 27939.278237733633, -42606.51530105058, -8313.440777473543, 11556.433028749589, -21686.020098450197, 27350.734454480942, 21900.52978998778, -0.004, 0.998, 0.166, 192.0, 0.0, 0.0, 0.0, 0.0, 0.0, 0.0, 0.0, 0.0, 0.0, 1.6527978249797359E9, 0.0, 2022-05-17 16:30:24.979
252.0, 60823.94699143732, 27989.368497057974, -42551.55236143498, -8229.577032277231, 11589.893590199184, -21633.627609446958, 27383.770332785887, 21925.809612966732, -0.004, 0.998, 0.166, 192.0, 0.0, 0.0, 0.0, 0.0, 0.0, 0.0, 0.0, 0.0, 0.0, 1.652797824979745E9, 0.0, 2022-05-17 16:30:24.979
253.0, 60861.78849480015, 28045.046692496147, -42423.63332791726, -8129.932955495472, 11650.980907795538, -21568.31581214855, 27437.86155436773, 21952.72111329092, -0.004, 0.998, 0.166, 192.0, 0.0, 0.0, 0.0, 0.0, 0.0, 0.0, 0.0, 0.0, 0.0, 1.652797824979752E9, 0.0, 2022-05-17 16:30:24.979
254.0, 60918.04783559416, 28065.431483439384, -42391.849147301815, -8101.546240037232, 11681.044004087926, -21555.485910831205, 27449.596220206764, 21982.091305505193, -0.004, 0.998, 0.166, 192.0, 0.0, 0.0, 0.0, 0.0, 0.0, 0.0, 0.0, 0.0, 0.0, 1.6527978249797597E9, 0.0, 2022-05-17 16:30:24.979
255.0, 60900.90404759694, 28014.380099103466, -42430.18238904267, -8152.642327862064, 11646.443503671111, -21609.711242879777, 27381.423399618077, 21920.892229186564, -0.004, 0.998, 0.166, 192.0, 0.0, 0.0, 32.0, 160.0, 4.0, 224.0, 0.0, 0.0, 0.0, 1.6527978249797692E9, 0.0, 2022-05-17 16:30:24.979
0.0, 60857.072276720086, 27992.564796515086, -42473.142441885764, -8167.081554780192, 11639.894442545707, -21618.763699384177, 27354.5566027828, 21905.42482202349, -0.004, 0.998, 0.166, 192.0, 0.0, 0.0, 0.0, 0.0, 0.0, 0.0, 0.0, 0.0, 0.0, 1.652797824979792E9, 0.0, 2022-05-17 16:30:24.979
1.0, 60848.57861382707, 28030.763927789205, -42442.43114500417, -8122.869804247595, 11679.300568020411, -21567.757018537166, 27380.395219373135, 21971.3848199111, -0.004, 0.998, 0.166, 192.0, 0.0, 0.0, 0.0, 0.0, 0.0, 0.0, 0.0, 0.0, 0.0, 1.6527978249797983E9, 0.0, 2022-05-17 16:30:24.979
2.0, 60897.10425103954, 28088.900815117457, -42336.46152454156, -8063.995309352316, 11758.068115480914, -21494.465648468216, 27433.055929309838, 22032.78506192983, -0.004, 0.998, 0.166, 192.0, 0.0, 0.0, 0.0, 0.0, 0.0, 0.0, 0.0, 0.0, 0.0, 1.6527978249798033E9, 0.0, 2022-05-17 16:30:24.979
3.0, 60902.62513192, 28074.327477732597, -42355.639321284216, -8101.36742608159, 11792.087470541892, -21496.700822913746, 27414.168705245105, 22031.756881684887, -0.004, 0.998, 0.166, 192.0, 0.0, 0.0, 0.0, 0.0, 0.0, 0.0, 0.0, 0.0, 0.0, 1.6527978249798093E9, 0.0, 2022-05-17 16:30:24.979
4.0, 60875.82539031809, 28018.35870961651, -42436.0161943455, -8182.90658985455, 11787.95239781766, -21537.559811778046, 27368.280573878357, 21982.06895376074, -0.004, 0.998, 0.166, 192.0, 0.0, 0.0, 0.0, 0.0, 0.0, 0.0, 0.0, 0.0, 0.0, 1.6527978254598165E9, 0.0, 2022-05-17 16:30:25.459
5.0, 60851.97607898428, 27995.358764572, -42459.39611904575, -8214.936639659005, 11758.984537003582, -21561.02914345612, 27335.848192673708, 21915.751327961843, -0.004, 0.998, 0.166, 192.0, 0.0, 0.0, 0.0, 0.0, 0.0, 0.0, 0.0, 0.0, 0.0, 1.652797825459982E9, 0.0, 2022-05-17 16:30:25.459
6.0, 60886.10719276753, 28055.283791456677, -42383.84722278681, -8154.3857639295775, 11805.47616547062, -21505.328596273495, 27369.509919823402, 21965.416904141537, -0.004, 0.998, 0.166, 192.0, 0.0, 0.0, 0.0, 0.0, 0.0, 0.0, 0.0, 0.0, 0.0, 1.652797825459988E9, 0.0, 2022-05-17 16:30:25.459
7.0, 60893.79619286015, 28091.247748285266, -42366.97165572306, -8121.2157751579025, 11881.516800107574, -21441.46966236468, 27411.106516254727, 22012.132050053126, -0.004, 0.998, 0.166, 192.0, 0.0, 0.0, 0.0, 0.0, 0.0, 0.0, 0.0, 0.0, 0.0, 1.6527978254599943E9, 0.0, 2022-05-17 16:30:25.459
8.0, 60895.919608583405, 28093.54997796416, -42348.97850143653, -8135.319725909201, 11891.105698478903, -21438.698046052225, 27407.37377493069, 22000.330328980726, -0.004, 0.998, 0.166, 192.0, 0.0, 0.0, 0.0, 0.0, 0.0, 0.0, 0.0, 0.0, 0.0, 1.6527978254599996E9, 0.0, 2022-05-17 16:30:25.459
9.0, 60874.95367228433, 28036.39656739194, -42365.138812677724, -8181.364319487134, 11861.333174864432, -21479.042944794055, 27367.27474537787, 21961.259479672848, -0.04, 1.054, 0.16, 192.0, 254.0, 192.0, 32.0, 240.0, 5.0, 0.0, 0.0, 0.0, 0.0, 1.652797825460006E9, 0.0, 2022-05-17 16:30:25.460
10.0, 60836.48632007674, 27992.609500003997, -42441.470019992594, -8213.170851847035, 11806.61610443784, -21505.35094801795, 27327.779212925343, 21934.549145048757, -0.04, 1.054, 0.16, 192.0, 0.0, 0.0, 0.0, 0.0, 0.0, 0.0, 0.0, 0.0, 0.0, 1.6527978254600117E9, 0.0, 2022-05-17 16:30:25.460
11.0, 60830.764273496185, 28026.427689364875, -42418.201854014624, -8173.921188583517, 11839.853148442882, -21454.47837763767, 27352.79081497083, 21983.812389828254, -0.04, 1.054, 0.16, 192.0, 0.0, 0.0, 0.0, 0.0, 0.0, 0.0, 0.0, 0.0, 0.0, 1.6527978254600174E9, 0.0, 2022-05-17 16:30:25.460
12.0, 60875.75833508472, 28085.101018560057, -42352.39831833819, -8116.3430948666455, 11900.538134639042, -21387.62430997185, 27408.80428657583, 22045.056169635795, -0.04, 1.054, 0.16, 192.0, 0.0, 0.0, 0.0, 0.0, 0.0, 0.0, 0.0, 0.0, 0.0, 1.6527978254600234E9, 0.0, 2022-05-17 16:30:25.460
13.0, 60906.29081801067, 28078.99899232376, -42346.542161290905, -8126.803711271729, 11915.737320868651, -21374.727353421134, 27410.14539124315, 22032.40508227409, -0.04, 1.054, 0.16, 192.0, 0.0, 0.0, 0.0, 0.0, 0.0, 0.0, 0.0, 0.0, 0.0, 1.652797825460029E9, 0.0, 2022-05-17 16:30:25.460
14.0, 60882.66502412141, 28029.936913244357, -42406.19896724212, -8169.04850829226, 11882.433221630243, -21439.68152280826, 27370.359286112704, 22026.794794415808, -0.04, 1.054, 0.16, 192.0, 0.0, 0.0, 0.0, 0.0, 0.0, 0.0, 0.0, 0.0, 0.0, 1.652797825460034E9, 0.0, 2022-05-17 16:30:25.460
15.0, 60830.361942095995, 27990.620194747473, -42470.437880806676, -8195.512973727344, 11846.670430501752, -21479.825255849988, 27331.243733315914, 21903.14494408905, -0.04, 1.054, 0.16, 192.0, 0.0, 0.0, 0.0, 0.0, 0.0, 0.0, 0.0, 0.0, 0.0, 1.6527978254600387E9, 0.0, 2022-05-17 16:30:25.460
16.0, 60829.870203717976, 28009.73093625676, -42422.13576103876, -8162.611205889131, 11871.749087780607, -21450.276249680075, 27337.234000829936, 21892.28199628377, -0.04, 1.054, 0.16, 192.0, 0.0, 0.0, 0.0, 0.0, 0.0, 0.0, 0.0, 0.0, 0.0, 1.6527978254600434E9, 0.0, 2022-05-17 16:30:25.460
17.0, 60891.024576547694, 28081.83766386958, -42354.789954994914, -8088.805745697707, 11929.97538208668, -21384.852693659388, 27407.99962377544, 21970.088418732696, -0.04, 1.054, 0.16, 192.0, 0.0, 0.0, 0.0, 0.0, 0.0, 0.0, 0.0, 0.0, 0.0, 1.6527978254600484E9, 0.0, 2022-05-17 16:30:25.460
18.0, 60931.43653052289, 28095.047544842666, -42348.37500433624, -8085.050652629216, 11946.873300894893, -21373.0956760759, 27413.878132567184, 21985.846398573685, -0.042, 1.04, 0.156, 192.0, 254.0, 176.0, 32.0, 128.0, 4.0, 224.0, 0.0, 0.0, 0.0, 1.6527978254600537E9, 0.0, 2022-05-17 16:30:25.460
19.0, 60892.54449517066, 28032.462660367808, -42443.928711882676, -8159.839589576673, 11892.267989190577, -21433.355979127406, 27359.406931329602, 21916.24306633986, -0.042, 1.04, 0.156, 192.0, 0.0, 0.0, 0.0, 0.0, 0.0, 0.0, 0.0, 0.0, 0.0, 1.6527978254600592E9, 0.0, 2022-05-17 16:30:25.460
20.0, 60859.441561632346, 28002.198398375323, -42496.298849141465, -8190.752052158363, 11845.709305490172, -21463.352020186427, 27347.091120134726, 21892.214941050406, -0.042, 1.04, 0.156, 192.0, 0.0, 0.0, 0.0, 0.0, 0.0, 0.0, 0.0, 0.0, 0.0, 1.652797825460064E9, 0.0, 2022-05-17 16:30:25.460
21.0, 60845.67288704788, 28020.884456739957, -42497.41643636423, -8157.582063386687, 11872.754916281096, -21438.698046052225, 27361.84327147523, 21922.121575131605, -0.042, 1.04, 0.156, 192.0, 0.0, 0.0, 0.0, 0.0, 0.0, 0.0, 0.0, 0.0, 0.0, 1.6527978254600685E9, 0.0, 2022-05-17 16:30:25.460
22.0, 60898.311245240126, 28078.730771390292, -42444.4651537496, -8096.673559745975, 11942.067675837003, -21374.056801087478, 27411.28533021037, 21980.414924671048, -0.042, 1.04, 0.156, 192.0, 0.0, 0.0, 0.0, 0.0, 0.0, 0.0, 0.0, 0.0, 0.0, 1.6527978254600873E9, 0.0, 2022-05-17 16:30:25.460
23.0, 60936.28685906969, 28079.98246907979, -42399.71696135008, -8096.964132423894, 11944.235795049168, -21382.148132580296, 27414.66044362312, 21968.166168709537, -0.042, 1.04, 0.156, 192.0, 0.0, 0.0, 0.0, 0.0, 0.0, 0.0, 0.0, 0.0, 0.0, 1.6527978254600916E9, 0.0, 2022-05-17 16:30:25.460
24.0, 60916.66202743793, 28026.807669020614, -42442.09586883734, -8152.016479017316, 11908.69652136523, -21446.074121722475, 27384.70910605301, 21928.491822301366, -0.042, 1.04, 0.156, 192.0, 0.0, 0.0, 0.0, 0.0, 0.0, 0.0, 0.0, 0.0, 0.0, 1.652797825460096E9, 0.0, 2022-05-17 16:30:25.460
25.0, 60881.92741655438, 27990.329622069556, -42515.61075635085, -8188.606284690653, 11889.116393222379, -21483.468590196204, 27358.110530151193, 21917.58417100718, -0.042, 1.04, 0.156, 192.0, 0.0, 0.0, 0.0, 0.0, 0.0, 0.0, 0.0, 0.0, 0.0, 1.6527978254601014E9, 0.0, 2022-05-17 16:30:25.460
26.0, 60845.09174169204, 27995.626985505463, -42542.65636714177, -8180.291435753279, 11885.093079220424, -21473.38795344686, 27371.52157682438, 21999.34685222469, -0.042, 1.04, 0.156, 192.0, 0.0, 0.0, 0.0, 0.0, 0.0, 0.0, 0.0, 0.0, 0.0, 1.652797825460106E9, 0.0, 2022-05-17 16:30:25.460
27.0, 60898.46770745131, 28069.678314885896, -42467.08511913838, -8109.74933025233, 11924.901536095327, -21410.154868382797, 27442.466013725523, 22047.738378970433, -0.042, 1.04, 0.156, 192.0, 0.0, 0.0, 0.0, 0.0, 0.0, 0.0, 0.0, 0.0, 0.0, 1.6527978254601102E9, 0.0, 2022-05-17 16:30:25.460
28.0, 60969.97093796384, 28101.261329801244, -42435.815028645404, -8077.004024625305, 11958.607966733929, -21389.591263483915, 27452.747816174964, 21926.368406578113, -0.026000000000000002, 0.984, 0.146, 192.0, 255.0, 48.0, 30.0, 192.0, 4.0, 144.0, 0.0, 0.0, 0.0, 1.6527978254601147E9, 0.0, 2022-05-17 16:30:25.460
29.0, 60936.91270791444, 28041.78333780567, -42497.349381130865, -8127.831891516673, 11927.986076830159, -21443.637781576846, 27411.464144166013, 21922.143926876062, -0.026000000000000002, 0.984, 0.146, 192.0, 0.0, 0.0, 0.0, 0.0, 0.0, 0.0, 0.0, 0.0, 0.0, 1.6527978254601195E9, 0.0, 2022-05-17 16:30:25.460
30.0, 60900.121736541005, 28002.846598964526, -42531.77106759204, -8157.179731986491, 11903.287399207044, -21499.293625270562, 27374.159082670103, 21887.498722970337, -0.026000000000000002, 0.984, 0.146, 192.0, 0.0, 0.0, 0.0, 0.0, 0.0, 0.0, 0.0, 0.0, 0.0, 1.652797825460124E9, 0.0, 2022-05-17 16:30:25.460
31.0, 60876.920625796396, 28028.17112543239, -42517.22008195163, -8103.669655760486, 11897.252428204112, -21456.87001429439, 27398.969519015496, 21903.435516766967, -0.026000000000000002, 0.984, 0.146, 192.0, 0.0, 0.0, 0.0, 0.0, 0.0, 0.0, 0.0, 0.0, 0.0, 1.6527978254601285E9, 0.0, 2022-05-17 16:30:25.460
32.0, 60901.172268530405, 28074.03690505468, -42493.61663980682, -8046.560948677176, 11934.043399577547, -21403.404641557296, 27453.03838885288, 21962.91350876254, -0.026000000000000002, 0.984, 0.146, 192.0, 0.0, 0.0, 0.0, 0.0, 0.0, 0.0, 0.0, 0.0, 0.0, 1.6527978254601333E9, 0.0, 2022-05-17 16:30:25.460
33.0, 60948.80383596467, 28087.93969010588, -42459.19495334566, -8040.078942785138, 11949.287289296066, -21409.305502093495, 27453.328961530802, 21953.592831324677, -0.026000000000000002, 0.984, 0.146, 192.0, 0.0, 0.0, 0.0, 0.0, 0.0, 0.0, 0.0, 0.0, 0.0, 1.6527978254601378E9, 0.0, 2022-05-17 16:30:25.460
34.0, 60933.35878054605, 28033.200267934833, -42483.714817013126, -8096.003007412316, 11917.078425535969, -21483.64740415185, 27402.881074295175, 21947.446101599468, -0.026000000000000002, 0.984, 0.146, 192.0, 0.0, 0.0, 0.0, 0.0, 0.0, 0.0, 0.0, 0.0, 0.0, 1.6527978254601429E9, 0.0, 2022-05-17 16:30:25.460
35.0, 60885.1237160115, 27988.92146216887, -42534.63209088232, -8141.578214356687, 11878.320500650467, -21544.22063162573, 27338.999788641908, 21946.887307988087, -0.026000000000000002, 0.984, 0.146, 192.0, 0.0, 0.0, 0.0, 0.0, 0.0, 0.0, 0.0, 0.0, 0.0, 1.6527978254601471E9, 0.0, 2022-05-17 16:30:25.460
36.0, 60876.7194600963, 28020.236256150754, -42530.76523909155, -8115.337266366157, 11889.138744966835, -21531.949523919764, 27320.11256457717, 22002.274930748335, -0.026000000000000002, 0.984, 0.146, 192.0, 0.0, 0.0, 0.0, 0.0, 0.0, 0.0, 0.0, 0.0, 0.0, 1.6527978254601517E9, 0.0, 2022-05-17 16:30:25.460
37.0, 60907.81073663363, 28072.74050387627, -42484.69829376916, -8061.916597117973, 11931.897632109838, -21478.975889560686, 27392.956899757017, 22178.250214844968, -0.026000000000000002, 0.984, 0.146, 192.0, 0.0, 0.0, 0.0, 0.0, 0.0, 0.0, 0.0, 0.0, 0.0, 1.652797825460156E9, 0.0, 2022-05-17 16:30:25.460
38.0, 60941.40540854996, 28078.864881857025, -42422.58279592786, -8036.25679448328, 11961.111362112924, -21480.58521516147, 27493.562101550353, 22148.76826390842, -0.016, 0.986, 0.128, 192.0, 255.0, 128.0, 30.0, 208.0, 4.0, 0.0, 0.0, 0.0, 0.0, 1.6527978254601605E9, 0.0, 2022-05-17 16:30:25.460
39.0, 60910.93998085737, 28022.247913151732, -42465.87812493779, -8053.937024347428, 11937.954954857225, -21516.951503390253, 27418.683757625076, 22054.622716262667, -0.016, 0.986, 0.128, 192.0, 0.0, 0.0, 0.0, 0.0, 0.0, 0.0, 0.0, 0.0, 0.0, 1.6527978254601648E9, 0.0, 2022-05-17 16:30:25.460
40.0, 60873.23258796127, 27985.702810967305, -42530.541721646994, -8097.433519057456, 11903.712082351694, -21551.306134618062, 27386.31843165379, 22137.57003993631, -0.016, 0.986, 0.128, 192.0, 0.0, 0.0, 0.0, 0.0, 0.0, 0.0, 0.0, 0.0, 0.0, 1.6527978254601693E9, 0.0, 2022-05-17 16:30:25.460
41.0, 60863.24135818975, 28023.365500374497, -42448.28730205147, -8046.3150794881685, 11928.254297763622, -21477.232453493172, 27426.7750891179, 22142.710941161033, -0.016, 0.986, 0.128, 192.0, 0.0, 0.0, 0.0, 0.0, 0.0, 0.0, 0.0, 0.0, 0.0, 1.6527978254601736E9, 0.0, 2022-05-17 16:30:25.460
42.0, 60899.31707374062, 28071.265288742223, -42373.744234293015, -7985.764203758741, 11990.548609560563, -21401.840019445423, 27482.654450256166, 22274.250957280514, -0.016, 0.986, 0.128, 192.0, 0.0, 0.0, 0.0, 0.0, 0.0, 0.0, 0.0, 0.0, 0.0, 1.652797825460178E9, 0.0, 2022-05-17 16:30:25.460
43.0, 60870.25980594871, 28032.619122578995, -42463.10650862533, -8026.824358323141, 12005.636037067896, -21421.643665032825, 27436.18517353358, 22301.140105860246, -0.016, 0.986, 0.128, 192.0, 0.0, 0.0, 0.0, 0.0, 0.0, 0.0, 0.0, 0.0, 0.0, 1.6527978254601853E9, 0.0, 2022-05-17 16:30:25.460
44.0, 60904.882658109986, 28008.792162989637, -42387.19998445511, -8063.078887829649, 11998.438775353286, -21459.14989222883, 27457.978124377507, 22230.21802070356, -0.016, 0.986, 0.128, 192.0, 0.0, 0.0, 0.0, 0.0, 0.0, 0.0, 0.0, 0.0, 0.0, 1.6527978254601896E9, 0.0, 2022-05-17 16:30:25.460
45.0, 60871.91383503841, 27971.956488127293, -42468.15800287223, -8108.1847081404585, 11969.336804072476, -21490.19646527725, 27456.637019710186, 22174.584528754298, -0.016, 0.986, 0.128, 192.0, 0.0, 0.0, 0.0, 0.0, 0.0, 0.0, 0.0, 0.0, 0.0, 1.652797825460194E9, 0.0, 2022-05-17 16:30:25.460
46.0, 60850.56791908359, 27991.670726736873, -42490.979133961104, -8097.433519057456, 11989.520429315618, -21466.48126441017, 27453.999513864463, 22249.284058723933, -0.016, 0.986, 0.128, 192.0, 0.0, 0.0, 0.0, 0.0, 0.0, 0.0, 0.0, 0.0, 0.0, 1.6527978254601982E9, 0.0, 2022-05-17 16:30:25.460
47.0, 60959.37621109202, 28086.732695905295, -42316.30025104288, -8030.959431047372, 12032.368723436442, -21408.322025337464, 27510.25885465847, 22350.693923317664, -0.016, 0.986, 0.128, 192.0, 0.0, 0.0, 0.0, 0.0, 0.0, 0.0, 0.0, 0.0, 0.0, 1.652797825460203E9, 0.0, 2022-05-17 16:30:25.460
48.0, 60999.944627278404, 28091.85124538556, -42358.70151027459, -8056.462771470878, 12059.794313883105, -21432.43955760474, 27506.25789240097, 22351.923269262705, 0.02, 1.06, 0.23, 192.0, 0.0, 160.0, 33.0, 32.0, 7.0, 48.0, 0.0, 0.0, 0.0, 1.652797825460208E9, 0.0, 2022-05-17 16:30:25.460
49.0, 61018.74244436532, 28053.763872833715, -42351.77246949345, -8128.368333383601, 12014.286162172099, -21515.789212678577, 27451.987856863485, 22286.633823708755, 0.02, 1.06, 0.23, 192.0, 0.0, 0.0, 0.0, 0.0, 0.0, 0.0, 0.0, 0.0, 0.0, 1.6527978254602125E9, 0.0, 2022-05-17 16:30:25.460
50.0, 60997.21771445486, 28030.942741744846, -42385.076568731856, -8182.57131368772, 11964.240606336667, -21566.88530050341, 27408.75958308692, 22227.11112822427, 0.02, 1.06, 0.23, 192.0, 0.0, 0.0, 0.0, 0.0, 0.0, 0.0, 0.0, 0.0, 0.0, 1.6527978254602168E9, 0.0, 2022-05-17 16:30:25.460
51.0, 60985.125420704535, 28065.565593906118, -42363.19421091011, -8168.42265944751, 11978.411612321332, -21532.709483231247, 27424.316397227813, 22224.361863656268, 0.02, 1.06, 0.23, 192.0, 0.0, 0.0, 0.0, 0.0, 0.0, 0.0, 0.0, 0.0, 0.0, 1.6527978254602213E9, 0.0, 2022-05-17 16:30:25.460
52.0, 61008.013607026776, 28110.961986894847, -42369.38564412423, -8136.169092198503, 12060.800142383594, -21494.130372301384, 27450.80321440735, 22255.967230316073, 0.02, 1.06, 0.23, 192.0, 0.0, 0.0, 0.0, 0.0, 0.0, 0.0, 0.0, 0.0, 0.0, 1.6527978254602265E9, 0.0, 2022-05-17 16:30:25.460
53.0, 60998.0447289997, 28087.626765683504, -42408.38943819874, -8168.489714680877, 12052.48529344622, -21521.801831937057, 27394.163893957604, 22243.941991799118, 0.02, 1.06, 0.23, 192.0, 0.0, 0.0, 0.0, 0.0, 0.0, 0.0, 0.0, 0.0, 0.0, 1.6527978254602315E9, 0.0, 2022-05-17 16:30:25.460
54.0, 61015.814365841674, 28056.289619957166, -42426.1143715518, -8230.068770655247, 11952.237719564167, -21568.36051563746, 27294.296299731293, 22208.58153207082, 0.02, 1.06, 0.23, 192.0, 0.0, 0.0, 0.0, 0.0, 0.0, 0.0, 0.0, 0.0, 0.0, 1.6527978254602363E9, 0.0, 2022-05-17 16:30:25.460
55.0, 61028.21958401437, 28053.786224578173, -42459.91020916822, -8270.3019106748, 11810.415900995244, -21575.803646541077, 27231.085566411683, 22203.19476165709, 0.02, 1.06, 0.23, 192.0, 0.0, 0.0, 0.0, 0.0, 0.0, 0.0, 0.0, 0.0, 0.0, 1.6527978254602408E9, 0.0, 2022-05-17 16:30:25.460
56.0, 60996.21188595437, 28058.83771882507, -42454.54579049895, -8314.3124955073, 11716.002132416026, -21564.31484989105, 27202.43063001998, 22221.16556419916, 0.02, 1.06, 0.23, 192.0, 0.0, 0.0, 0.0, 0.0, 0.0, 0.0, 0.0, 0.0, 0.0, 1.652797825460246E9, 0.0, 2022-05-17 16:30:25.460
57.0, 61038.50138646381, 28109.0844403606, -42396.69947584862, -8300.566172667286, 11696.64552171773, -21518.98551213569, 27219.127383128096, 22264.371486231266, 0.02, 1.06, 0.23, 192.0, 0.0, 0.0, 0.0, 0.0, 0.0, 0.0, 0.0, 0.0, 0.0, 1.6527978254602509E9, 0.0, 2022-05-17 16:30:25.460
58.0, 60965.567644306146, 28040.397529649443, -42524.43969541069, -8382.261798651434, 11590.988825677494, -21568.584033082014, 27159.738798110342, 22197.49506682099, -0.076, 0.928, 0.194, 192.0, 253.0, 160.0, 29.0, 0.0, 6.0, 16.0, 0.0, 0.0, 0.0, 1.6527978254602556E9, 0.0, 2022-05-17 16:30:25.460
59.0, 61015.74731060831, 28029.556933588618, -42522.450390154176, -8428.19463350709, 11629.456177885078, -21587.8959402914, 27146.953600281908, 22155.831415156295, -0.076, 0.928, 0.194, 192.0, 0.0, 0.0, 0.0, 0.0, 0.0, 0.0, 0.0, 0.0, 0.0, 1.6527978254602606E9, 0.0, 2022-05-17 16:30:25.460
60.0, 61031.1029590491, 28027.79114577665, -42455.70808121063, -8421.980848548514, 11650.422114184155, -21576.004812241175, 27149.90403055001, 22143.60501093924, -0.076, 0.928, 0.194, 192.0, 0.0, 0.0, 0.0, 0.0, 0.0, 0.0, 0.0, 0.0, 0.0, 1.6527978254602656E9, 0.0, 2022-05-17 16:30:25.460
61.0, 60972.899016487485, 28032.842640023548, -42580.22964957114, -8408.167470475135, 11694.07507110537, -21538.230364111707, 27173.37336222808, 22164.749761193965, -0.076, 0.928, 0.194, 192.0, 0.0, 0.0, 0.0, 0.0, 0.0, 0.0, 0.0, 0.0, 0.0, 1.6527978254602704E9, 0.0, 2022-05-17 16:30:25.460
62.0, 60987.651167827986, 28086.576233694108, -42577.01099836958, -8340.754609197927, 11797.585999677898, -21472.96327030221, 27231.689063511978, 22203.86531399075, -0.076, 0.928, 0.194, 192.0, 0.0, 0.0, 0.0, 0.0, 0.0, 0.0, 0.0, 0.0, 0.0, 1.652797825460276E9, 0.0, 2022-05-17 16:30:25.460
63.0, 61077.28166309377, 28128.888085948, -42374.9512284936, -8297.995722054926, 11899.26408520509, -21424.9070197233, 27268.591793607688, 22220.383253143224, -0.076, 0.928, 0.194, 192.0, 0.0, 0.0, 0.0, 0.0, 0.0, 0.0, 0.0, 0.0, 0.0, 1.652797825460284E9, 0.0, 2022-05-17 16:30:25.460
64.0, 61063.222415831384, 28088.051448828155, -42332.348803561785, -8312.725521650973, 11955.970460888204, -21453.360790414907, 27261.372180148624, 22180.105409634758, -0.076, 0.928, 0.194, 192.0, 0.0, 0.0, 0.0, 0.0, 0.0, 0.0, 0.0, 0.0, 0.0, 1.6527978254602933E9, 0.0, 2022-05-17 16:30:25.460
65.0, 60965.9923274508, 28011.11674441299, -42640.55700785601, -8362.838132719771, 11934.60219318893, -21519.141974346876, 27207.884455667074, 22088.57501609028, -0.076, 0.928, 0.194, 192.0, 0.0, 0.0, 0.0, 0.0, 0.0, 0.0, 0.0, 0.0, 0.0, 1.6527978254602983E9, 0.0, 2022-05-17 16:30:25.460
66.0, 60974.91067348846, 28063.866861327515, -42404.29906896342, -8283.556495136798, 12044.662182886861, -21466.30245045453, 27265.283735428304, 22112.156106490627, -0.076, 0.928, 0.194, 192.0, 0.0, 0.0, 0.0, 0.0, 0.0, 0.0, 0.0, 0.0, 0.0, 1.6527978254603035E9, 0.0, 2022-05-17 16:30:25.460
67.0, 60929.558983988645, 28066.03498053968, -42540.80117235198, -8288.563285894787, 12140.439407877851, -21449.04690373503, 27277.4877879009, 22114.771260591897, -0.076, 0.928, 0.194, 192.0, 0.0, 0.0, 0.0, 0.0, 0.0, 0.0, 0.0, 0.0, 0.0, 1.6527978254603112E9, 0.0, 2022-05-17 16:30:25.460
68.0, 61000.59282786761, 28099.249672800266, -42447.54969448444, -8226.492491542398, 12226.918307175436, -21445.314162410996, 27294.92214857604, 22090.385507391158, -0.068, 0.976, 0.15, 192.0, 253.0, 224.0, 30.0, 128.0, 4.0, 176.0, 0.0, 0.0, 0.0, 1.6527978254603157E9, 0.0, 2022-05-17 16:30:25.460
69.0, 61011.612237884074, 28079.1778062794, -42508.77112254752, -8234.807340479772, 12292.900656807502, -21468.87290106689, 27302.96877657995, 22041.189317845026, -0.068, 0.976, 0.15, 192.0, 0.0, 0.0, 0.0, 0.0, 0.0, 0.0, 0.0, 0.0, 0.0, 1.6527978254603217E9, 0.0, 2022-05-17 16:30:25.460
70.0, 61006.650150615, 28073.522814932207, -42433.89277862225, -8233.980325934926, 12334.541956727739, -21490.799962377547, 27320.716061677464, 22041.010503889385, -0.068, 0.976, 0.15, 192.0, 0.0, 0.0, 0.0, 0.0, 0.0, 0.0, 0.0, 0.0, 0.0, 1.652797825460328E9, 0.0, 2022-05-17 16:30:25.460
71.0, 60988.835810284116, 28109.464420016342, -42458.72556671209, -8154.832798818684, 12398.69146331447, -21452.9137555258, 27373.712047781, 22082.13771368715, -0.068, 0.976, 0.15, 192.0, 0.0, 0.0, 0.0, 0.0, 0.0, 0.0, 0.0, 0.0, 0.0, 1.6527978254603329E9, 0.0, 2022-05-17 16:30:25.460
72.0, 60982.39850788099, 28148.781138513226, -42470.1249563843, -8105.658961017009, 12434.78953060979, -21418.559124297994, 27425.791612361863, 22076.303908384314, -0.068, 0.976, 0.15, 192.0, 0.0, 0.0, 0.0, 0.0, 0.0, 0.0, 0.0, 0.0, 0.0, 1.6527978254603372E9, 0.0, 2022-05-17 16:30:25.460
73.0, 60994.75902256477, 28160.80637703018, -42412.34569696733, -8088.157545108503, 12442.009144068856, -21420.66018827679, 27472.64086874019, 22099.750888317933, -0.068, 0.976, 0.15, 192.0, 0.0, 0.0, 0.0, 0.0, 0.0, 0.0, 0.0, 0.0, 0.0, 1.6527978254603417E9, 0.0, 2022-05-17 16:30:25.460
74.0, 60973.16723742095, 28104.83760891409, -42486.68759902568, -8148.909586538028, 12399.11614645912, -21496.611415935924, 27445.885830627183, 22035.55667824229, -0.068, 0.976, 0.15, 192.0, 0.0, 0.0, 0.0, 0.0, 0.0, 0.0, 0.0, 0.0, 0.0, 1.652797825460346E9, 0.0, 2022-05-17 16:30:25.460
75.0, 60954.61528952304, 28071.35469572004, -42510.73807605959, -8192.964874859437, 12363.621576264093, -21540.912573446345, 27419.063737280816, 21957.19146218198, -0.068, 0.976, 0.15, 192.0, 0.0, 0.0, 0.0, 0.0, 0.0, 0.0, 0.0, 0.0, 0.0, 1.6527978254603522E9, 0.0, 2022-05-17 16:30:25.460
76.0, 60902.11104179753, 28077.412018467432, -42540.8905793298, -8193.702482426463, 12349.696439468436, -21542.477195558215, 27440.007321835437, 21961.080665717207, -0.068, 0.976, 0.15, 192.0, 0.0, 0.0, 0.0, 0.0, 0.0, 0.0, 0.0, 0.0, 0.0, 1.6527978254603572E9, 0.0, 2022-05-17 16:30:25.460
77.0, 60905.55321044364, 28122.38372831151, -42412.97154581208, -8085.229466584858, 12396.031605724289, -21493.88450311238, 27497.96539520805, 22014.88131462113, -0.068, 0.976, 0.15, 192.0, 0.0, 0.0, 0.0, 0.0, 0.0, 0.0, 0.0, 0.0, 0.0, 1.652797825460362E9, 0.0, 2022-05-17 16:30:25.460
78.0, 60966.34995536208, 28143.841402988604, -42383.13196696425, -8055.099315059104, 12453.810865141257, -21490.688203655267, 27519.19955244059, 22038.685922466033, -0.032, 1.024, 0.116, 192.0, 255.0, 0.0, 32.0, 0.0, 3.0, 160.0, 0.0, 0.0, 0.0, 1.652797825460367E9, 0.0, 2022-05-17 16:30:25.460
79.0, 60959.30915585866, 28091.873597130016, -42457.40681378923, -8107.849431973628, 12455.263728530852, -21557.45286434327, 27480.06164789935, 21975.72105833543, -0.032, 1.024, 0.116, 192.0, 0.0, 0.0, 0.0, 0.0, 0.0, 0.0, 0.0, 0.0, 0.0, 1.6527978254603717E9, 0.0, 2022-05-17 16:30:25.460
80.0, 60883.6708526219, 28036.933009258868, -42563.17526855174, -8153.80461857374, 12423.79247233778, -21617.37789122795, 27433.882943854685, 21908.688176713968, -0.032, 1.024, 0.116, 192.0, 0.0, 0.0, 0.0, 0.0, 0.0, 0.0, 0.0, 0.0, 0.0, 1.652797825460376E9, 0.0, 2022-05-17 16:30:25.460
81.0, 60892.70095738184, 28084.94455634887, -42475.377616331294, -8076.221713569369, 12438.052885300265, -21574.998983740687, 27466.851766926262, 21967.093284975683, -0.032, 1.024, 0.116, 192.0, 0.0, 0.0, 0.0, 0.0, 0.0, 0.0, 0.0, 0.0, 0.0, 1.6527978254603825E9, 0.0, 2022-05-17 16:30:25.460
82.0, 60925.55802173114, 28136.621789529538, -42394.5537083809, -8003.310323156157, 12482.46580153296, -21521.846535425968, 27514.460982616067, 22026.481869993433, -0.032, 1.024, 0.116, 192.0, 0.0, 0.0, 0.0, 0.0, 0.0, 0.0, 0.0, 0.0, 0.0, 1.6527978254603875E9, 0.0, 2022-05-17 16:30:25.460
83.0, 60943.77469346222, 28136.398272084985, -42409.752894610516, -7997.63298006451, 12510.964275713477, -21531.368378563926, 27513.47750586003, 22015.35070125469, -0.032, 1.024, 0.116, 192.0, 0.0, 0.0, 0.0, 0.0, 0.0, 0.0, 0.0, 0.0, 0.0, 1.6527978254603925E9, 0.0, 2022-05-17 16:30:25.460
84.0, 60925.53566998669, 28084.184597037387, -42476.91988669871, -8045.935099832428, 12480.454144531983, -21584.006736756175, 27468.72931346051, 21963.740523307388, -0.032, 1.024, 0.116, 192.0, 0.0, 0.0, 0.0, 0.0, 0.0, 0.0, 0.0, 0.0, 0.0, 1.6527978254603972E9, 0.0, 2022-05-17 16:30:25.460
85.0, 60901.328730741596, 28055.75317809024, -42460.290188823965, -8062.743611662819, 12467.266615303352, -21628.240839033228, 27436.453394467044, 21933.63272352609, -0.032, 1.024, 0.116, 192.0, 0.0, 0.0, 0.0, 0.0, 0.0, 0.0, 0.0, 0.0, 0.0, 1.6527978254604023E9, 0.0, 2022-05-17 16:30:25.460
86.0, 60880.09457350905, 28067.398436951455, -42465.85577319333, -8038.223747995347, 12453.587347696704, -21620.060100562587, 27429.636112408178, 21950.240069656382, -0.032, 1.024, 0.116, 192.0, 0.0, 0.0, 0.0, 0.0, 0.0, 0.0, 0.0, 0.0, 0.0, 1.6527978254604104E9, 0.0, 2022-05-17 16:30:25.460
87.0, 60895.33846322757, 28112.32544330662, -42413.97737431257, -7983.529029313211, 12492.926417938044, -21565.924175491833, 27460.973258134516, 22000.330328980726, -0.032, 1.024, 0.116, 192.0, 0.0, 0.0, 0.0, 0.0, 0.0, 0.0, 0.0, 0.0, 0.0, 1.6527978254604146E9, 0.0, 2022-05-17 16:30:25.460
88.0, 60943.28295508421, 28132.553772038675, -42385.68006583215, -7969.425078561912, 12524.978819486954, -21550.03208518411, 27461.66616221263, 21998.765706868853, -0.044, 1.028, 0.114, 192.0, 254.0, 160.0, 32.0, 32.0, 3.0, 144.0, 0.0, 0.0, 0.0, 1.652797825460419E9, 0.0, 2022-05-17 16:30:25.460
89.0, 60932.59882123457, 28083.916376103924, -42441.425316503686, -8023.91863154395, 12502.403557587095, -21596.769582840156, 27416.940321557562, 21935.711435760433, -0.044, 1.028, 0.114, 192.0, 0.0, 0.0, 0.0, 0.0, 0.0, 0.0, 0.0, 0.0, 0.0, 1.6527978254604235E9, 0.0, 2022-05-17 16:30:25.460
90.0, 60874.394878672945, 28038.587038348564, -42495.69535204117, -8067.325719276157, 12459.979946610922, -21622.675254663856, 27371.767446013386, 21906.81063017972, -0.044, 1.028, 0.114, 192.0, 0.0, 0.0, 0.0, 0.0, 0.0, 0.0, 0.0, 0.0, 0.0, 1.652797825460428E9, 0.0, 2022-05-17 16:30:25.460
91.0, 60896.970140572805, 28086.442123227374, -42386.37296991026, -8015.134395973015, 12475.603815985181, -21561.632640556414, 27413.14052500016, 21981.420753171536, -0.044, 1.028, 0.114, 192.0, 0.0, 0.0, 0.0, 0.0, 0.0, 0.0, 0.0, 0.0, 0.0, 1.6527978254604323E9, 0.0, 2022-05-17 16:30:25.460
92.0, 60923.903992641455, 28125.892952190992, -42358.88032423024, -7981.718538012331, 12551.756209344412, -21519.946637147266, 27422.550609415845, 22005.02419531634, -0.044, 1.028, 0.114, 192.0, 0.0, 0.0, 0.0, 0.0, 0.0, 0.0, 0.0, 0.0, 0.0, 1.6527978254604366E9, 0.0, 2022-05-17 16:30:25.460
93.0, 60915.2762192817, 28114.001824140767, -42414.15618826821, -8009.658218581465, 12590.760003418924, -21528.97674190721, 27418.10261226924, 22000.062108047263, -0.044, 1.028, 0.114, 192.0, 0.0, 0.0, 0.0, 0.0, 0.0, 0.0, 0.0, 0.0, 0.0, 1.6527978254604409E9, 0.0, 2022-05-17 16:30:25.460
94.0, 60919.09836758356, 28066.437311939873, -42427.27666226347, -8060.441381983922, 12528.465691621983, -21573.27789941763, 27381.043419962338, 21934.035054926284, -0.044, 1.028, 0.114, 192.0, 0.0, 0.0, 0.0, 0.0, 0.0, 0.0, 0.0, 0.0, 0.0, 1.6527978254604456E9, 0.0, 2022-05-17 16:30:25.460
95.0, 60884.408460188926, 28032.194439434345, -42440.39713625874, -8089.543353264732, 12483.024595144343, -21590.22052171475, 27347.89578293512, 21940.33824686268, -0.044, 1.028, 0.114, 192.0, 0.0, 0.0, 0.0, 0.0, 0.0, 0.0, 0.0, 0.0, 0.0, 1.65279782546045E9, 0.0, 2022-05-17 16:30:25.460
96.0, 60863.219006445295, 28056.826061824093, -42447.68380495117, -8061.178989550947, 12496.65915926208, -21564.694829546792, 27376.640126304643, 21998.31867197975, -0.044, 1.028, 0.114, 192.0, 0.0, 0.0, 0.0, 0.0, 0.0, 0.0, 0.0, 0.0, 0.0, 1.6527978254604542E9, 0.0, 2022-05-17 16:30:25.460
97.0, 60897.5736376731, 28117.399289297973, -42401.75097009551, -7998.795270776185, 12551.510340155404, -21496.812581636023, 27429.256132752434, 21997.648119646088, -0.044, 1.028, 0.114, 192.0, 0.0, 0.0, 0.0, 0.0, 0.0, 0.0, 0.0, 0.0, 0.0, 1.6527978254604588E9, 0.0, 2022-05-17 16:30:25.460
98.0, 60925.46861475332, 28119.43329804341, -42394.5537083809, -8004.785538290208, 12562.842674594245, -21486.083744297477, 27421.18715300407, 22013.339044253713, -0.064, 1.046, 0.146, 192.0, 254.0, 0.0, 32.0, 176.0, 4.0, 144.0, 0.0, 0.0, 0.0, 1.6527978254604633E9, 0.0, 2022-05-17 16:30:25.460
99.0, 60928.709617699344, 28088.073800572613, -42394.44194965863, -8044.035201553727, 12543.240194706941, -21513.464631255225, 27369.934602968053, 21936.694912516465, -0.064, 1.046, 0.146, 192.0, 0.0, 0.0, 0.0, 0.0, 0.0, 0.0, 0.0, 0.0, 0.0, 1.6527978254604676E9, 0.0, 2022-05-17 16:30:25.460
100.0, 60881.48038166528, 28047.818308808604, -42476.294037853964, -8079.17214383747, 12507.544458811815, -21547.573393294024, 27346.688788734533, 21912.040938382263, -0.064, 1.046, 0.146, 192.0, 0.0, 0.0, 0.0, 0.0, 0.0, 0.0, 0.0, 0.0, 0.0, 1.6527978254604723E9, 0.0, 2022-05-17 16:30:25.460
101.0, 60872.226759460784, 28066.79493985116, -42431.568197198896, -8056.373364493056, 12506.248057633407, -21522.6288464819, 27367.386504100145, 21953.458720857947, -0.064, 1.046, 0.146, 192.0, 0.0, 0.0, 0.0, 0.0, 0.0, 0.0, 0.0, 0.0, 0.0, 1.6527978254604769E9, 0.0, 2022-05-17 16:30:25.460
102.0, 60902.46866970881, 28117.443992786884, -42363.7977080104, -8005.769015046241, 12554.505473912415, -21471.778627846077, 27388.93358575506, 22008.801640129288, -0.064, 1.046, 0.146, 192.0, 0.0, 0.0, 0.0, 0.0, 0.0, 0.0, 0.0, 0.0, 0.0, 1.652797825460482E9, 0.0, 2022-05-17 16:30:25.460
103.0, 60929.87190841102, 28122.584894011605, -42347.07860315783, -8016.140224473504, 12576.365479989707, -21457.04882825003, 27392.62162359019, 22020.6480646906, -0.064, 1.046, 0.146, 192.0, 0.0, 0.0, 0.0, 0.0, 0.0, 0.0, 0.0, 0.0, 0.0, 1.6527978254604888E9, 0.0, 2022-05-17 16:30:25.460
104.0, 60912.66106518043, 28066.683181128883, -42417.9112813367, -8080.513248504788, 12534.634773091648, -21524.037006382587, 27339.670340975565, 21959.717209305432, -0.064, 1.046, 0.146, 192.0, 0.0, 0.0, 0.0, 0.0, 0.0, 0.0, 0.0, 0.0, 0.0, 1.652797825460493E9, 0.0, 2022-05-17 16:30:25.460
105.0, 60881.86036132102, 28029.288712655154, -42480.78673848948, -8118.3994553565335, 12496.793269728812, -21569.813379027055, 27300.711250389966, 21929.967037435417, -0.064, 1.046, 0.146, 192.0, 0.0, 0.0, 0.0, 0.0, 0.0, 0.0, 0.0, 0.0, 0.0, 1.6527978254604976E9, 0.0, 2022-05-17 16:30:25.460
106.0, 60878.462896163815, 28063.419826438407, -42433.62455768878, -8086.2352950853465, 12499.631941274636, -21530.764881463634, 27324.4488030015, 21972.569462367235, -0.064, 1.046, 0.146, 192.0, 0.0, 0.0, 0.0, 0.0, 0.0, 0.0, 0.0, 0.0, 0.0, 1.6527978254605026E9, 0.0, 2022-05-17 16:30:25.460
107.0, 60911.99051284677, 28121.579065511116, -42356.98042595154, -8035.720352616353, 12535.506491125405, -21465.29662195404, 27373.95791697001, 22040.585820744735, -0.078, 1.014, 0.146, 192.0, 253.0, 144.0, 31.0, 176.0, 4.0, 144.0, 0.0, 0.0, 0.0, 1.6527978254605103E9, 0.0, 2022-05-17 16:30:25.460
108.0, 60952.558929033155, 28140.399234342487, -42348.68792875861, -8035.630945638532, 12565.502532184426, -21453.941935770745, 27383.256242663414, 22050.33118132725, -0.078, 1.014, 0.146, 192.0, 0.0, 0.0, 0.0, 0.0, 0.0, 0.0, 0.0, 0.0, 0.0, 1.6527978254605148E9, 0.0, 2022-05-17 16:30:25.460
109.0, 60921.5794112181, 28077.434370211886, -42438.81016240241, -8115.873708233084, 12506.963313455977, -21531.636599497393, 27311.26127377287, 21981.957195038463, -0.078, 1.014, 0.146, 192.0, 0.0, 0.0, 0.0, 0.0, 0.0, 0.0, 0.0, 0.0, 0.0, 1.6527978254605196E9, 0.0, 2022-05-17 16:30:25.460
110.0, 60881.92741655438, 28022.35967187401, -42476.47285180961, -8165.114601268126, 12458.147103565587, -21574.730762807223, 27262.892098771586, 21953.816348769233, -0.078, 1.014, 0.146, 192.0, 0.0, 0.0, 0.0, 0.0, 0.0, 0.0, 0.0, 0.0, 0.0, 1.652797825460524E9, 0.0, 2022-05-17 16:30:25.460
111.0, 60871.82442806059, 28049.829965809582, -42446.70032819514, -8129.776493284285, 12471.580501983226, -21530.295494830072, 27290.272985729338, 21994.652985889075, -0.078, 1.014, 0.146, 192.0, 0.0, 0.0, 0.0, 0.0, 0.0, 0.0, 0.0, 0.0, 0.0, 1.6527978254605284E9, 0.0, 2022-05-17 16:30:25.460
112.0, 60916.416158248925, 28120.126202121523, -42357.47216432955, -8050.852483612595, 12517.669799050069, -21463.374371930884, 27353.03668415984, 22048.297172581813, -0.078, 1.014, 0.146, 192.0, 0.0, 0.0, 0.0, 0.0, 0.0, 0.0, 0.0, 0.0, 0.0, 1.652797825460533E9, 0.0, 2022-05-17 16:30:25.460
113.0, 60957.67747851342, 28135.57125754014, -42363.17185916565, -8046.672707399453, 12544.603651118714, -21451.550299114027, 27364.07844592076, 22036.830727676243, -0.078, 1.014, 0.146, 192.0, 0.0, 0.0, 0.0, 0.0, 0.0, 0.0, 0.0, 0.0, 0.0, 1.6527978254605372E9, 0.0, 2022-05-17 16:30:25.460
114.0, 60965.7911617507, 28088.36437325053, -42432.30580476592, -8101.4344813149555, 12526.990476487932, -21515.319826045015, 27327.287474547324, 21978.559729881257, -0.078, 1.014, 0.146, 192.0, 0.0, 0.0, 0.0, 0.0, 0.0, 0.0, 0.0, 0.0, 0.0, 1.6527978254605415E9, 0.0, 2022-05-17 16:30:25.460
115.0, 60912.79517564717, 28045.113747729512, -42480.920848956215, -8148.5072551378325, 12490.266560347864, -21563.532538835116, 27276.414904167046, 21928.268304856814, -0.078, 1.014, 0.146, 192.0, 0.0, 0.0, 0.0, 0.0, 0.0, 0.0, 0.0, 0.0, 0.0, 1.652797825460546E9, 0.0, 2022-05-17 16:30:25.460
116.0, 60879.088745008565, 28071.019419553213, -42470.95197092914, -8122.378065869578, 12491.8982376931, -21541.22549786872, 27284.90856706006, 21942.595773052668, -0.078, 1.014, 0.146, 192.0, 0.0, 0.0, 0.0, 0.0, 0.0, 0.0, 0.0, 0.0, 0.0, 1.6527978254605503E9, 0.0, 2022-05-17 16:30:25.460
117.0, 60913.1751553029, 28133.17962088342, -42415.94432782463, -8070.298501288713, 12533.42777889106, -21487.514255942617, 27325.901666391095, 21981.107828749162, -0.058, 0.98, 0.136, 192.0, 254.0, 48.0, 30.0, 160.0, 4.0, 64.0, 0.0, 0.0, 0.0, 1.6527978254605553E9, 0.0, 2022-05-17 16:30:25.460
118.0, 60957.811588980156, 28149.317580380153, -42389.99395251202, -8061.69307967342, 12550.705677355014, -21469.67756386728, 27330.327311793248, 21987.053392774273, -0.058, 0.98, 0.136, 192.0, 0.0, 0.0, 0.0, 0.0, 0.0, 0.0, 0.0, 0.0, 0.0, 1.6527978254605596E9, 0.0, 2022-05-17 16:30:25.460
119.0, 60939.63962073799, 28092.767666908225, -42423.54392093944, -8117.617144300598, 12499.631941274636, -21518.382015035393, 27276.839587311697, 21948.898964989065, -0.058, 0.98, 0.136, 192.0, 0.0, 0.0, 0.0, 0.0, 0.0, 0.0, 0.0, 0.0, 0.0, 1.652797825460564E9, 0.0, 2022-05-17 16:30:25.460
120.0, 60899.853515607545, 28044.97963726278, -42477.18810763217, -8163.572330900709, 12451.262766273352, -21558.302230632573, 27221.966054673918, 21918.075909385196, -0.058, 0.98, 0.136, 192.0, 0.0, 0.0, 0.0, 0.0, 0.0, 0.0, 0.0, 0.0, 0.0, 1.652797825460569E9, 0.0, 2022-05-17 16:30:25.460
121.0, 60875.311300195615, 28058.100111258045, -42487.22404089261, -8139.4100951445225, 12445.071333059232, -21551.01556194014, 27243.334322373194, 21937.00783693884, -0.058, 0.98, 0.136, 192.0, 0.0, 0.0, 0.0, 0.0, 0.0, 0.0, 0.0, 0.0, 0.0, 1.6527978254605734E9, 0.0, 2022-05-17 16:30:25.460
122.0, 60912.996341347265, 28131.81616447165, -42419.49825519303, -8069.180914065947, 12499.386072085628, -21495.672642668804, 27313.898779618597, 21991.032003287317, -0.058, 0.98, 0.136, 192.0, 0.0, 0.0, 0.0, 0.0, 0.0, 0.0, 0.0, 0.0, 0.0, 1.6527978254605775E9, 0.0, 2022-05-17 16:30:25.460
123.0, 60947.462731297346, 28150.05518794718, -42398.44291191613, -8050.964242334872, 12520.083787451244, -21479.981718061175, 27318.235018042928, 21977.73271533641, -0.058, 0.98, 0.136, 192.0, 0.0, 0.0, 0.0, 0.0, 0.0, 0.0, 0.0, 0.0, 0.0, 1.6527978254605825E9, 0.0, 2022-05-17 16:30:25.460
124.0, 60934.27520206871, 28097.528588477206, -42452.601188731336, -8112.051559931227, 12461.186940811509, -21531.6813029863, 27258.689970813986, 21925.38492982208, -0.058, 0.98, 0.136, 192.0, 0.0, 0.0, 0.0, 0.0, 0.0, 0.0, 0.0, 0.0, 0.0, 1.6527978259395564E9, 0.0, 2022-05-17 16:30:25.939
125.0, 60896.00901556123, 28057.429558924385, -42505.21719517913, -8153.0893627511705, 12420.774986836313, -21572.942623250798, 27217.026319149296, 21843.7563590713, -0.058, 0.98, 0.136, 192.0, 0.0, 0.0, 0.0, 0.0, 0.0, 0.0, 0.0, 0.0, 0.0, 1.6527978259396849E9, 0.0, 2022-05-17 16:30:25.939
126.0, 60873.769029828196, 28078.641364412473, -42487.02287519251, -8126.803711271729, 12428.262821228842, -21568.606384826468, 27241.09914792766, 21869.505568683813, -0.058, 0.98, 0.136, 192.0, 0.0, 0.0, 0.0, 0.0, 0.0, 0.0, 0.0, 0.0, 0.0, 1.6527978259396975E9, 0.0, 2022-05-17 16:30:25.939
127.0, 60891.98570155927, 28122.674300989427, -42443.05699384892, -8062.095411073615, 12459.823484399734, -21547.416931082837, 27304.108715547172, 21924.66967399951, -0.05, 0.9480000000000001, 0.1, 192.0, 254.0, 112.0, 29.0, 160.0, 3.0, 32.0, 0.0, 0.0, 0.0, 1.6527978259397063E9, 0.0, 2022-05-17 16:30:25.939
128.0, 60900.09938479655, 28118.293359076186, -42453.31644455391, -8054.607576681087, 12467.84776065919, -21551.753169507167, 27306.92503534854, 21906.22948482388, -0.05, 0.9480000000000001, 0.1, 192.0, 0.0, 0.0, 0.0, 0.0, 0.0, 0.0, 0.0, 0.0, 0.0, 1.6527978259398005E9, 0.0, 2022-05-17 16:30:25.939
129.0, 60910.738815157274, 28088.61024243954, -42487.67107578171, -8096.2712283457795, 12448.89348136109, -21586.778353068632, 27273.330363432215, 21908.48701101387, -0.05, 0.9480000000000001, 0.1, 192.0, 0.0, 0.0, 0.0, 0.0, 0.0, 0.0, 0.0, 0.0, 0.0, 1.6527978259398065E9, 0.0, 2022-05-17 16:30:25.939
130.0, 60890.756355614234, 28050.45581465433, -42526.40664892276, -8136.392609643056, 12421.266725214331, -21634.342865269526, 27218.367423816613, 21894.226598051384, -0.05, 0.9480000000000001, 0.1, 192.0, 0.0, 0.0, 0.0, 0.0, 0.0, 0.0, 0.0, 0.0, 0.0, 1.6527978259398124E9, 0.0, 2022-05-17 16:30:25.939
131.0, 60877.613529874514, 28075.757989377737, -42516.84010229589, -8100.473356303377, 12368.628367022082, -21618.562533684082, 27239.445118837968, 21897.087621341663, -0.05, 0.9480000000000001, 0.1, 192.0, 0.0, 0.0, 0.0, 0.0, 0.0, 0.0, 0.0, 0.0, 0.0, 1.6527978259398167E9, 0.0, 2022-05-17 16:30:25.939
132.0, 60893.125640526494, 28122.3390248226, -42471.51076454053, -8051.92536734645, 12388.409660865029, -21546.45580607126, 27280.505273402367, 21918.880572185586, -0.05, 0.9480000000000001, 0.1, 192.0, 0.0, 0.0, 0.0, 0.0, 0.0, 0.0, 0.0, 0.0, 0.0, 1.6527978259398215E9, 0.0, 2022-05-17 16:30:25.939
133.0, 60910.627056435, 28123.300149834176, -42453.74112769856, -8033.954564804383, 12397.797393536257, -21539.392654823383, 27268.703552329967, 22003.906608093574, -0.05, 0.9480000000000001, 0.1, 192.0, 0.0, 0.0, 0.0, 0.0, 0.0, 0.0, 0.0, 0.0, 0.0, 1.6527978259398263E9, 0.0, 2022-05-17 16:30:25.939
134.0, 60901.39578597496, 28082.41880922542, -42475.08704365338, -8049.109047545082, 12356.469018038395, -21607.52077192316, 27213.38298480308, 21987.500427663377, -0.05, 0.9480000000000001, 0.1, 192.0, 0.0, 0.0, 0.0, 0.0, 0.0, 0.0, 0.0, 0.0, 0.0, 1.6527978259398305E9, 0.0, 2022-05-17 16:30:25.939
135.0, 60886.73304161228, 28064.425654938896, -42461.85481093584, -8025.639715867009, 12332.753817171315, -21587.694774591302, 27219.082679639185, 21820.64465530451, -0.05, 0.9480000000000001, 0.1, 192.0, 0.0, 0.0, 0.0, 0.0, 0.0, 0.0, 0.0, 0.0, 0.0, 1.6527978259398353E9, 0.0, 2022-05-17 16:30:25.939
136.0, 60873.38905017246, 28093.661736686438, -42423.54392093944, -7995.3083986411575, 12336.01717186179, -21506.937921874276, 27268.189462207494, 21920.86987744211, -0.05, 0.9480000000000001, 0.1, 192.0, 0.0, 0.0, 0.0, 0.0, 0.0, 0.0, 0.0, 0.0, 0.0, 1.65279782593984E9, 0.0, 2022-05-17 16:30:25.939
137.0, 60879.2675589642, 28123.434260300906, -42377.320513405866, -7959.255034834748, 12384.363995118618, -21433.445386105228, 27298.096096288693, 22031.84628866271, -0.032, 1.088, 0.138, 192.0, 255.0, 0.0, 34.0, 0.0, 4.0, 80.0, 0.0, 0.0, 0.0, 1.6527978259398456E9, 0.0, 2022-05-17 16:30:25.939
138.0, 60906.02259707721, 28120.61794049954, -42361.517830075965, -7936.188034556871, 12411.208440209442, -21406.422127058762, 27307.953215593483, 22095.548760360332, -0.032, 1.088, 0.138, 192.0, 0.0, 0.0, 0.0, 0.0, 0.0, 0.0, 0.0, 0.0, 0.0, 1.6527978259398506E9, 0.0, 2022-05-17 16:30:25.939
139.0, 60887.604759646034, 28073.23224225429, -42397.794711326926, -7990.77099451673, 12371.042355423255, -21472.404476690826, 27277.376029178624, 22101.248455196437, -0.032, 1.088, 0.138, 192.0, 0.0, 0.0, 0.0, 0.0, 0.0, 0.0, 0.0, 0.0, 0.0, 1.6527978259398553E9, 0.0, 2022-05-17 16:30:25.939
140.0, 60836.84394798803, 28027.433517865364, -42425.98026108507, -8049.824303367652, 12300.947284811413, -21499.40538399284, 27220.8261157067, 22061.84232972173, -0.032, 1.088, 0.138, 192.0, 0.0, 0.0, 0.0, 0.0, 0.0, 0.0, 0.0, 0.0, 0.0, 1.6527978259398615E9, 0.0, 2022-05-17 16:30:25.939
141.0, 60835.18991889834, 28071.13117827549, -42369.45269935759, -8025.237384466814, 12250.387638853508, -21464.424903920284, 27234.01364493533, 22146.309572018334, -0.032, 1.088, 0.138, 192.0, 0.0, 0.0, 0.0, 0.0, 0.0, 0.0, 0.0, 0.0, 0.0, 1.6527978259398673E9, 0.0, 2022-05-17 16:30:25.939
142.0, 60874.28311995067, 28121.802582955672, -42265.2265149625, -7995.710730041353, 12169.139047758466, -21395.402717042296, 27251.67152305502, 22243.897288310207, -0.032, 1.088, 0.138, 192.0, 0.0, 0.0, 0.0, 0.0, 0.0, 0.0, 0.0, 0.0, 0.0, 1.652797825939872E9, 0.0, 2022-05-17 16:30:25.939
143.0, 60935.05751312465, 28145.920115222947, -42182.36859826668, -8010.574640104132, 12167.149742501944, -21345.379512951316, 27266.40132265107, 22294.211065079104, -0.032, 1.088, 0.138, 192.0, 0.0, 0.0, 0.0, 0.0, 0.0, 0.0, 0.0, 0.0, 0.0, 1.652797825939878E9, 0.0, 2022-05-17 16:30:25.939
144.0, 60953.56475753365, 28091.85124538556, -42198.64066823014, -8119.651153046031, 12114.578439543062, -21408.746708482115, 27196.239196805862, 22239.426939419143, -0.032, 1.088, 0.138, 192.0, 0.0, 0.0, 0.0, 0.0, 0.0, 0.0, 0.0, 0.0, 0.0, 1.6527978259398837E9, 0.0, 2022-05-17 16:30:25.939
145.0, 60944.13232137351, 28061.02818978169, -42219.3160318513, -8145.623880103098, 12060.107238305478, -21491.850494366943, 27135.7553763098, 22187.6379475162, -0.032, 1.088, 0.138, 192.0, 0.0, 0.0, 0.0, 0.0, 0.0, 0.0, 0.0, 0.0, 0.0, 1.6527978259398887E9, 0.0, 2022-05-17 16:30:25.939
146.0, 60964.29359487219, 28103.36239378004, -42197.79130194084, -8150.027173760793, 12079.083869348035, -21475.690183125756, 27150.88750730604, 22189.04610741688, -0.032, 1.088, 0.138, 192.0, 0.0, 0.0, 0.0, 0.0, 0.0, 0.0, 0.0, 0.0, 0.0, 1.6527978259398944E9, 0.0, 2022-05-17 16:30:25.939
147.0, 60999.4975923893, 28148.736435024315, -42180.17812731006, -8158.766705842818, 12135.745541542237, -21447.661095578802, 27175.832054118164, 22151.71869417652, -0.032, 1.058, 0.228, 192.0, 255.0, 0.0, 33.0, 16.0, 7.0, 32.0, 0.0, 0.0, 0.0, 1.6527978259398992E9, 0.0, 2022-05-17 16:30:25.939
148.0, 61045.45277898941, 28165.947278254902, -42173.53965920683, -8153.312880195723, 12169.966062303312, -21431.724301782167, 27181.352934998624, 22136.340693991267, -0.032, 1.058, 0.228, 192.0, 0.0, 0.0, 0.0, 0.0, 0.0, 0.0, 0.0, 0.0, 0.0, 1.6527978259399047E9, 0.0, 2022-05-17 16:30:25.939
149.0, 61043.150549310514, 28112.794829940183, -42223.7640289979, -8207.71702619994, 12036.056761271568, -21466.324802198986, 27130.7038820629, 22107.551647132834, -0.032, 1.058, 0.228, 192.0, 0.0, 0.0, 0.0, 0.0, 0.0, 0.0, 0.0, 0.0, 0.0, 1.65279782593991E9, 0.0, 2022-05-17 16:30:25.939
